PDS_VERSION_ID         = PDS3
RECORD_TYPE            = STREAM
OBJECT                 = TEXT
  PUBLICATION_DATE     = 2014-04-25
  INTERCHANGE_FORMAT   = ASCII
  NOTE                 = "System transmission vs. wavelength."
END_OBJECT             = TEXT
END
    
The systrans directory contains the non-wavelength-integrated system 
transmission values (QE*optics*filter1*filter2) for each filter combination. 
The naming convention for these files is as follows:

<camera><filter 1><filter 2>_systrans.tab

where <camera> is "issna" or "isswa," and <filter 1> and <filter 2> represent
the filter names. For polarized filter combinations, values are given for the
parallel orientation of the filter (full transmission), with values for the 
perpendicular (blocking) orientation provided in files with subscript 
"_b_systrans.tab". 

Columns in systrans files are as follows:

 1st column: Wavelength (nm)  
 2nd column: Transmitted Flux
 3rd column: Transmitted Flux * Solar Flux (phot per cm^2-s-angstrom at 1 AU)

The solar spectrum used for this calculation is provided in solarflux.tab.

\begindata
       600.00000  1.53078e-07  8.15291e+06
       600.10000  1.53078e-07  8.14067e+06
       600.20000  1.53078e-07  8.12689e+06
       600.30000  1.53078e-07  8.11005e+06
       600.40000  1.53078e-07  8.09015e+06
       600.50000  2.27811e-07  1.20102e+07
       600.60000  2.27811e-07  1.20261e+07
       600.70000  2.27811e-07  1.20398e+07
       600.80000  2.27811e-07  1.20535e+07
       600.90000  2.27811e-07  1.20626e+07
       601.00000  2.27811e-07  1.20694e+07
       601.10000  2.27811e-07  1.20717e+07
       601.20000  2.27811e-07  1.20740e+07
       601.30000  2.27781e-07  1.20724e+07
       601.40000  2.27781e-07  1.20678e+07
       601.50000  1.94852e-07  1.03194e+07
       601.60000  1.94852e-07  1.02746e+07
       601.70000  1.94852e-07  1.02375e+07
       601.80000  1.94852e-07  1.02044e+07
       601.90000  1.94852e-07  1.01791e+07
       602.00000  1.94852e-07  1.01596e+07
       602.10000  1.94852e-07  1.01440e+07
       602.20000  1.94852e-07  1.01362e+07
       602.30000  1.94852e-07  1.01343e+07
       602.40000  1.94852e-07  1.01382e+07
       602.50000  2.07723e-07  1.08161e+07
       602.60000  2.07723e-07  1.08328e+07
       602.70000  2.07723e-07  1.08556e+07
       602.80000  2.07723e-07  1.08847e+07
       602.90000  2.07723e-07  1.09200e+07
       603.00000  2.07723e-07  1.09615e+07
       603.10000  2.07723e-07  1.10093e+07
       603.20000  2.07723e-07  1.10633e+07
       603.30000  2.07723e-07  1.11236e+07
       603.40000  2.07723e-07  1.11900e+07
       603.50000  2.55917e-07  1.38758e+07
       603.60000  2.55917e-07  1.38707e+07
       603.70000  2.55917e-07  1.38656e+07
       603.80000  2.55808e-07  1.38546e+07
       603.90000  2.55808e-07  1.38469e+07
       604.00000  2.55808e-07  1.38418e+07
       604.10000  2.55808e-07  1.38341e+07
       604.20000  2.55808e-07  1.38290e+07
       604.30000  2.55808e-07  1.38213e+07
       604.40000  2.55808e-07  1.38162e+07
       604.50000  1.28901e-07  6.95810e+06
       604.60000  1.28901e-07  6.95295e+06
       604.70000  1.28901e-07  6.94779e+06
       604.80000  1.28901e-07  6.94263e+06
       604.90000  1.28901e-07  6.93748e+06
       605.00000  1.28901e-07  6.93361e+06
       605.10000  1.28901e-07  6.92974e+06
       605.20000  1.28901e-07  6.92717e+06
       605.30000  1.28901e-07  6.92330e+06
       605.40000  1.28901e-07  6.92072e+06
       605.50000  7.61439e-08  4.08664e+06
       605.60000  7.61439e-08  4.08588e+06
       605.70000  7.61439e-08  4.08436e+06
       605.80000  7.61439e-08  4.08360e+06
       605.90000  7.61439e-08  4.08360e+06
       606.00000  7.61439e-08  4.08284e+06
       606.10000  7.61439e-08  4.08284e+06
       606.20000  7.61439e-08  4.08284e+06
       606.30000  7.61460e-08  4.08295e+06
       606.40000  7.61460e-08  4.08371e+06
       606.50000  2.40554e-07  1.29033e+07
       606.60000  2.40554e-07  1.29081e+07
       606.70000  2.40554e-07  1.29105e+07
       606.80000  2.40554e-07  1.29153e+07
       606.90000  2.40554e-07  1.29153e+07
       607.00000  2.40554e-07  1.29177e+07
       607.10000  2.40554e-07  1.29177e+07
       607.20000  2.40554e-07  1.29177e+07
       607.30000  2.40554e-07  1.29153e+07
       607.40000  2.40554e-07  1.29129e+07
       607.50000  1.48907e-07  7.99181e+06
       607.60000  1.48907e-07  7.98288e+06
       607.70000  1.48907e-07  7.97544e+06
       607.80000  1.48907e-07  7.96948e+06
       607.90000  1.48907e-07  7.96352e+06
       608.00000  1.48907e-07  7.95757e+06
       608.10000  1.48907e-07  7.95310e+06
       608.20000  1.48907e-07  7.94863e+06
       608.30000  1.48907e-07  7.94565e+06
       608.40000  1.48907e-07  7.94268e+06
       608.50000  1.37044e-07  7.30856e+06
       608.60000  1.37044e-07  7.30719e+06
       608.70000  1.37044e-07  7.30582e+06
       608.80000  1.37015e-07  7.30424e+06
       608.90000  1.37015e-07  7.30561e+06
       609.00000  1.37015e-07  7.30698e+06
       609.10000  1.37015e-07  7.30835e+06
       609.20000  1.37015e-07  7.31110e+06
       609.30000  1.37015e-07  7.31384e+06
       609.40000  1.37015e-07  7.31795e+06
       609.50000  1.74674e-07  9.33630e+06
       609.60000  1.74674e-07  9.29438e+06
       609.70000  1.74674e-07  9.25770e+06
       609.80000  1.74674e-07  9.22626e+06
       609.90000  1.74674e-07  9.20006e+06
       610.00000  1.74674e-07  9.17735e+06
       610.10000  1.74674e-07  9.15814e+06
       610.20000  1.74674e-07  9.14416e+06
       610.30000  1.74674e-07  9.13543e+06
       610.40000  1.74674e-07  9.13193e+06
       610.50000  1.36571e-07  7.13859e+06
       610.60000  1.36571e-07  7.17410e+06
       610.70000  1.36571e-07  7.20551e+06
       610.80000  1.36571e-07  7.23419e+06
       610.90000  1.36571e-07  7.25877e+06
       611.00000  1.36571e-07  7.27926e+06
       611.10000  1.36571e-07  7.29701e+06
       611.20000  1.36571e-07  7.31067e+06
       611.30000  1.36572e-07  7.32162e+06
       611.40000  1.36572e-07  7.32845e+06
       611.50000  2.10270e-07  1.12873e+07
       611.60000  2.10270e-07  1.12873e+07
       611.70000  2.10270e-07  1.12810e+07
       611.80000  2.10270e-07  1.12705e+07
       611.90000  2.10270e-07  1.12537e+07
       612.00000  2.10270e-07  1.12326e+07
       612.10000  2.10270e-07  1.12053e+07
       612.20000  2.10270e-07  1.11716e+07
       612.30000  2.10270e-07  1.11338e+07
       612.40000  2.10270e-07  1.10896e+07
       612.50000  2.15663e-07  1.13244e+07
       612.60000  2.15663e-07  1.12964e+07
       612.70000  2.15663e-07  1.12705e+07
       612.80000  2.15663e-07  1.12490e+07
       612.90000  2.15663e-07  1.12317e+07
       613.00000  2.15663e-07  1.12166e+07
       613.10000  2.15663e-07  1.12058e+07
       613.20000  2.15663e-07  1.11972e+07
       613.30000  2.15663e-07  1.11929e+07
       613.40000  2.15663e-07  1.11929e+07
       613.50000  4.73972e-08  2.46039e+06
       613.60000  4.73972e-08  2.46750e+06
       613.70000  4.73972e-08  2.47366e+06
       613.80000  4.73454e-08  2.47664e+06
       613.90000  4.73454e-08  2.48232e+06
       614.00000  4.73454e-08  2.48753e+06
       614.10000  4.73454e-08  2.49179e+06
       614.20000  4.73454e-08  2.49605e+06
       614.30000  4.73454e-08  2.49984e+06
       614.40000  4.73454e-08  2.50315e+06
       614.50000  1.75043e-07  9.26501e+06
       614.60000  1.75043e-07  9.27376e+06
       614.70000  1.75043e-07  9.28076e+06
       614.80000  1.75043e-07  9.28601e+06
       614.90000  1.75043e-07  9.28951e+06
       615.00000  1.75043e-07  9.29126e+06
       615.10000  1.75043e-07  9.29301e+06
       615.20000  1.75043e-07  9.29126e+06
       615.30000  1.75043e-07  9.28951e+06
       615.40000  1.75043e-07  9.28601e+06
       615.50000  1.37468e-07  7.28717e+06
       615.60000  1.37468e-07  7.20606e+06
       615.70000  1.37468e-07  7.13183e+06
       615.80000  1.37468e-07  7.06722e+06
       615.90000  1.37468e-07  7.01223e+06
       616.00000  1.37468e-07  6.96412e+06
       616.10000  1.37468e-07  6.92563e+06
       616.20000  1.37468e-07  6.89539e+06
       616.30000  1.37487e-07  6.87437e+06
       616.40000  1.37487e-07  6.86199e+06
       616.50000  3.14273e-08  1.56728e+06
       616.60000  3.14273e-08  1.58079e+06
       616.70000  3.14273e-08  1.59336e+06
       616.80000  3.14273e-08  1.60499e+06
       616.90000  3.14273e-08  1.61599e+06
       617.00000  3.14273e-08  1.62636e+06
       617.10000  3.14273e-08  1.63579e+06
       617.20000  3.14273e-08  1.64427e+06
       617.30000  3.14273e-08  1.65213e+06
       617.40000  3.14273e-08  1.65936e+06
       617.50000  2.21620e-07  1.17458e+07
       617.60000  2.21620e-07  1.17835e+07
       617.70000  2.21620e-07  1.18168e+07
       617.80000  2.21620e-07  1.18456e+07
       617.90000  2.21620e-07  1.18655e+07
       618.00000  2.21620e-07  1.18832e+07
       618.10000  2.21620e-07  1.18943e+07
       618.20000  2.21620e-07  1.18988e+07
       618.30000  2.21620e-07  1.18988e+07
       618.40000  2.21620e-07  1.18921e+07
       618.50000  8.47712e-08  4.54459e+06
       618.60000  8.47712e-08  4.53611e+06
       618.70000  8.47712e-08  4.52763e+06
       618.80000  8.46860e-08  4.51715e+06
       618.90000  8.46860e-08  4.51122e+06
       619.00000  8.46860e-08  4.50699e+06
       619.10000  8.46860e-08  4.50360e+06
       619.20000  8.46860e-08  4.50191e+06
       619.30000  8.46860e-08  4.50106e+06
       619.40000  8.46860e-08  4.50106e+06
       619.50000  2.75851e-08  1.46670e+06
       619.60000  2.75851e-08  1.47194e+06
       619.70000  2.75851e-08  1.47663e+06
       619.80000  2.75851e-08  1.48077e+06
       619.90000  2.75851e-08  1.48435e+06
       620.00000  2.75851e-08  1.48711e+06
       620.10000  2.75851e-08  1.48932e+06
       620.20000  2.75851e-08  1.49097e+06
       620.30000  2.75851e-08  1.49208e+06
       620.40000  2.75851e-08  1.49235e+06
       620.50000  2.35815e-07  1.27576e+07
       620.60000  2.35815e-07  1.27057e+07
       620.70000  2.35815e-07  1.26562e+07
       620.80000  2.35815e-07  1.26138e+07
       620.90000  2.35815e-07  1.25760e+07
       621.00000  2.35815e-07  1.25430e+07
       621.10000  2.35815e-07  1.25147e+07
       621.20000  2.35815e-07  1.24935e+07
       621.30000  2.35513e-07  1.24586e+07
       621.40000  2.35513e-07  1.24445e+07
       621.50000  2.39652e-07  1.26560e+07
       621.60000  2.39652e-07  1.26991e+07
       621.70000  2.39652e-07  1.27375e+07
       621.80000  2.39652e-07  1.27686e+07
       621.90000  2.39652e-07  1.27974e+07
       622.00000  2.39652e-07  1.28190e+07
       622.10000  2.39652e-07  1.28357e+07
       622.20000  2.39652e-07  1.28453e+07
       622.30000  2.39652e-07  1.28525e+07
       622.40000  2.39652e-07  1.28525e+07
       622.50000  2.03758e-08  1.09235e+06
       622.60000  2.03758e-08  1.09153e+06
       622.70000  2.03758e-08  1.09031e+06
       622.80000  2.03758e-08  1.08868e+06
       622.90000  2.03758e-08  1.08644e+06
       623.00000  2.03758e-08  1.08399e+06
       623.10000  2.03758e-08  1.08094e+06
       623.20000  2.03758e-08  1.07727e+06
       623.30000  2.03758e-08  1.07340e+06
       623.40000  2.03758e-08  1.06892e+06
       623.50000  2.33941e-07  1.22187e+07
       623.60000  2.33941e-07  1.22164e+07
       623.70000  2.33941e-07  1.22164e+07
       623.80000  2.33437e-07  1.21854e+07
       623.90000  2.33437e-07  1.21831e+07
       624.00000  2.33437e-07  1.21784e+07
       624.10000  2.33437e-07  1.21714e+07
       624.20000  2.33437e-07  1.21644e+07
       624.30000  2.33437e-07  1.21574e+07
       624.40000  2.33437e-07  1.21481e+07
       624.50000  2.55696e-07  1.32962e+07
       624.60000  2.55696e-07  1.32451e+07
       624.70000  2.55696e-07  1.32041e+07
       624.80000  2.55696e-07  1.31683e+07
       624.90000  2.55696e-07  1.31402e+07
       625.00000  2.55696e-07  1.31198e+07
       625.10000  2.55696e-07  1.31070e+07
       625.20000  2.55696e-07  1.30993e+07
       625.30000  2.55696e-07  1.31019e+07
       625.40000  2.55696e-07  1.31095e+07
       625.50000  1.79303e-07  9.20365e+06
       625.60000  1.79303e-07  9.21799e+06
       625.70000  1.79303e-07  9.23951e+06
       625.80000  1.79303e-07  9.26461e+06
       625.90000  1.79303e-07  9.29509e+06
       626.00000  1.79303e-07  9.33095e+06
       626.10000  1.79303e-07  9.37219e+06
       626.20000  1.79303e-07  9.41702e+06
       626.30000  1.79021e-07  9.45408e+06
       626.40000  1.79021e-07  9.50958e+06
       626.50000  1.71531e-07  9.16832e+06
       626.60000  1.71531e-07  9.17004e+06
       626.70000  1.71531e-07  9.17175e+06
       626.80000  1.71531e-07  9.17347e+06
       626.90000  1.71531e-07  9.17518e+06
       627.00000  1.71531e-07  9.17690e+06
       627.10000  1.71531e-07  9.17862e+06
       627.20000  1.71531e-07  9.17862e+06
       627.30000  1.71531e-07  9.18033e+06
       627.40000  1.71531e-07  9.18205e+06
       627.50000  1.54944e-07  8.29571e+06
       627.60000  1.54944e-07  8.30191e+06
       627.70000  1.54944e-07  8.30656e+06
       627.80000  1.54944e-07  8.30965e+06
       627.90000  1.54944e-07  8.31275e+06
       628.00000  1.54944e-07  8.31430e+06
       628.10000  1.54944e-07  8.31585e+06
       628.20000  1.54944e-07  8.31585e+06
       628.30000  1.54944e-07  8.31430e+06
       628.40000  1.54944e-07  8.31275e+06
       628.50000  2.44825e-07  1.31299e+07
       628.60000  2.44825e-07  1.31226e+07
       628.70000  2.44825e-07  1.31153e+07
       628.80000  2.44307e-07  1.30778e+07
       628.90000  2.44307e-07  1.30655e+07
       629.00000  2.44307e-07  1.30533e+07
       629.10000  2.44307e-07  1.30387e+07
       629.20000  2.44307e-07  1.30240e+07
       629.30000  2.44307e-07  1.30069e+07
       629.40000  2.44307e-07  1.29874e+07
       629.50000  2.17260e-07  1.15322e+07
       629.60000  2.17260e-07  1.15083e+07
       629.70000  2.17260e-07  1.14844e+07
       629.80000  2.17260e-07  1.14626e+07
       629.90000  2.17260e-07  1.14431e+07
       630.00000  2.17260e-07  1.14235e+07
       630.10000  2.17260e-07  1.14040e+07
       630.20000  2.17260e-07  1.13888e+07
       630.30000  2.17260e-07  1.13714e+07
       630.40000  2.17260e-07  1.13584e+07
       630.50000  6.84364e-08  3.57375e+06
       630.60000  6.84364e-08  3.56964e+06
       630.70000  6.84364e-08  3.56622e+06
       630.80000  6.84364e-08  3.56348e+06
       630.90000  6.84364e-08  3.56074e+06
       631.00000  6.84364e-08  3.55869e+06
       631.10000  6.84364e-08  3.56074e+06
       631.20000  6.84364e-08  3.56280e+06
       631.30000  6.84330e-08  3.56536e+06
       631.40000  6.84330e-08  3.56741e+06
       631.50000  1.50886e-07  7.87022e+06
       631.60000  1.50886e-07  7.87475e+06
       631.70000  1.50886e-07  7.87928e+06
       631.80000  1.50886e-07  7.88229e+06
       631.90000  1.50886e-07  7.88682e+06
       632.00000  1.50886e-07  7.89135e+06
       632.10000  1.50886e-07  7.89587e+06
       632.20000  1.50886e-07  7.89889e+06
       632.30000  1.50886e-07  7.90342e+06
       632.40000  1.50886e-07  7.90794e+06
       632.50000  1.14408e-07  5.99840e+06
       632.60000  1.14408e-07  6.00069e+06
       632.70000  1.14408e-07  6.00412e+06
       632.80000  1.14408e-07  6.00641e+06
       632.90000  1.14408e-07  6.00870e+06
       633.00000  1.14408e-07  6.01213e+06
       633.10000  1.14408e-07  6.01442e+06
       633.20000  1.14408e-07  6.01670e+06
       633.30000  1.14408e-07  6.01899e+06
       633.40000  1.14408e-07  6.02128e+06
       633.50000  3.43563e-08  1.80886e+06
       633.60000  3.43563e-08  1.80955e+06
       633.70000  3.43563e-08  1.81023e+06
       633.80000  3.43510e-08  1.81030e+06
       633.90000  3.43510e-08  1.81099e+06
       634.00000  3.43510e-08  1.81167e+06
       634.10000  3.43510e-08  1.81202e+06
       634.20000  3.43510e-08  1.81270e+06
       634.30000  3.43510e-08  1.81305e+06
       634.40000  3.43510e-08  1.81374e+06
       634.50000  1.82658e-07  9.64618e+06
       634.60000  1.82658e-07  9.64801e+06
       634.70000  1.82658e-07  9.65166e+06
       634.80000  1.82658e-07  9.65349e+06
       634.90000  1.82658e-07  9.65531e+06
       635.00000  1.82658e-07  9.65714e+06
       635.10000  1.82658e-07  9.65897e+06
       635.20000  1.82658e-07  9.65897e+06
       635.30000  1.82658e-07  9.66079e+06
       635.40000  1.82658e-07  9.66079e+06
       635.50000  3.23212e-07  1.70979e+07
       635.60000  3.23212e-07  1.71012e+07
       635.70000  3.23212e-07  1.71012e+07
       635.80000  3.23212e-07  1.71044e+07
       635.90000  3.23212e-07  1.71044e+07
       636.00000  3.23212e-07  1.71076e+07
       636.10000  3.23212e-07  1.71076e+07
       636.20000  3.23212e-07  1.71108e+07
       636.30000  3.21296e-07  1.70094e+07
       636.40000  3.21296e-07  1.70126e+07
       636.50000  1.94076e-07  1.02763e+07
       636.60000  1.94076e-07  1.02783e+07
       636.70000  1.94076e-07  1.02783e+07
       636.80000  1.94076e-07  1.02802e+07
       636.90000  1.94076e-07  1.02802e+07
       637.00000  1.94076e-07  1.02802e+07
       637.10000  1.94076e-07  1.02821e+07
       637.20000  1.94076e-07  1.02821e+07
       637.30000  1.94076e-07  1.02841e+07
       637.40000  1.94076e-07  1.02841e+07
       637.50000  2.63471e-07  1.39613e+07
       637.60000  2.63471e-07  1.39640e+07
       637.70000  2.63471e-07  1.39640e+07
       637.80000  2.63471e-07  1.39666e+07
       637.90000  2.63471e-07  1.39666e+07
       638.00000  2.63471e-07  1.39666e+07
       638.10000  2.63471e-07  1.39692e+07
       638.20000  2.63471e-07  1.39692e+07
       638.30000  2.63471e-07  1.39692e+07
       638.40000  2.63471e-07  1.39719e+07
       638.50000  1.47871e-07  7.84160e+06
       638.60000  1.47871e-07  7.84160e+06
       638.70000  1.47871e-07  7.84308e+06
       638.80000  1.46901e-07  7.79165e+06
       638.90000  1.46901e-07  7.79165e+06
       639.00000  1.46901e-07  7.79165e+06
       639.10000  1.46901e-07  7.77990e+06
       639.20000  1.46901e-07  7.76815e+06
       639.30000  1.46901e-07  7.75640e+06
       639.40000  1.46901e-07  7.74611e+06
       639.50000  2.19032e-07  1.15321e+07
       639.60000  2.19032e-07  1.15189e+07
       639.70000  2.19032e-07  1.15036e+07
       639.80000  2.19032e-07  1.14904e+07
       639.90000  2.19032e-07  1.14795e+07
       640.00000  2.19032e-07  1.14663e+07
       640.10000  2.19032e-07  1.14554e+07
       640.20000  2.19032e-07  1.14466e+07
       640.30000  2.19032e-07  1.14379e+07
       640.40000  2.19032e-07  1.14291e+07
       640.50000  2.38581e-07  1.24396e+07
       640.60000  2.38581e-07  1.24325e+07
       640.70000  2.38581e-07  1.24253e+07
       640.80000  2.38581e-07  1.24205e+07
       640.90000  2.38581e-07  1.24134e+07
       641.00000  2.38581e-07  1.24110e+07
       641.10000  2.38581e-07  1.24158e+07
       641.20000  2.38581e-07  1.24205e+07
       641.30000  2.36967e-07  1.23413e+07
       641.40000  2.36967e-07  1.23460e+07
       641.50000  1.42269e-07  7.41508e+06
       641.60000  1.42269e-07  7.41793e+06
       641.70000  1.42269e-07  7.42078e+06
       641.80000  1.42269e-07  7.42362e+06
       641.90000  1.42269e-07  7.42647e+06
       642.00000  1.42269e-07  7.42931e+06
       642.10000  1.42269e-07  7.43073e+06
       642.20000  1.42269e-07  7.43358e+06
       642.30000  1.42269e-07  7.43642e+06
       642.40000  1.42269e-07  7.43927e+06
       642.50000  1.64378e-07  8.59863e+06
       642.60000  1.64378e-07  8.60192e+06
       642.70000  1.64378e-07  8.60520e+06
       642.80000  1.64378e-07  8.60849e+06
       642.90000  1.64378e-07  8.61178e+06
       643.00000  1.64378e-07  8.61507e+06
       643.10000  1.64378e-07  8.61671e+06
       643.20000  1.64378e-07  8.62000e+06
       643.30000  1.64378e-07  8.62328e+06
       643.40000  1.64378e-07  8.62657e+06
       643.50000  1.99033e-07  1.04492e+07
       643.60000  1.99033e-07  1.04532e+07
       643.70000  1.99033e-07  1.04552e+07
       643.80000  1.98768e-07  1.04453e+07
       643.90000  1.98768e-07  1.04492e+07
       644.00000  1.98768e-07  1.04532e+07
       644.10000  1.98768e-07  1.04572e+07
       644.20000  1.98768e-07  1.04592e+07
       644.30000  1.98768e-07  1.04631e+07
       644.40000  1.98768e-07  1.04671e+07
       644.50000  2.00610e-07  1.05681e+07
       644.60000  2.00610e-07  1.05701e+07
       644.70000  2.00610e-07  1.05741e+07
       644.80000  2.00610e-07  1.05782e+07
       644.90000  2.00610e-07  1.05822e+07
       645.00000  2.00610e-07  1.05842e+07
       645.10000  2.00610e-07  1.05822e+07
       645.20000  2.00610e-07  1.05782e+07
       645.30000  2.00610e-07  1.05762e+07
       645.40000  2.00610e-07  1.05721e+07
       645.50000  2.39420e-07  1.26102e+07
       645.60000  2.39420e-07  1.26054e+07
       645.70000  2.39420e-07  1.26007e+07
       645.80000  2.39420e-07  1.25935e+07
       645.90000  2.39420e-07  1.25863e+07
       646.00000  2.39420e-07  1.25791e+07
       646.10000  2.39420e-07  1.25719e+07
       646.20000  2.39420e-07  1.25647e+07
       646.30000  2.39273e-07  1.25475e+07
       646.40000  2.39273e-07  1.25379e+07
       646.50000  2.90749e-08  1.52265e+06
       646.60000  2.90749e-08  1.52120e+06
       646.70000  2.90749e-08  1.52004e+06
       646.80000  2.90749e-08  1.51887e+06
       646.90000  2.90749e-08  1.51742e+06
       647.00000  2.90749e-08  1.51626e+06
       647.10000  2.90749e-08  1.51218e+06
       647.20000  2.90749e-08  1.50841e+06
       647.30000  2.90749e-08  1.50492e+06
       647.40000  2.90749e-08  1.50143e+06
       647.50000  1.58381e-07  8.16140e+06
       647.60000  1.58381e-07  8.14714e+06
       647.70000  1.58381e-07  8.13131e+06
       647.80000  1.58381e-07  8.11864e+06
       647.90000  1.58381e-07  8.10596e+06
       648.00000  1.58381e-07  8.09488e+06
       648.10000  1.58381e-07  8.08538e+06
       648.20000  1.58381e-07  8.07746e+06
       648.30000  1.58381e-07  8.06954e+06
       648.40000  1.58381e-07  8.06320e+06
       648.50000  2.34102e-07  1.19111e+07
       648.60000  2.34102e-07  1.19064e+07
       648.70000  2.34102e-07  1.19017e+07
       648.80000  2.34344e-07  1.19117e+07
       648.90000  2.34344e-07  1.19117e+07
       649.00000  2.34344e-07  1.19141e+07
       649.10000  2.34344e-07  1.19164e+07
       649.20000  2.34344e-07  1.19234e+07
       649.30000  2.34344e-07  1.19281e+07
       649.40000  2.34344e-07  1.19375e+07
       649.50000  3.14085e-07  1.60152e+07
       649.60000  3.14085e-07  1.60309e+07
       649.70000  3.14085e-07  1.60497e+07
       649.80000  3.14085e-07  1.60717e+07
       649.90000  3.14085e-07  1.60937e+07
       650.00000  3.14085e-07  1.61188e+07
       650.10000  3.14085e-07  1.61471e+07
       650.20000  3.14085e-07  1.61785e+07
       650.30000  3.14085e-07  1.62131e+07
       650.40000  3.14085e-07  1.62476e+07
       650.50000  2.01053e-07  1.04246e+07
       650.60000  2.01053e-07  1.04507e+07
       650.70000  2.01053e-07  1.04769e+07
       650.80000  2.01053e-07  1.05070e+07
       650.90000  2.01053e-07  1.05372e+07
       651.00000  2.01053e-07  1.05694e+07
       651.10000  2.01053e-07  1.05774e+07
       651.20000  2.01053e-07  1.05854e+07
       651.30000  2.00801e-07  1.05782e+07
       651.40000  2.00801e-07  1.05842e+07
       651.50000  8.40229e-08  4.43137e+06
       651.60000  8.40229e-08  4.43221e+06
       651.70000  8.40229e-08  4.43389e+06
       651.80000  8.40229e-08  4.43473e+06
       651.90000  8.40229e-08  4.43473e+06
       652.00000  8.40229e-08  4.43473e+06
       652.10000  8.40229e-08  4.43389e+06
       652.20000  8.40229e-08  4.43305e+06
       652.30000  8.40229e-08  4.43221e+06
       652.40000  8.40229e-08  4.43053e+06
       652.50000  2.54427e-07  1.34083e+07
       652.60000  2.54427e-07  1.34007e+07
       652.70000  2.54427e-07  1.33931e+07
       652.80000  2.54427e-07  1.33803e+07
       652.90000  2.54427e-07  1.33702e+07
       653.00000  2.54427e-07  1.33574e+07
       653.10000  2.54427e-07  1.33473e+07
       653.20000  2.54427e-07  1.33371e+07
       653.30000  2.54427e-07  1.33218e+07
       653.40000  2.54427e-07  1.33066e+07
       653.50000  1.08471e-07  5.66655e+06
       653.60000  1.08471e-07  5.65896e+06
       653.70000  1.08471e-07  5.65028e+06
       653.80000  1.08339e-07  5.63364e+06
       653.90000  1.08339e-07  5.62389e+06
       654.00000  1.08339e-07  5.61306e+06
       654.10000  1.08339e-07  5.60223e+06
       654.20000  1.08339e-07  5.58922e+06
       654.30000  1.08339e-07  5.57622e+06
       654.40000  1.08339e-07  5.56322e+06
       654.50000  2.89325e-07  1.48192e+07
       654.60000  2.89325e-07  1.47787e+07
       654.70000  2.89325e-07  1.47353e+07
       654.80000  2.89325e-07  1.46919e+07
       654.90000  2.89325e-07  1.46456e+07
       655.00000  2.89325e-07  1.45964e+07
       655.10000  2.89325e-07  1.44576e+07
       655.20000  2.89325e-07  1.43245e+07
       655.30000  2.89325e-07  1.42001e+07
       655.40000  2.89325e-07  1.40843e+07
       655.50000  3.87789e-07  1.87302e+07
       655.60000  3.87789e-07  1.85945e+07
       655.70000  3.87789e-07  1.84665e+07
       655.80000  3.87789e-07  1.83502e+07
       655.90000  3.87789e-07  1.82416e+07
       656.00000  3.87789e-07  1.81446e+07
       656.10000  3.87789e-07  1.80593e+07
       656.20000  3.87789e-07  1.79818e+07
       656.30000  3.87494e-07  1.79022e+07
       656.40000  3.87494e-07  1.78441e+07
       656.50000  2.41790e-07  1.11054e+07
       656.60000  2.41790e-07  1.10836e+07
       656.70000  2.41790e-07  1.10667e+07
       656.80000  2.41790e-07  1.10570e+07
       656.90000  2.41790e-07  1.10522e+07
       657.00000  2.41790e-07  1.10546e+07
       657.10000  2.41790e-07  1.11489e+07
       657.20000  2.41790e-07  1.12408e+07
       657.30000  2.41790e-07  1.13303e+07
       657.40000  2.41790e-07  1.14173e+07
       657.50000  3.83031e-07  1.82170e+07
       657.60000  3.83031e-07  1.83472e+07
       657.70000  3.83031e-07  1.84698e+07
       657.80000  3.83031e-07  1.85885e+07
       657.90000  3.83031e-07  1.86996e+07
       658.00000  3.83031e-07  1.88107e+07
       658.10000  3.83031e-07  1.89179e+07
       658.20000  3.83031e-07  1.90175e+07
       658.30000  3.83031e-07  1.91133e+07
       658.40000  3.83031e-07  1.92052e+07
       658.50000  3.17538e-07  1.59912e+07
       658.60000  3.17538e-07  1.60611e+07
       658.70000  3.17538e-07  1.61246e+07
       658.80000  3.17208e-07  1.61713e+07
       658.90000  3.17208e-07  1.62284e+07
       659.00000  3.17208e-07  1.62791e+07
       659.10000  3.17208e-07  1.63299e+07
       659.20000  3.17208e-07  1.63775e+07
       659.30000  3.17208e-07  1.64187e+07
       659.40000  3.17208e-07  1.64568e+07
       659.50000  2.57252e-07  1.33745e+07
       659.60000  2.57252e-07  1.34002e+07
       659.70000  2.57252e-07  1.34208e+07
       659.80000  2.57252e-07  1.34414e+07
       659.90000  2.57252e-07  1.34568e+07
       660.00000  2.57252e-07  1.34697e+07
       660.10000  2.57252e-07  1.34800e+07
       660.20000  2.57252e-07  1.34851e+07
       660.30000  2.57252e-07  1.34903e+07
       660.40000  2.57252e-07  1.34903e+07
       660.50000  4.29139e-07  2.24997e+07
       660.60000  4.29139e-07  2.24912e+07
       660.70000  4.29139e-07  2.24783e+07
       660.80000  4.29139e-07  2.24568e+07
       660.90000  4.29139e-07  2.24354e+07
       661.00000  4.29139e-07  2.24053e+07
       661.10000  4.29139e-07  2.23925e+07
       661.20000  4.29139e-07  2.23753e+07
       661.30000  4.28073e-07  2.23069e+07
       661.40000  4.28073e-07  2.22941e+07
       661.50000  2.70587e-07  1.40840e+07
       661.60000  2.70587e-07  1.40786e+07
       661.70000  2.70587e-07  1.40705e+07
       661.80000  2.70587e-07  1.40651e+07
       661.90000  2.70587e-07  1.40597e+07
       662.00000  2.70587e-07  1.40543e+07
       662.10000  2.70587e-07  1.40489e+07
       662.20000  2.70587e-07  1.40435e+07
       662.30000  2.70587e-07  1.40408e+07
       662.40000  2.70587e-07  1.40380e+07
       662.50000  3.88182e-07  2.01311e+07
       662.60000  3.88182e-07  2.01311e+07
       662.70000  3.88182e-07  2.01272e+07
       662.80000  3.88182e-07  2.01234e+07
       662.90000  3.88182e-07  2.01234e+07
       663.00000  3.88182e-07  2.01234e+07
       663.10000  3.88182e-07  2.01389e+07
       663.20000  3.88182e-07  2.01505e+07
       663.30000  3.88182e-07  2.01661e+07
       663.40000  3.88182e-07  2.01777e+07
       663.50000  2.26899e-07  1.18010e+07
       663.60000  2.26899e-07  1.18078e+07
       663.70000  2.26899e-07  1.18124e+07
       663.80000  2.26415e-07  1.17940e+07
       663.90000  2.26415e-07  1.17985e+07
       664.00000  2.26415e-07  1.18008e+07
       664.10000  2.26415e-07  1.18053e+07
       664.20000  2.26415e-07  1.18076e+07
       664.30000  2.26415e-07  1.18098e+07
       664.40000  2.26415e-07  1.18121e+07
       664.50000  2.70009e-07  1.40864e+07
       664.60000  2.70009e-07  1.40864e+07
       664.70000  2.70009e-07  1.40864e+07
       664.80000  2.70009e-07  1.40864e+07
       664.90000  2.70009e-07  1.40864e+07
       665.00000  2.70009e-07  1.40837e+07
       665.10000  2.70009e-07  1.40810e+07
       665.20000  2.70009e-07  1.40783e+07
       665.30000  2.70009e-07  1.40729e+07
       665.40000  2.70009e-07  1.40675e+07
       665.50000  1.50987e-07  7.86342e+06
       665.60000  1.50987e-07  7.86040e+06
       665.70000  1.50987e-07  7.85587e+06
       665.80000  1.50987e-07  7.85285e+06
       665.90000  1.50987e-07  7.84832e+06
       666.00000  1.50987e-07  7.84228e+06
       666.10000  1.50987e-07  7.83775e+06
       666.20000  1.50987e-07  7.83171e+06
       666.30000  1.50608e-07  7.80601e+06
       666.40000  1.50608e-07  7.79999e+06
       666.50000  1.53412e-07  7.93754e+06
       666.60000  1.53412e-07  7.92987e+06
       666.70000  1.53412e-07  7.92220e+06
       666.80000  1.53412e-07  7.91453e+06
       666.90000  1.53412e-07  7.90686e+06
       667.00000  1.53412e-07  7.89765e+06
       667.10000  1.53412e-07  7.90686e+06
       667.20000  1.53412e-07  7.91453e+06
       667.30000  1.53412e-07  7.92220e+06
       667.40000  1.53412e-07  7.92987e+06
       667.50000  2.12179e-07  1.09782e+07
       667.60000  2.12179e-07  1.09867e+07
       667.70000  2.12179e-07  1.09951e+07
       667.80000  2.12179e-07  1.10015e+07
       667.90000  2.12179e-07  1.10079e+07
       668.00000  2.12179e-07  1.10142e+07
       668.10000  2.12179e-07  1.10206e+07
       668.20000  2.12179e-07  1.10248e+07
       668.30000  2.12179e-07  1.10291e+07
       668.40000  2.12179e-07  1.10312e+07
       668.50000  2.41352e-07  1.25503e+07
       668.60000  2.41352e-07  1.25527e+07
       668.70000  2.41352e-07  1.25527e+07
       668.80000  2.40957e-07  1.25322e+07
       668.90000  2.40957e-07  1.25322e+07
       669.00000  2.40957e-07  1.25297e+07
       669.10000  2.40957e-07  1.25129e+07
       669.20000  2.40957e-07  1.24960e+07
       669.30000  2.40957e-07  1.24816e+07
       669.40000  2.40957e-07  1.24671e+07
       669.50000  1.33169e-07  6.88215e+06
       669.60000  1.33169e-07  6.87416e+06
       669.70000  1.33169e-07  6.86750e+06
       669.80000  1.33169e-07  6.86084e+06
       669.90000  1.33169e-07  6.85419e+06
       670.00000  1.33169e-07  6.84886e+06
       670.10000  1.33169e-07  6.84353e+06
       670.20000  1.33169e-07  6.83821e+06
       670.30000  1.33169e-07  6.83288e+06
       670.40000  1.33169e-07  6.82888e+06
       670.50000  3.51664e-07  1.80228e+07
       670.60000  3.51664e-07  1.80122e+07
       670.70000  3.51664e-07  1.80052e+07
       670.80000  3.51664e-07  1.79981e+07
       670.90000  3.51664e-07  1.79911e+07
       671.00000  3.51664e-07  1.79876e+07
       671.10000  3.51664e-07  1.79806e+07
       671.20000  3.51664e-07  1.79806e+07
       671.30000  3.51677e-07  1.79777e+07
       671.40000  3.51677e-07  1.79777e+07
       671.50000  1.74566e-07  8.92380e+06
       671.60000  1.74566e-07  8.92380e+06
       671.70000  1.74566e-07  8.92380e+06
       671.80000  1.74566e-07  8.92555e+06
       671.90000  1.74566e-07  8.92730e+06
       672.00000  1.74566e-07  8.93079e+06
       672.10000  1.74566e-07  8.93428e+06
       672.20000  1.74566e-07  8.93777e+06
       672.30000  1.74566e-07  8.94126e+06
       672.40000  1.74566e-07  8.94650e+06
       672.50000  2.31409e-07  1.18667e+07
       672.60000  2.31409e-07  1.18736e+07
       672.70000  2.31409e-07  1.18805e+07
       672.80000  2.31409e-07  1.18898e+07
       672.90000  2.31409e-07  1.18991e+07
       673.00000  2.31409e-07  1.19106e+07
       673.10000  2.31409e-07  1.19060e+07
       673.20000  2.31409e-07  1.19014e+07
       673.30000  2.31409e-07  1.18967e+07
       673.40000  2.31409e-07  1.18944e+07
       673.50000  4.17525e-07  2.14524e+07
       673.60000  4.17525e-07  2.14483e+07
       673.70000  4.17525e-07  2.14441e+07
       673.80000  4.17692e-07  2.14443e+07
       673.90000  4.17692e-07  2.14401e+07
       674.00000  4.17692e-07  2.14359e+07
       674.10000  4.17692e-07  2.14318e+07
       674.20000  4.17692e-07  2.14276e+07
       674.30000  4.17692e-07  2.14234e+07
       674.40000  4.17692e-07  2.14192e+07
       674.50000  2.12688e-07  1.09045e+07
       674.60000  2.12688e-07  1.09045e+07
       674.70000  2.12688e-07  1.09024e+07
       674.80000  2.12688e-07  1.09024e+07
       674.90000  2.12688e-07  1.09003e+07
       675.00000  2.12688e-07  1.09003e+07
       675.10000  2.12688e-07  1.09024e+07
       675.20000  2.12688e-07  1.09045e+07
       675.30000  2.12688e-07  1.09066e+07
       675.40000  2.12688e-07  1.09088e+07
       675.50000  2.61245e-07  1.33992e+07
       675.60000  2.61245e-07  1.34018e+07
       675.70000  2.61245e-07  1.34045e+07
       675.80000  2.61245e-07  1.34045e+07
       675.90000  2.61245e-07  1.34071e+07
       676.00000  2.61245e-07  1.34071e+07
       676.10000  2.61245e-07  1.34097e+07
       676.20000  2.61245e-07  1.34097e+07
       676.30000  2.60978e-07  1.33960e+07
       676.40000  2.60978e-07  1.33960e+07
       676.50000  1.74937e-07  8.98125e+06
       676.60000  1.74937e-07  8.98125e+06
       676.70000  1.74937e-07  8.98125e+06
       676.80000  1.74937e-07  8.97950e+06
       676.90000  1.74937e-07  8.97950e+06
       677.00000  1.74937e-07  8.97950e+06
       677.10000  1.74937e-07  8.97950e+06
       677.20000  1.74937e-07  8.97776e+06
       677.30000  1.74937e-07  8.97776e+06
       677.40000  1.74937e-07  8.97601e+06
       677.50000  2.95897e-07  1.51825e+07
       677.60000  2.95897e-07  1.51795e+07
       677.70000  2.95897e-07  1.51795e+07
       677.80000  2.95897e-07  1.51766e+07
       677.90000  2.95897e-07  1.51736e+07
       678.00000  2.95897e-07  1.51706e+07
       678.10000  2.95897e-07  1.51677e+07
       678.20000  2.95897e-07  1.51647e+07
       678.30000  2.95897e-07  1.51618e+07
       678.40000  2.95897e-07  1.51588e+07
       678.50000  1.83799e-07  9.41232e+06
       678.60000  1.83799e-07  9.41048e+06
       678.70000  1.83799e-07  9.40865e+06
       678.80000  1.83785e-07  9.40426e+06
       678.90000  1.83785e-07  9.40242e+06
       679.00000  1.83785e-07  9.39875e+06
       679.10000  1.83785e-07  9.39875e+06
       679.20000  1.83785e-07  9.40059e+06
       679.30000  1.83785e-07  9.40059e+06
       679.40000  1.83785e-07  9.40059e+06
       679.50000  7.11244e-08  3.63801e+06
       679.60000  7.11244e-08  3.63801e+06
       679.70000  7.11244e-08  3.63801e+06
       679.80000  7.11244e-08  3.63801e+06
       679.90000  7.11244e-08  3.63801e+06
       680.00000  7.11244e-08  3.63730e+06
       680.10000  7.11244e-08  3.63730e+06
       680.20000  7.11244e-08  3.63730e+06
       680.30000  7.11244e-08  3.63659e+06
       680.40000  7.11244e-08  3.63659e+06
       680.50000  1.98694e-07  1.01572e+07
       680.60000  1.98694e-07  1.01572e+07
       680.70000  1.98694e-07  1.01552e+07
       680.80000  1.98694e-07  1.01532e+07
       680.90000  1.98694e-07  1.01513e+07
       681.00000  1.98694e-07  1.01513e+07
       681.10000  1.98694e-07  1.01493e+07
       681.20000  1.98694e-07  1.01473e+07
       681.30000  1.98675e-07  1.01463e+07
       681.40000  1.98675e-07  1.01443e+07
       681.50000  1.67079e-07  8.52940e+06
       681.60000  1.67079e-07  8.52772e+06
       681.70000  1.67079e-07  8.52605e+06
       681.80000  1.67079e-07  8.52271e+06
       681.90000  1.67079e-07  8.52104e+06
       682.00000  1.67079e-07  8.51937e+06
       682.10000  1.67079e-07  8.51603e+06
       682.20000  1.67079e-07  8.51269e+06
       682.30000  1.67079e-07  8.51102e+06
       682.40000  1.67079e-07  8.50768e+06
       682.50000  2.77757e-07  1.41378e+07
       682.60000  2.77757e-07  1.41323e+07
       682.70000  2.77757e-07  1.41267e+07
       682.80000  2.77757e-07  1.41212e+07
       682.90000  2.77757e-07  1.41128e+07
       683.00000  2.77757e-07  1.41073e+07
       683.10000  2.77757e-07  1.41017e+07
       683.20000  2.77757e-07  1.40934e+07
       683.30000  2.77757e-07  1.40851e+07
       683.40000  2.77757e-07  1.40767e+07
       683.50000  2.16558e-07  1.09708e+07
       683.60000  2.16558e-07  1.09644e+07
       683.70000  2.16558e-07  1.09579e+07
       683.80000  2.16392e-07  1.09408e+07
       683.90000  2.16392e-07  1.09343e+07
       684.00000  2.16392e-07  1.09278e+07
       684.10000  2.16392e-07  1.09192e+07
       684.20000  2.16392e-07  1.09127e+07
       684.30000  2.16392e-07  1.09040e+07
       684.40000  2.16392e-07  1.08975e+07
       684.50000  1.05442e-07  5.30584e+06
       684.60000  1.05442e-07  5.30163e+06
       684.70000  1.05442e-07  5.29741e+06
       684.80000  1.05442e-07  5.29319e+06
       684.90000  1.05442e-07  5.28792e+06
       685.00000  1.05442e-07  5.28370e+06
       685.10000  1.05442e-07  5.28792e+06
       685.20000  1.05442e-07  5.29319e+06
       685.30000  1.05442e-07  5.29741e+06
       685.40000  1.05442e-07  5.30057e+06
       685.50000  2.61393e-07  1.31507e+07
       685.60000  2.61393e-07  1.31612e+07
       685.70000  2.61393e-07  1.31690e+07
       685.80000  2.61393e-07  1.31768e+07
       685.90000  2.61393e-07  1.31847e+07
       686.00000  2.61393e-07  1.31925e+07
       686.10000  2.61393e-07  1.32004e+07
       686.20000  2.61393e-07  1.32056e+07
       686.30000  2.61119e-07  1.31996e+07
       686.40000  2.61119e-07  1.32048e+07
       686.50000  1.96694e-07  9.95076e+06
       686.60000  1.96694e-07  9.95470e+06
       686.70000  1.96694e-07  9.95863e+06
       686.80000  1.96694e-07  9.96060e+06
       686.90000  1.96694e-07  9.96453e+06
       687.00000  1.96694e-07  9.96650e+06
       687.10000  1.96694e-07  9.96847e+06
       687.20000  1.96694e-07  9.96847e+06
       687.30000  1.96694e-07  9.96847e+06
       687.40000  1.96694e-07  9.96847e+06
       687.50000  6.27845e-08  3.18192e+06
       687.60000  6.27845e-08  3.18192e+06
       687.70000  6.27845e-08  3.18192e+06
       687.80000  6.27845e-08  3.18192e+06
       687.90000  6.27845e-08  3.18192e+06
       688.00000  6.27845e-08  3.18129e+06
       688.10000  6.27845e-08  3.18129e+06
       688.20000  6.27845e-08  3.18129e+06
       688.30000  6.27845e-08  3.18066e+06
       688.40000  6.27845e-08  3.18066e+06
       688.50000  2.67051e-07  1.35261e+07
       688.60000  2.67051e-07  1.35235e+07
       688.70000  2.67051e-07  1.35235e+07
       688.80000  2.66710e-07  1.35035e+07
       688.90000  2.66710e-07  1.35009e+07
       689.00000  2.66710e-07  1.34982e+07
       689.10000  2.66710e-07  1.34955e+07
       689.20000  2.66710e-07  1.34929e+07
       689.30000  2.66710e-07  1.34902e+07
       689.40000  2.66710e-07  1.34875e+07
       689.50000  2.44596e-07  1.23668e+07
       689.60000  2.44596e-07  1.23643e+07
       689.70000  2.44596e-07  1.23594e+07
       689.80000  2.44596e-07  1.23570e+07
       689.90000  2.44596e-07  1.23546e+07
       690.00000  2.44596e-07  1.23497e+07
       690.10000  2.44596e-07  1.23448e+07
       690.20000  2.44596e-07  1.23423e+07
       690.30000  2.44596e-07  1.23374e+07
       690.40000  2.44596e-07  1.23325e+07
       690.50000  6.51649e-08  3.28496e+06
       690.60000  6.51649e-08  3.28366e+06
       690.70000  6.51649e-08  3.28235e+06
       690.80000  6.51649e-08  3.28105e+06
       690.90000  6.51649e-08  3.27975e+06
       691.00000  6.51649e-08  3.27844e+06
       691.10000  6.51649e-08  3.27975e+06
       691.20000  6.51649e-08  3.28040e+06
       691.30000  6.51026e-08  3.27857e+06
       691.40000  6.51026e-08  3.27922e+06
       691.50000  1.34498e-07  6.77603e+06
       691.60000  1.34498e-07  6.77872e+06
       691.70000  1.34498e-07  6.78007e+06
       691.80000  1.34498e-07  6.78141e+06
       691.90000  1.34498e-07  6.78276e+06
       692.00000  1.34498e-07  6.78276e+06
       692.10000  1.34498e-07  6.78410e+06
       692.20000  1.34498e-07  6.78545e+06
       692.30000  1.34498e-07  6.78545e+06
       692.40000  1.34498e-07  6.78545e+06
       692.50000  1.93147e-08      974620.
       692.60000  1.93147e-08      974620.
       692.70000  1.93147e-08      974620.
       692.80000  1.93147e-08      974620.
       692.90000  1.93147e-08      974620.
       693.00000  1.93147e-08      974427.
       693.10000  1.93147e-08      974427.
       693.20000  1.93147e-08      974234.
       693.30000  1.93147e-08      974041.
       693.40000  1.93147e-08      973848.
       693.50000  2.33826e-07  1.17872e+07
       693.60000  2.33826e-07  1.17848e+07
       693.70000  2.33826e-07  1.17825e+07
       693.80000  2.32898e-07  1.17334e+07
       693.90000  2.32898e-07  1.17288e+07
       694.00000  2.32898e-07  1.17264e+07
       694.10000  2.32898e-07  1.17241e+07
       694.20000  2.32898e-07  1.17194e+07
       694.30000  2.32898e-07  1.17171e+07
       694.40000  2.32898e-07  1.17124e+07
       694.50000  1.39793e-07  7.02739e+06
       694.60000  1.39793e-07  7.02599e+06
       694.70000  1.39793e-07  7.02320e+06
       694.80000  1.39793e-07  7.02040e+06
       694.90000  1.39793e-07  7.01760e+06
       695.00000  1.39793e-07  7.01481e+06
       695.10000  1.39793e-07  7.01201e+06
       695.20000  1.39793e-07  7.00922e+06
       695.30000  1.39793e-07  7.00502e+06
       695.40000  1.39793e-07  7.00223e+06
       695.50000  9.59291e-08  4.80317e+06
       695.60000  9.59291e-08  4.80029e+06
       695.70000  9.59291e-08  4.79837e+06
       695.80000  9.59291e-08  4.79550e+06
       695.90000  9.59291e-08  4.79262e+06
       696.00000  9.59291e-08  4.79070e+06
       696.10000  9.59291e-08  4.78782e+06
       696.20000  9.59291e-08  4.78494e+06
       696.30000  9.58349e-08  4.77737e+06
       696.40000  9.58349e-08  4.77450e+06
       696.50000  2.29942e-07  1.14488e+07
       696.60000  2.29942e-07  1.14419e+07
       696.70000  2.29942e-07  1.14327e+07
       696.80000  2.29942e-07  1.14258e+07
       696.90000  2.29942e-07  1.14189e+07
       697.00000  2.29942e-07  1.14097e+07
       697.10000  2.29942e-07  1.14258e+07
       697.20000  2.29942e-07  1.14373e+07
       697.30000  2.29942e-07  1.14511e+07
       697.40000  2.29942e-07  1.14626e+07
       697.50000  6.91261e-08  3.44939e+06
       697.60000  6.91261e-08  3.45216e+06
       697.70000  6.91261e-08  3.45492e+06
       697.80000  6.91261e-08  3.45700e+06
       697.90000  6.91261e-08  3.45907e+06
       698.00000  6.91261e-08  3.46045e+06
       698.10000  6.91261e-08  3.46184e+06
       698.20000  6.91261e-08  3.46322e+06
       698.30000  6.91261e-08  3.46391e+06
       698.40000  6.91261e-08  3.46460e+06
       698.50000  1.35749e-07  6.80510e+06
       698.60000  1.35749e-07  6.80510e+06
       698.70000  1.35749e-07  6.80374e+06
       698.80000  1.35517e-07  6.79077e+06
       698.90000  1.35517e-07  6.78942e+06
       699.00000  1.35517e-07  6.78671e+06
       699.10000  1.35517e-07  6.77451e+06
       699.20000  1.35517e-07  6.76096e+06
       699.30000  1.35517e-07  6.75012e+06
       699.40000  1.35517e-07  6.73792e+06
       699.50000  2.46436e-07  1.22331e+07
       699.60000  2.46436e-07  1.22134e+07
       699.70000  2.46436e-07  1.21961e+07
       699.80000  2.46436e-07  1.21789e+07
       699.90000  2.46436e-07  1.21616e+07
       700.00000  2.46436e-07  1.21468e+07
       700.10000  2.46436e-07  1.21320e+07
       700.20000  2.46436e-07  1.21173e+07
       700.30000  2.46436e-07  1.21049e+07
       700.40000  2.46436e-07  1.20926e+07
       700.50000  1.26173e-07  6.18498e+06
       700.60000  1.26173e-07  6.17993e+06
       700.70000  1.26173e-07  6.17489e+06
       700.80000  1.26173e-07  6.17110e+06
       700.90000  1.26173e-07  6.16732e+06
       701.00000  1.26173e-07  6.16353e+06
       701.10000  1.26173e-07  6.16227e+06
       701.20000  1.26173e-07  6.16101e+06
       701.30000  1.26087e-07  6.15554e+06
       701.40000  1.26087e-07  6.15554e+06
       701.50000  1.78855e-07  8.73172e+06
       701.60000  1.78855e-07  8.73172e+06
       701.70000  1.78855e-07  8.73172e+06
       701.80000  1.78855e-07  8.73351e+06
       701.90000  1.78855e-07  8.73351e+06
       702.00000  1.78855e-07  8.73530e+06
       702.10000  1.78855e-07  8.73887e+06
       702.20000  1.78855e-07  8.74066e+06
       702.30000  1.78855e-07  8.74424e+06
       702.40000  1.78855e-07  8.74603e+06
       702.50000  5.77885e-08  2.82702e+06
       702.60000  5.77885e-08  2.82875e+06
       702.70000  5.77885e-08  2.82990e+06
       702.80000  5.77885e-08  2.83164e+06
       702.90000  5.77885e-08  2.83337e+06
       703.00000  5.77885e-08  2.83511e+06
       703.10000  5.77885e-08  2.84031e+06
       703.20000  5.77885e-08  2.84551e+06
       703.30000  5.77885e-08  2.85013e+06
       703.40000  5.77885e-08  2.85475e+06
       703.50000  1.93054e-07  9.55040e+06
       703.60000  1.93054e-07  9.56584e+06
       703.70000  1.93054e-07  9.57743e+06
       703.80000  1.92535e-07  9.56513e+06
       703.90000  1.92535e-07  9.57668e+06
       704.00000  1.92535e-07  9.58631e+06
       704.10000  1.92535e-07  9.59786e+06
       704.20000  1.92535e-07  9.60749e+06
       704.30000  1.92535e-07  9.61519e+06
       704.40000  1.92535e-07  9.62289e+06
       704.50000  1.10676e-07  5.53601e+06
       704.60000  1.10676e-07  5.54044e+06
       704.70000  1.10676e-07  5.54376e+06
       704.80000  1.10676e-07  5.54597e+06
       704.90000  1.10676e-07  5.54929e+06
       705.00000  1.10676e-07  5.55151e+06
       705.10000  1.10676e-07  5.55261e+06
       705.20000  1.10676e-07  5.55372e+06
       705.30000  1.10676e-07  5.55483e+06
       705.40000  1.10676e-07  5.55594e+06
       705.50000  1.11731e-07  5.60891e+06
       705.60000  1.11731e-07  5.60891e+06
       705.70000  1.11731e-07  5.60780e+06
       705.80000  1.11731e-07  5.60668e+06
       705.90000  1.11731e-07  5.60556e+06
       706.00000  1.11731e-07  5.60333e+06
       706.10000  1.11731e-07  5.60109e+06
       706.20000  1.11731e-07  5.59774e+06
       706.30000  1.11815e-07  5.59859e+06
       706.40000  1.11815e-07  5.59524e+06
       706.50000  2.77398e-07  1.38699e+07
       706.60000  2.77398e-07  1.38588e+07
       706.70000  2.77398e-07  1.38477e+07
       706.80000  2.77398e-07  1.38338e+07
       706.90000  2.77398e-07  1.38200e+07
       707.00000  2.77398e-07  1.38061e+07
       707.10000  2.77398e-07  1.37950e+07
       707.20000  2.77398e-07  1.37867e+07
       707.30000  2.77398e-07  1.37756e+07
       707.40000  2.77398e-07  1.37673e+07
       707.50000  8.91607e-08  4.42237e+06
       707.60000  8.91607e-08  4.41970e+06
       707.70000  8.91607e-08  4.41791e+06
       707.80000  8.91607e-08  4.41524e+06
       707.90000  8.91607e-08  4.41346e+06
       708.00000  8.91607e-08  4.41167e+06
       708.10000  8.91607e-08  4.40989e+06
       708.20000  8.91607e-08  4.40811e+06
       708.30000  8.91607e-08  4.40632e+06
       708.40000  8.91607e-08  4.40454e+06
       708.50000  1.40839e-07  6.95603e+06
       708.60000  1.40839e-07  6.95321e+06
       708.70000  1.40839e-07  6.95180e+06
       708.80000  1.40359e-07  6.92673e+06
       708.90000  1.40359e-07  6.92533e+06
       709.00000  1.40359e-07  6.92533e+06
       709.10000  1.40359e-07  6.92814e+06
       709.20000  1.40359e-07  6.93094e+06
       709.30000  1.40359e-07  6.93235e+06
       709.40000  1.40359e-07  6.93515e+06
       709.50000  1.98514e-07  9.81057e+06
       709.60000  1.98514e-07  9.81454e+06
       709.70000  1.98514e-07  9.81652e+06
       709.80000  1.98514e-07  9.81851e+06
       709.90000  1.98514e-07  9.82049e+06
       710.00000  1.98514e-07  9.82248e+06
       710.10000  1.98514e-07  9.82446e+06
       710.20000  1.98514e-07  9.82645e+06
       710.30000  1.98514e-07  9.82645e+06
       710.40000  1.98514e-07  9.82844e+06
       710.50000  1.05091e-07  5.20306e+06
       710.60000  1.05091e-07  5.20306e+06
       710.70000  1.05091e-07  5.20306e+06
       710.80000  1.05091e-07  5.20306e+06
       710.90000  1.05091e-07  5.20306e+06
       711.00000  1.05091e-07  5.20306e+06
       711.10000  1.05091e-07  5.20306e+06
       711.20000  1.05091e-07  5.20201e+06
       711.30000  1.05114e-07  5.20313e+06
       711.40000  1.05114e-07  5.20208e+06
       711.50000  2.36199e-07  1.16871e+07
       711.60000  2.36199e-07  1.16848e+07
       711.70000  2.36199e-07  1.16824e+07
       711.80000  2.36199e-07  1.16800e+07
       711.90000  2.36199e-07  1.16777e+07
       712.00000  2.36199e-07  1.16729e+07
       712.10000  2.36199e-07  1.16706e+07
       712.20000  2.36199e-07  1.16659e+07
       712.30000  2.36199e-07  1.16635e+07
       712.40000  2.36199e-07  1.16588e+07
       712.50000  3.87335e-08  1.91111e+06
       712.60000  3.87335e-08  1.91033e+06
       712.70000  3.87335e-08  1.90917e+06
       712.80000  3.87335e-08  1.90840e+06
       712.90000  3.87335e-08  1.90762e+06
       713.00000  3.87335e-08  1.90646e+06
       713.10000  3.87335e-08  1.90646e+06
       713.20000  3.87335e-08  1.90646e+06
       713.30000  3.87335e-08  1.90646e+06
       713.40000  3.87335e-08  1.90607e+06
       713.50000  2.43699e-07  1.19924e+07
       713.60000  2.43699e-07  1.19924e+07
       713.70000  2.43699e-07  1.19900e+07
       713.80000  2.43642e-07  1.19872e+07
       713.90000  2.43642e-07  1.19847e+07
       714.00000  2.43642e-07  1.19847e+07
       714.10000  2.43642e-07  1.19823e+07
       714.20000  2.43642e-07  1.19799e+07
       714.30000  2.43642e-07  1.19799e+07
       714.40000  2.43642e-07  1.19774e+07
       714.50000  8.63412e-08  4.24367e+06
       714.60000  8.63412e-08  4.24281e+06
       714.70000  8.63412e-08  4.24281e+06
       714.80000  8.63412e-08  4.24194e+06
       714.90000  8.63412e-08  4.24108e+06
       715.00000  8.63412e-08  4.24022e+06
       715.10000  8.63412e-08  4.23935e+06
       715.20000  8.63412e-08  4.23935e+06
       715.30000  8.63412e-08  4.23935e+06
       715.40000  8.63412e-08  4.23849e+06
       715.50000  2.09135e-07  1.02643e+07
       715.60000  2.09135e-07  1.02623e+07
       715.70000  2.09135e-07  1.02602e+07
       715.80000  2.09135e-07  1.02581e+07
       715.90000  2.09135e-07  1.02560e+07
       716.00000  2.09135e-07  1.02518e+07
       716.10000  2.09135e-07  1.02497e+07
       716.20000  2.09135e-07  1.02455e+07
       716.30000  2.08833e-07  1.02266e+07
       716.40000  2.08833e-07  1.02224e+07
       716.50000  1.46773e-07  7.18161e+06
       716.60000  1.46773e-07  7.17867e+06
       716.70000  1.46773e-07  7.17574e+06
       716.80000  1.46773e-07  7.17133e+06
       716.90000  1.46773e-07  7.16840e+06
       717.00000  1.46773e-07  7.16399e+06
       717.10000  1.46773e-07  7.15959e+06
       717.20000  1.46773e-07  7.15519e+06
       717.30000  1.46773e-07  7.15078e+06
       717.40000  1.46773e-07  7.14638e+06
       717.50000  1.92878e-07  9.38545e+06
       717.60000  1.92878e-07  9.37774e+06
       717.70000  1.92878e-07  9.37195e+06
       717.80000  1.92878e-07  9.36424e+06
       717.90000  1.92878e-07  9.35652e+06
       718.00000  1.92878e-07  9.34880e+06
       718.10000  1.92878e-07  9.34109e+06
       718.20000  1.92878e-07  9.33337e+06
       718.30000  1.92878e-07  9.32566e+06
       718.40000  1.92878e-07  9.31602e+06
       718.50000  1.52264e-07  7.34827e+06
       718.60000  1.52264e-07  7.34065e+06
       718.70000  1.52264e-07  7.33304e+06
       718.80000  1.51639e-07  7.29534e+06
       718.90000  1.51639e-07  7.28776e+06
       719.00000  1.51639e-07  7.28018e+06
       719.10000  1.51639e-07  7.28018e+06
       719.20000  1.51639e-07  7.28018e+06
       719.30000  1.51639e-07  7.28018e+06
       719.40000  1.51639e-07  7.28169e+06
       719.50000  2.24420e-07  1.07766e+07
       719.60000  2.24420e-07  1.07789e+07
       719.70000  2.24420e-07  1.07789e+07
       719.80000  2.24420e-07  1.07811e+07
       719.90000  2.24420e-07  1.07834e+07
       720.00000  2.24420e-07  1.07879e+07
       720.10000  2.24420e-07  1.07901e+07
       720.20000  2.24420e-07  1.07923e+07
       720.30000  2.24420e-07  1.07968e+07
       720.40000  2.24420e-07  1.07991e+07
       720.50000  1.33905e-07  6.44619e+06
       720.60000  1.33905e-07  6.44887e+06
       720.70000  1.33905e-07  6.45155e+06
       720.80000  1.33905e-07  6.45423e+06
       720.90000  1.33905e-07  6.45824e+06
       721.00000  1.33905e-07  6.46092e+06
       721.10000  1.33905e-07  6.46762e+06
       721.20000  1.33905e-07  6.47431e+06
       721.30000  1.33633e-07  6.46782e+06
       721.40000  1.33633e-07  6.47316e+06
       721.50000  2.43914e-07  1.18274e+07
       721.60000  2.43914e-07  1.18371e+07
       721.70000  2.43914e-07  1.18469e+07
       721.80000  2.43914e-07  1.18591e+07
       721.90000  2.43914e-07  1.18689e+07
       722.00000  2.43914e-07  1.18762e+07
       722.10000  2.43914e-07  1.18859e+07
       722.20000  2.43914e-07  1.18957e+07
       722.30000  2.43914e-07  1.19030e+07
       722.40000  2.43914e-07  1.19103e+07
       722.50000  1.64288e-07  8.02711e+06
       722.60000  1.64288e-07  8.03368e+06
       722.70000  1.64288e-07  8.03697e+06
       722.80000  1.64288e-07  8.04190e+06
       722.90000  1.64288e-07  8.04683e+06
       723.00000  1.64288e-07  8.05011e+06
       723.10000  1.64288e-07  8.05504e+06
       723.20000  1.64288e-07  8.05833e+06
       723.30000  1.64288e-07  8.06161e+06
       723.40000  1.64288e-07  8.06490e+06
       723.50000  2.42152e-07  1.18921e+07
       723.60000  2.42152e-07  1.18945e+07
       723.70000  2.42152e-07  1.18994e+07
       723.80000  2.41409e-07  1.18653e+07
       723.90000  2.41409e-07  1.18677e+07
       724.00000  2.41409e-07  1.18701e+07
       724.10000  2.41409e-07  1.18725e+07
       724.20000  2.41409e-07  1.18749e+07
       724.30000  2.41409e-07  1.18773e+07
       724.40000  2.41409e-07  1.18798e+07
       724.50000  6.96840e-08  3.42915e+06
       724.60000  6.96840e-08  3.42915e+06
       724.70000  6.96840e-08  3.42915e+06
       724.80000  6.96840e-08  3.42915e+06
       724.90000  6.96840e-08  3.42915e+06
       725.00000  6.96840e-08  3.42915e+06
       725.10000  6.96840e-08  3.43054e+06
       725.20000  6.96840e-08  3.43194e+06
       725.30000  6.96840e-08  3.43263e+06
       725.40000  6.96840e-08  3.43403e+06
       725.50000  2.15048e-07  1.05997e+07
       725.60000  2.15048e-07  1.06018e+07
       725.70000  2.15048e-07  1.06018e+07
       725.80000  2.15048e-07  1.06040e+07
       725.90000  2.15048e-07  1.06040e+07
       726.00000  2.15048e-07  1.06040e+07
       726.10000  2.15048e-07  1.06040e+07
       726.20000  2.15048e-07  1.06040e+07
       726.30000  2.14488e-07  1.05743e+07
       726.40000  2.14488e-07  1.05721e+07
       726.50000  2.86767e-07  1.41319e+07
       726.60000  2.86767e-07  1.41290e+07
       726.70000  2.86767e-07  1.41261e+07
       726.80000  2.86767e-07  1.41204e+07
       726.90000  2.86767e-07  1.41146e+07
       727.00000  2.86767e-07  1.41089e+07
       727.10000  2.86767e-07  1.40888e+07
       727.20000  2.86767e-07  1.40688e+07
       727.30000  2.86767e-07  1.40487e+07
       727.40000  2.86767e-07  1.40315e+07
       727.50000  1.84737e-07  9.02809e+06
       727.60000  1.84737e-07  9.01700e+06
       727.70000  1.84737e-07  9.00777e+06
       727.80000  1.84737e-07  8.99853e+06
       727.90000  1.84737e-07  8.98929e+06
       728.00000  1.84737e-07  8.98190e+06
       728.10000  1.84737e-07  8.97452e+06
       728.20000  1.84737e-07  8.96712e+06
       728.30000  1.84737e-07  8.95974e+06
       728.40000  1.84737e-07  8.95419e+06
       728.50000  1.77426e-07  8.59452e+06
       728.60000  1.77426e-07  8.59097e+06
       728.70000  1.77426e-07  8.58565e+06
       728.80000  1.77463e-07  8.58568e+06
       728.90000  1.77463e-07  8.58213e+06
       729.00000  1.77463e-07  8.58036e+06
       729.10000  1.77463e-07  8.57858e+06
       729.20000  1.77463e-07  8.57681e+06
       729.30000  1.77463e-07  8.57681e+06
       729.40000  1.77463e-07  8.57503e+06
       729.50000  2.09950e-07  1.01469e+07
       729.60000  2.09950e-07  1.01469e+07
       729.70000  2.09950e-07  1.01490e+07
       729.80000  2.09950e-07  1.01511e+07
       729.90000  2.09950e-07  1.01553e+07
       730.00000  2.09950e-07  1.01595e+07
       730.10000  2.09950e-07  1.01637e+07
       730.20000  2.09950e-07  1.01679e+07
       730.30000  2.09950e-07  1.01742e+07
       730.40000  2.09950e-07  1.01805e+07
       730.50000  1.44526e-07  7.01240e+06
       730.60000  1.44526e-07  7.01818e+06
       730.70000  1.44526e-07  7.02396e+06
       730.80000  1.44526e-07  7.02975e+06
       730.90000  1.44526e-07  7.03697e+06
       731.00000  1.44526e-07  7.04420e+06
       731.10000  1.44526e-07  7.04275e+06
       731.20000  1.44526e-07  7.04131e+06
       731.30000  1.44420e-07  7.03468e+06
       731.40000  1.44420e-07  7.03468e+06
       731.50000  2.01848e-07  9.82999e+06
       731.60000  2.01848e-07  9.82798e+06
       731.70000  2.01848e-07  9.82596e+06
       731.80000  2.01848e-07  9.82596e+06
       731.90000  2.01848e-07  9.82394e+06
       732.00000  2.01848e-07  9.82192e+06
       732.10000  2.01848e-07  9.81990e+06
       732.20000  2.01848e-07  9.81788e+06
       732.30000  2.01848e-07  9.81788e+06
       732.40000  2.01848e-07  9.81586e+06
       732.50000  1.64566e-07  8.00119e+06
       732.60000  1.64566e-07  7.99955e+06
       732.70000  1.64566e-07  7.99790e+06
       732.80000  1.64566e-07  7.99626e+06
       732.90000  1.64566e-07  7.99461e+06
       733.00000  1.64566e-07  7.99297e+06
       733.10000  1.64566e-07  7.99132e+06
       733.20000  1.64566e-07  7.98803e+06
       733.30000  1.64566e-07  7.98638e+06
       733.40000  1.64566e-07  7.98309e+06
       733.50000  9.15145e-08  4.43845e+06
       733.60000  9.15145e-08  4.43754e+06
       733.70000  9.15145e-08  4.43571e+06
       733.80000  9.13633e-08  4.42747e+06
       733.90000  9.13633e-08  4.42655e+06
       734.00000  9.13633e-08  4.42564e+06
       734.10000  9.13633e-08  4.42473e+06
       734.20000  9.13633e-08  4.42381e+06
       734.30000  9.13633e-08  4.42290e+06
       734.40000  9.13633e-08  4.42290e+06
       734.50000  2.47906e-07  1.19987e+07
       734.60000  2.47906e-07  1.19962e+07
       734.70000  2.47906e-07  1.19962e+07
       734.80000  2.47906e-07  1.19937e+07
       734.90000  2.47906e-07  1.19937e+07
       735.00000  2.47906e-07  1.19912e+07
       735.10000  2.47906e-07  1.19912e+07
       735.20000  2.47906e-07  1.19912e+07
       735.30000  2.47906e-07  1.19912e+07
       735.40000  2.47906e-07  1.19887e+07
       735.50000  2.19851e-07  1.06320e+07
       735.60000  2.19851e-07  1.06320e+07
       735.70000  2.19851e-07  1.06320e+07
       735.80000  2.19851e-07  1.06342e+07
       735.90000  2.19851e-07  1.06342e+07
       736.00000  2.19851e-07  1.06342e+07
       736.10000  2.19851e-07  1.06342e+07
       736.20000  2.19851e-07  1.06364e+07
       736.30000  2.19431e-07  1.06161e+07
       736.40000  2.19431e-07  1.06183e+07
       736.50000  2.04091e-07  9.87596e+06
       736.60000  2.04091e-07  9.87800e+06
       736.70000  2.04091e-07  9.88004e+06
       736.80000  2.04091e-07  9.88004e+06
       736.90000  2.04091e-07  9.88208e+06
       737.00000  2.04091e-07  9.88412e+06
       737.10000  2.04091e-07  9.87392e+06
       737.20000  2.04091e-07  9.86167e+06
       737.30000  2.04091e-07  9.85147e+06
       737.40000  2.04091e-07  9.84126e+06
       737.50000  1.67726e-07  8.07767e+06
       737.60000  1.67726e-07  8.06929e+06
       737.70000  1.67726e-07  8.06090e+06
       737.80000  1.67726e-07  8.05252e+06
       737.90000  1.67726e-07  8.04581e+06
       738.00000  1.67726e-07  8.03742e+06
       738.10000  1.67726e-07  8.02903e+06
       738.20000  1.67726e-07  8.02065e+06
       738.30000  1.67726e-07  8.01394e+06
       738.40000  1.67726e-07  8.00723e+06
       738.50000  1.37246e-07  6.54527e+06
       738.60000  1.37246e-07  6.53978e+06
       738.70000  1.37246e-07  6.53429e+06
       738.80000  1.36670e-07  6.50137e+06
       738.90000  1.36670e-07  6.49591e+06
       739.00000  1.36670e-07  6.49044e+06
       739.10000  1.36670e-07  6.47950e+06
       739.20000  1.36670e-07  6.46994e+06
       739.30000  1.36670e-07  6.46174e+06
       739.40000  1.36670e-07  6.45354e+06
       739.50000  1.78497e-07  8.41794e+06
       739.60000  1.78497e-07  8.40901e+06
       739.70000  1.78497e-07  8.40187e+06
       739.80000  1.78497e-07  8.39295e+06
       739.90000  1.78497e-07  8.38759e+06
       740.00000  1.78497e-07  8.38045e+06
       740.10000  1.78497e-07  8.37688e+06
       740.20000  1.78497e-07  8.37153e+06
       740.30000  1.78497e-07  8.36796e+06
       740.40000  1.78497e-07  8.36617e+06
       740.50000  2.35365e-07  1.10292e+07
       740.60000  2.35365e-07  1.10268e+07
       740.70000  2.35365e-07  1.10268e+07
       740.80000  2.35365e-07  1.10268e+07
       740.90000  2.35365e-07  1.10292e+07
       741.00000  2.35365e-07  1.10316e+07
       741.10000  2.35365e-07  1.10363e+07
       741.20000  2.35365e-07  1.10410e+07
       741.30000  2.35205e-07  1.10382e+07
       741.40000  2.35205e-07  1.10452e+07
       741.50000  1.56036e-07  7.33214e+06
       741.60000  1.56036e-07  7.33838e+06
       741.70000  1.56036e-07  7.34619e+06
       741.80000  1.56036e-07  7.35243e+06
       741.90000  1.56036e-07  7.36179e+06
       742.00000  1.56036e-07  7.36959e+06
       742.10000  1.56036e-07  7.37895e+06
       742.20000  1.56036e-07  7.38988e+06
       742.30000  1.56036e-07  7.40080e+06
       742.40000  1.56036e-07  7.41172e+06
       742.50000  1.93014e-07  9.18363e+06
       742.60000  1.93014e-07  9.19907e+06
       742.70000  1.93014e-07  9.21644e+06
       742.80000  1.93014e-07  9.23381e+06
       742.90000  1.93014e-07  9.25311e+06
       743.00000  1.93014e-07  9.27242e+06
       743.10000  1.93014e-07  9.26856e+06
       743.20000  1.93014e-07  9.26662e+06
       743.30000  1.93014e-07  9.26470e+06
       743.40000  1.93014e-07  9.26083e+06
       743.50000  2.52006e-07  1.20887e+07
       743.60000  2.52006e-07  1.20862e+07
       743.70000  2.52006e-07  1.20837e+07
       743.80000  2.51893e-07  1.20758e+07
       743.90000  2.51893e-07  1.20732e+07
       744.00000  2.51893e-07  1.20707e+07
       744.10000  2.51893e-07  1.20707e+07
       744.20000  2.51893e-07  1.20682e+07
       744.30000  2.51893e-07  1.20682e+07
       744.40000  2.51893e-07  1.20682e+07
       744.50000  2.47028e-07  1.18327e+07
       744.60000  2.47028e-07  1.18327e+07
       744.70000  2.47028e-07  1.18327e+07
       744.80000  2.47028e-07  1.18327e+07
       744.90000  2.47028e-07  1.18351e+07
       745.00000  2.47028e-07  1.18351e+07
       745.10000  2.47028e-07  1.18425e+07
       745.20000  2.47028e-07  1.18499e+07
       745.30000  2.47028e-07  1.18549e+07
       745.40000  2.47028e-07  1.18623e+07
       745.50000  1.25621e-07  6.03481e+06
       745.60000  1.25621e-07  6.03732e+06
       745.70000  1.25621e-07  6.03983e+06
       745.80000  1.25621e-07  6.04235e+06
       745.90000  1.25621e-07  6.04360e+06
       746.00000  1.25621e-07  6.04612e+06
       746.10000  1.25621e-07  6.04737e+06
       746.20000  1.25621e-07  6.04863e+06
       746.30000  1.25048e-07  6.02229e+06
       746.40000  1.25048e-07  6.02354e+06
       746.50000  2.23606e-07  1.07733e+07
       746.60000  2.23606e-07  1.07733e+07
       746.70000  2.23606e-07  1.07756e+07
       746.80000  2.23606e-07  1.07756e+07
       746.90000  2.23606e-07  1.07756e+07
       747.00000  2.23606e-07  1.07756e+07
       747.10000  2.23606e-07  1.07689e+07
       747.20000  2.23606e-07  1.07644e+07
       747.30000  2.23606e-07  1.07599e+07
       747.40000  2.23606e-07  1.07554e+07
       747.50000  6.22289e-08  2.99197e+06
       747.60000  6.22289e-08  2.99072e+06
       747.70000  6.22289e-08  2.98948e+06
       747.80000  6.22289e-08  2.98823e+06
       747.90000  6.22289e-08  2.98699e+06
       748.00000  6.22289e-08  2.98574e+06
       748.10000  6.22289e-08  2.98512e+06
       748.20000  6.22289e-08  2.98388e+06
       748.30000  6.22289e-08  2.98263e+06
       748.40000  6.22289e-08  2.98201e+06
       748.50000  1.63540e-07  7.83358e+06
       748.60000  1.63540e-07  7.83031e+06
       748.70000  1.63540e-07  7.82868e+06
       748.80000  1.62964e-07  7.79782e+06
       748.90000  1.62964e-07  7.79619e+06
       749.00000  1.62964e-07  7.79456e+06
       749.10000  1.62964e-07  7.79130e+06
       749.20000  1.62964e-07  7.78967e+06
       749.30000  1.62964e-07  7.78804e+06
       749.40000  1.62964e-07  7.78641e+06
       749.50000  1.06516e-07  5.08828e+06
       749.60000  1.06516e-07  5.08722e+06
       749.70000  1.06516e-07  5.08509e+06
       749.80000  1.06516e-07  5.08402e+06
       749.90000  1.06516e-07  5.08402e+06
       750.00000  1.06516e-07  5.08296e+06
       750.10000  1.06516e-07  5.08189e+06
       750.20000  1.06516e-07  5.08083e+06
       750.30000  1.06516e-07  5.07976e+06
       750.40000  1.06516e-07  5.07976e+06
       750.50000  1.91149e-07  9.11401e+06
       750.60000  1.91149e-07  9.11210e+06
       750.70000  1.91149e-07  9.11210e+06
       750.80000  1.91149e-07  9.11018e+06
       750.90000  1.91149e-07  9.11018e+06
       751.00000  1.91149e-07  9.10827e+06
       751.10000  1.91149e-07  9.10827e+06
       751.20000  1.91149e-07  9.10827e+06
       751.30000  1.90722e-07  9.08598e+06
       751.40000  1.90722e-07  9.08598e+06
       751.50000  1.99527e-07  9.50548e+06
       751.60000  1.99527e-07  9.50548e+06
       751.70000  1.99527e-07  9.50548e+06
       751.80000  1.99527e-07  9.50548e+06
       751.90000  1.99527e-07  9.50548e+06
       752.00000  1.99527e-07  9.50548e+06
       752.10000  1.99527e-07  9.50548e+06
       752.20000  1.99527e-07  9.50548e+06
       752.30000  1.99527e-07  9.50548e+06
       752.40000  1.99527e-07  9.50548e+06
       752.50000  4.49348e-08  2.14114e+06
       752.60000  4.49348e-08  2.14114e+06
       752.70000  4.49348e-08  2.14114e+06
       752.80000  4.49348e-08  2.14159e+06
       752.90000  4.49348e-08  2.14159e+06
       753.00000  4.49348e-08  2.14204e+06
       753.10000  4.49348e-08  2.14204e+06
       753.20000  4.49348e-08  2.14204e+06
       753.30000  4.49348e-08  2.14204e+06
       753.40000  4.49348e-08  2.14204e+06
       753.50000  1.68166e-07  8.01648e+06
       753.60000  1.68166e-07  8.01648e+06
       753.70000  1.68166e-07  8.01648e+06
       753.80000  1.68081e-07  8.01243e+06
       753.90000  1.68081e-07  8.01243e+06
       754.00000  1.68081e-07  8.01243e+06
       754.10000  1.68081e-07  8.01243e+06
       754.20000  1.68081e-07  8.01075e+06
       754.30000  1.68081e-07  8.01075e+06
       754.40000  1.68081e-07  8.01075e+06
       754.50000  1.81232e-07  8.63753e+06
       754.60000  1.81232e-07  8.63753e+06
       754.70000  1.81232e-07  8.63572e+06
       754.80000  1.81232e-07  8.63572e+06
       754.90000  1.81232e-07  8.63390e+06
       755.00000  1.81232e-07  8.63390e+06
       755.10000  1.81232e-07  8.63209e+06
       755.20000  1.81232e-07  8.63209e+06
       755.30000  1.81232e-07  8.63028e+06
       755.40000  1.81232e-07  8.63028e+06
       755.50000  7.02360e-08  3.34394e+06
       755.60000  7.02360e-08  3.34323e+06
       755.70000  7.02360e-08  3.34323e+06
       755.80000  7.02360e-08  3.34253e+06
       755.90000  7.02360e-08  3.34183e+06
       756.00000  7.02360e-08  3.34183e+06
       756.10000  7.02360e-08  3.34113e+06
       756.20000  7.02360e-08  3.34042e+06
       756.30000  7.01241e-08  3.33440e+06
       756.40000  7.01241e-08  3.33440e+06
       756.50000  1.09323e-07  5.19723e+06
       756.60000  1.09323e-07  5.19613e+06
       756.70000  1.09323e-07  5.19504e+06
       756.80000  1.09323e-07  5.19504e+06
       756.90000  1.09323e-07  5.19395e+06
       757.00000  1.09323e-07  5.19285e+06
       757.10000  1.09323e-07  5.19176e+06
       757.20000  1.09323e-07  5.19067e+06
       757.30000  1.09323e-07  5.19067e+06
       757.40000  1.09323e-07  5.18957e+06
       757.50000  2.87720e-07  1.36552e+07
       757.60000  2.87720e-07  1.36523e+07
       757.70000  2.87720e-07  1.36495e+07
       757.80000  2.87720e-07  1.36466e+07
       757.90000  2.87720e-07  1.36437e+07
       758.00000  2.87720e-07  1.36437e+07
       758.10000  2.87720e-07  1.36408e+07
       758.20000  2.87720e-07  1.36379e+07
       758.30000  2.87720e-07  1.36351e+07
       758.40000  2.87720e-07  1.36322e+07
       758.50000  1.08586e-08      514370.
       758.60000  1.08586e-08      514261.
       758.70000  1.08586e-08      514153.
       758.80000  1.08293e-08      512657.
       758.90000  1.08293e-08      512549.
       759.00000  1.08293e-08      512441.
       759.10000  1.08293e-08      512441.
       759.20000  1.08293e-08      512332.
       759.30000  1.08293e-08      512332.
       759.40000  1.08293e-08      512224.
       759.50000  9.20596e-08  4.35442e+06
       759.60000  9.20596e-08  4.35442e+06
       759.70000  9.20596e-08  4.35350e+06
       759.80000  9.20596e-08  4.35350e+06
       759.90000  9.20596e-08  4.35350e+06
       760.00000  9.20596e-08  4.35350e+06
       760.10000  9.20596e-08  4.35350e+06
       760.20000  9.20596e-08  4.35350e+06
       760.30000  9.20596e-08  4.35442e+06
       760.40000  9.20596e-08  4.35442e+06
       760.50000  1.11546e-07  5.27613e+06
       760.60000  1.11546e-07  5.27725e+06
       760.70000  1.11546e-07  5.27725e+06
       760.80000  1.11546e-07  5.27836e+06
       760.90000  1.11546e-07  5.27836e+06
       761.00000  1.11546e-07  5.27948e+06
       761.10000  1.11546e-07  5.28394e+06
       761.20000  1.11546e-07  5.28729e+06
       761.30000  1.11314e-07  5.27963e+06
       761.40000  1.11314e-07  5.28297e+06
       761.50000  1.45434e-07  6.90666e+06
       761.60000  1.45434e-07  6.90957e+06
       761.70000  1.45434e-07  6.91248e+06
       761.80000  1.45434e-07  6.91539e+06
       761.90000  1.45434e-07  6.91830e+06
       762.00000  1.45434e-07  6.91975e+06
       762.10000  1.45434e-07  6.92266e+06
       762.20000  1.45434e-07  6.92411e+06
       762.30000  1.45434e-07  6.92557e+06
       762.40000  1.45434e-07  6.92557e+06
       762.50000  1.08416e-07  5.16276e+06
       762.60000  1.08416e-07  5.16384e+06
       762.70000  1.08416e-07  5.16384e+06
       762.80000  1.08416e-07  5.16276e+06
       762.90000  1.08416e-07  5.16276e+06
       763.00000  1.08416e-07  5.16167e+06
       763.10000  1.08416e-07  5.16059e+06
       763.20000  1.08416e-07  5.15950e+06
       763.30000  1.08416e-07  5.15734e+06
       763.40000  1.08416e-07  5.15517e+06
       763.50000  7.37327e-08  3.50451e+06
       763.60000  7.37327e-08  3.50304e+06
       763.70000  7.37327e-08  3.50156e+06
       763.80000  7.35439e-08  3.49039e+06
       763.90000  7.35439e-08  3.48819e+06
       764.00000  7.35439e-08  3.48598e+06
       764.10000  7.35439e-08  3.48378e+06
       764.20000  7.35439e-08  3.48083e+06
       764.30000  7.35439e-08  3.47789e+06
       764.40000  7.35439e-08  3.47495e+06
       764.50000  1.45499e-07  6.86901e+06
       764.60000  1.45499e-07  6.86319e+06
       764.70000  1.45499e-07  6.85592e+06
       764.80000  1.45499e-07  6.84864e+06
       764.90000  1.45499e-07  6.84137e+06
       765.00000  1.45499e-07  6.83264e+06
       765.10000  1.45499e-07  6.81663e+06
       765.20000  1.45499e-07  6.80063e+06
       765.30000  1.45499e-07  6.78608e+06
       765.40000  1.45499e-07  6.77153e+06
       765.50000  1.97812e-07  9.18838e+06
       765.60000  1.97812e-07  9.17255e+06
       765.70000  1.97812e-07  9.15475e+06
       765.80000  1.97812e-07  9.14090e+06
       765.90000  1.97812e-07  9.12705e+06
       766.00000  1.97812e-07  9.11321e+06
       766.10000  1.97812e-07  9.10134e+06
       766.20000  1.97812e-07  9.08947e+06
       766.30000  1.97807e-07  9.07934e+06
       766.40000  1.97807e-07  9.07142e+06
       766.50000  5.03738e-08  2.30813e+06
       766.60000  5.03738e-08  2.30611e+06
       766.70000  5.03738e-08  2.30510e+06
       766.80000  5.03738e-08  2.30359e+06
       766.90000  5.03738e-08  2.30259e+06
       767.00000  5.03738e-08  2.30208e+06
       767.10000  5.03738e-08  2.30460e+06
       767.20000  5.03738e-08  2.30762e+06
       767.30000  5.03738e-08  2.31014e+06
       767.40000  5.03738e-08  2.31266e+06
       767.50000  7.68447e-08  3.53178e+06
       767.60000  7.68447e-08  3.53563e+06
       767.70000  7.68447e-08  3.53947e+06
       767.80000  7.68447e-08  3.54254e+06
       767.90000  7.68447e-08  3.54638e+06
       768.00000  7.68447e-08  3.54946e+06
       768.10000  7.68447e-08  3.55253e+06
       768.20000  7.68447e-08  3.55561e+06
       768.30000  7.68447e-08  3.55791e+06
       768.40000  7.68447e-08  3.56098e+06
       768.50000  2.11952e-07  9.82823e+06
       768.60000  2.11952e-07  9.83459e+06
       768.70000  2.11952e-07  9.84095e+06
       768.80000  2.11840e-07  9.84208e+06
       768.90000  2.11840e-07  9.84843e+06
       769.00000  2.11840e-07  9.85267e+06
       769.10000  2.11840e-07  9.85902e+06
       769.20000  2.11840e-07  9.86326e+06
       769.30000  2.11840e-07  9.86750e+06
       769.40000  2.11840e-07  9.87174e+06
       769.50000  3.18580e-08  1.48490e+06
       769.60000  3.18580e-08  1.48554e+06
       769.70000  3.18580e-08  1.48586e+06
       769.80000  3.18580e-08  1.48650e+06
       769.90000  3.18580e-08  1.48681e+06
       770.00000  3.18580e-08  1.48681e+06
       770.10000  3.18580e-08  1.48713e+06
       770.20000  3.18580e-08  1.48745e+06
       770.30000  3.18580e-08  1.48745e+06
       770.40000  3.18580e-08  1.48745e+06
       770.50000  9.65895e-08  4.50976e+06
       770.60000  9.65895e-08  4.50976e+06
       770.70000  9.65895e-08  4.50976e+06
       770.80000  9.65895e-08  4.50976e+06
       770.90000  9.65895e-08  4.50880e+06
       771.00000  9.65895e-08  4.50783e+06
       771.10000  9.65895e-08  4.51169e+06
       771.20000  9.65895e-08  4.51459e+06
       771.30000  9.62939e-08  4.50366e+06
       771.40000  9.62939e-08  4.50655e+06
       771.50000  1.18422e-07  5.54569e+06
       771.60000  1.18422e-07  5.54806e+06
       771.70000  1.18422e-07  5.55161e+06
       771.80000  1.18422e-07  5.55398e+06
       771.90000  1.18422e-07  5.55517e+06
       772.00000  1.18422e-07  5.55753e+06
       772.10000  1.18422e-07  5.55872e+06
       772.20000  1.18422e-07  5.55990e+06
       772.30000  1.18422e-07  5.56109e+06
       772.40000  1.18422e-07  5.56227e+06
       772.50000  1.24140e-07  5.83087e+06
       772.60000  1.24140e-07  5.83087e+06
       772.70000  1.24140e-07  5.83087e+06
       772.80000  1.24140e-07  5.82963e+06
       772.90000  1.24140e-07  5.82963e+06
       773.00000  1.24140e-07  5.82839e+06
       773.10000  1.24140e-07  5.82094e+06
       773.20000  1.24140e-07  5.81474e+06
       773.30000  1.24140e-07  5.80729e+06
       773.40000  1.24140e-07  5.80108e+06
       773.50000  1.17227e-07  5.47215e+06
       773.60000  1.17227e-07  5.46746e+06
       773.70000  1.17227e-07  5.46277e+06
       773.80000  1.16763e-07  5.43649e+06
       773.90000  1.16763e-07  5.43182e+06
       774.00000  1.16763e-07  5.42715e+06
       774.10000  1.16763e-07  5.42364e+06
       774.20000  1.16763e-07  5.42014e+06
       774.30000  1.16763e-07  5.41780e+06
       774.40000  1.16763e-07  5.41430e+06
       774.50000  1.03072e-07  4.77737e+06
       774.60000  1.03072e-07  4.77634e+06
       774.70000  1.03072e-07  4.77428e+06
       774.80000  1.03072e-07  4.77325e+06
       774.90000  1.03072e-07  4.77222e+06
       775.00000  1.03072e-07  4.77119e+06
       775.10000  1.03072e-07  4.77119e+06
       775.20000  1.03072e-07  4.77119e+06
       775.30000  1.03072e-07  4.77119e+06
       775.40000  1.03072e-07  4.77119e+06
       775.50000  6.42937e-08  2.97680e+06
       775.60000  6.42937e-08  2.97744e+06
       775.70000  6.42937e-08  2.97809e+06
       775.80000  6.42937e-08  2.97873e+06
       775.90000  6.42937e-08  2.98001e+06
       776.00000  6.42937e-08  2.98130e+06
       776.10000  6.42937e-08  2.98259e+06
       776.20000  6.42937e-08  2.98452e+06
       776.30000  6.41307e-08  2.97887e+06
       776.40000  6.41307e-08  2.98080e+06
       776.50000  6.35794e-08  2.95708e+06
       776.60000  6.35794e-08  2.95962e+06
       776.70000  6.35794e-08  2.96217e+06
       776.80000  6.35794e-08  2.96471e+06
       776.90000  6.35794e-08  2.96789e+06
       777.00000  6.35794e-08  2.97043e+06
       777.10000  6.35794e-08  2.96916e+06
       777.20000  6.35794e-08  2.96852e+06
       777.30000  6.35794e-08  2.96725e+06
       777.40000  6.35794e-08  2.96598e+06
       777.50000  1.19703e-07  5.58175e+06
       777.60000  1.19703e-07  5.58055e+06
       777.70000  1.19703e-07  5.57816e+06
       777.80000  1.19703e-07  5.57696e+06
       777.90000  1.19703e-07  5.57576e+06
       778.00000  1.19703e-07  5.57337e+06
       778.10000  1.19703e-07  5.57217e+06
       778.20000  1.19703e-07  5.57097e+06
       778.30000  1.19703e-07  5.56978e+06
       778.40000  1.19703e-07  5.56858e+06
       778.50000  1.08626e-07  5.05326e+06
       778.60000  1.08626e-07  5.05218e+06
       778.70000  1.08626e-07  5.05109e+06
       778.80000  1.08350e-07  5.03830e+06
       778.90000  1.08350e-07  5.03830e+06
       779.00000  1.08350e-07  5.03721e+06
       779.10000  1.08350e-07  5.03938e+06
       779.20000  1.08350e-07  5.04046e+06
       779.30000  1.08350e-07  5.04263e+06
       779.40000  1.08350e-07  5.04371e+06
       779.50000  4.01329e-08  1.86859e+06
       779.60000  4.01329e-08  1.86899e+06
       779.70000  4.01329e-08  1.86939e+06
       779.80000  4.01329e-08  1.86979e+06
       779.90000  4.01329e-08  1.87019e+06
       780.00000  4.01329e-08  1.87059e+06
       780.10000  4.01329e-08  1.87059e+06
       780.20000  4.01329e-08  1.87100e+06
       780.30000  4.01329e-08  1.87100e+06
       780.40000  4.01329e-08  1.87100e+06
       780.50000  7.92556e-08  3.69490e+06
       780.60000  7.92556e-08  3.69490e+06
       780.70000  7.92556e-08  3.69490e+06
       780.80000  7.92556e-08  3.69490e+06
       780.90000  7.92556e-08  3.69490e+06
       781.00000  7.92556e-08  3.69410e+06
       781.10000  7.92556e-08  3.69410e+06
       781.20000  7.92556e-08  3.69331e+06
       781.30000  7.88150e-08  3.67199e+06
       781.40000  7.88150e-08  3.67120e+06
       781.50000  9.93941e-08  4.62878e+06
       781.60000  9.93941e-08  4.62779e+06
       781.70000  9.93941e-08  4.62680e+06
       781.80000  9.93941e-08  4.62580e+06
       781.90000  9.93941e-08  4.62382e+06
       782.00000  9.93941e-08  4.62282e+06
       782.10000  9.93941e-08  4.62083e+06
       782.20000  9.93941e-08  4.61885e+06
       782.30000  9.93941e-08  4.61785e+06
       782.40000  9.93941e-08  4.61586e+06
       782.50000  6.85680e-08  3.18292e+06
       782.60000  6.85680e-08  3.18087e+06
       782.70000  6.85680e-08  3.17950e+06
       782.80000  6.85680e-08  3.17812e+06
       782.90000  6.85680e-08  3.17607e+06
       783.00000  6.85680e-08  3.17470e+06
       783.10000  6.85680e-08  3.17607e+06
       783.20000  6.85680e-08  3.17744e+06
       783.30000  6.85680e-08  3.17881e+06
       783.40000  6.85680e-08  3.17950e+06
       783.50000  2.51658e-08  1.16744e+06
       783.60000  2.51658e-08  1.16795e+06
       783.70000  2.51658e-08  1.16820e+06
       783.80000  2.50375e-08  1.16274e+06
       783.90000  2.50375e-08  1.16324e+06
       784.00000  2.50375e-08  1.16349e+06
       784.10000  2.50375e-08  1.16375e+06
       784.20000  2.50375e-08  1.16425e+06
       784.30000  2.50375e-08  1.16450e+06
       784.40000  2.50375e-08  1.16475e+06
       784.50000  1.36414e-07  6.34736e+06
       784.60000  1.36414e-07  6.34872e+06
       784.70000  1.36414e-07  6.35008e+06
       784.80000  1.36414e-07  6.35145e+06
       784.90000  1.36414e-07  6.35281e+06
       785.00000  1.36414e-07  6.35281e+06
       785.10000  1.36414e-07  6.35281e+06
       785.20000  1.36414e-07  6.35281e+06
       785.30000  1.36414e-07  6.35281e+06
       785.40000  1.36414e-07  6.35281e+06
       785.50000  8.51988e-08  3.96771e+06
       785.60000  8.51988e-08  3.96771e+06
       785.70000  8.51988e-08  3.96771e+06
       785.80000  8.51988e-08  3.96771e+06
       785.90000  8.51988e-08  3.96771e+06
       786.00000  8.51988e-08  3.96771e+06
       786.10000  8.51988e-08  3.96771e+06
       786.20000  8.51988e-08  3.96771e+06
       786.30000  8.50560e-08  3.96106e+06
       786.40000  8.50560e-08  3.96106e+06
       786.50000  1.28148e-08      596786.
       786.60000  1.28148e-08      596786.
       786.70000  1.28148e-08      596786.
       786.80000  1.28148e-08      596786.
       786.90000  1.28148e-08      596786.
       787.00000  1.28148e-08      596786.
       787.10000  1.28148e-08      596786.
       787.20000  1.28148e-08      596786.
       787.30000  1.28148e-08      596786.
       787.40000  1.28148e-08      596786.
       787.50000  8.04687e-08  3.74743e+06
       787.60000  8.04687e-08  3.74743e+06
       787.70000  8.04687e-08  3.74743e+06
       787.80000  8.04687e-08  3.74743e+06
       787.90000  8.04687e-08  3.74743e+06
       788.00000  8.04687e-08  3.74743e+06
       788.10000  8.04687e-08  3.74743e+06
       788.20000  8.04687e-08  3.74743e+06
       788.30000  8.04687e-08  3.74743e+06
       788.40000  8.04687e-08  3.74743e+06
       788.50000  8.57114e-08  3.99158e+06
       788.60000  8.57114e-08  3.99158e+06
       788.70000  8.57114e-08  3.99158e+06
       788.80000  8.57264e-08  3.99228e+06
       788.90000  8.57264e-08  3.99228e+06
       789.00000  8.57264e-08  3.99228e+06
       789.10000  8.57264e-08  3.99056e+06
       789.20000  8.57264e-08  3.98799e+06
       789.30000  8.57264e-08  3.98542e+06
       789.40000  8.57264e-08  3.98370e+06
       789.50000  4.98219e-08  2.31373e+06
       789.60000  4.98219e-08  2.31224e+06
       789.70000  4.98219e-08  2.31124e+06
       789.80000  4.98219e-08  2.30975e+06
       789.90000  4.98219e-08  2.30825e+06
       790.00000  4.98219e-08  2.30725e+06
       790.10000  4.98219e-08  2.30576e+06
       790.20000  4.98219e-08  2.30476e+06
       790.30000  4.98219e-08  2.30327e+06
       790.40000  4.98219e-08  2.30227e+06
       790.50000  8.74928e-08  4.04042e+06
       790.60000  8.74928e-08  4.03779e+06
       790.70000  8.74928e-08  4.03604e+06
       790.80000  8.74928e-08  4.03342e+06
       790.90000  8.74928e-08  4.03167e+06
       791.00000  8.74928e-08  4.02905e+06
       791.10000  8.74928e-08  4.02642e+06
       791.20000  8.74928e-08  4.02467e+06
       791.30000  8.72378e-08  4.01032e+06
       791.40000  8.72378e-08  4.00770e+06
       791.50000  8.57842e-08  3.93835e+06
       791.60000  8.57842e-08  3.93578e+06
       791.70000  8.57842e-08  3.93406e+06
       791.80000  8.57842e-08  3.93149e+06
       791.90000  8.57842e-08  3.92977e+06
       792.00000  8.57842e-08  3.92720e+06
       792.10000  8.57842e-08  3.92548e+06
       792.20000  8.57842e-08  3.92377e+06
       792.30000  8.57842e-08  3.92119e+06
       792.40000  8.57842e-08  3.91948e+06
       792.50000  1.23124e-07  5.62308e+06
       792.60000  1.23124e-07  5.62062e+06
       792.70000  1.23124e-07  5.61816e+06
       792.80000  1.23124e-07  5.61570e+06
       792.90000  1.23124e-07  5.61323e+06
       793.00000  1.23124e-07  5.61077e+06
       793.10000  1.23124e-07  5.60708e+06
       793.20000  1.23124e-07  5.60215e+06
       793.30000  1.23124e-07  5.59846e+06
       793.40000  1.23124e-07  5.59476e+06
       793.50000  1.73836e-07  7.89391e+06
       793.60000  1.73836e-07  7.89043e+06
       793.70000  1.73836e-07  7.88522e+06
       793.80000  1.73340e-07  7.86099e+06
       793.90000  1.73340e-07  7.85752e+06
       794.00000  1.73340e-07  7.85578e+06
       794.10000  1.73340e-07  7.85232e+06
       794.20000  1.73340e-07  7.85232e+06
       794.30000  1.73340e-07  7.85058e+06
       794.40000  1.73340e-07  7.85058e+06
       794.50000  1.32023e-07  5.97932e+06
       794.60000  1.32023e-07  5.97932e+06
       794.70000  1.32023e-07  5.98064e+06
       794.80000  1.32023e-07  5.98064e+06
       794.90000  1.32023e-07  5.98196e+06
       795.00000  1.32023e-07  5.98460e+06
       795.10000  1.32023e-07  5.99384e+06
       795.20000  1.32023e-07  6.00309e+06
       795.30000  1.32023e-07  6.01233e+06
       795.40000  1.32023e-07  6.02157e+06
       795.50000  1.39930e-07  6.39060e+06
       795.60000  1.39930e-07  6.39900e+06
       795.70000  1.39930e-07  6.40600e+06
       795.80000  1.39930e-07  6.41299e+06
       795.90000  1.39930e-07  6.41999e+06
       796.00000  1.39930e-07  6.42559e+06
       796.10000  1.39930e-07  6.43118e+06
       796.20000  1.39930e-07  6.43678e+06
       796.30000  1.39744e-07  6.43241e+06
       796.40000  1.39744e-07  6.43660e+06
       796.50000  1.38419e-07  6.37972e+06
       796.60000  1.38419e-07  6.38249e+06
       796.70000  1.38419e-07  6.38526e+06
       796.80000  1.38419e-07  6.38664e+06
       796.90000  1.38419e-07  6.38803e+06
       797.00000  1.38419e-07  6.38941e+06
       797.10000  1.38419e-07  6.39080e+06
       797.20000  1.38419e-07  6.39080e+06
       797.30000  1.38419e-07  6.39080e+06
       797.40000  1.38419e-07  6.38941e+06
       797.50000  1.28729e-07  5.94087e+06
       797.60000  1.28729e-07  5.93958e+06
       797.70000  1.28729e-07  5.93700e+06
       797.80000  1.28729e-07  5.93443e+06
       797.90000  1.28729e-07  5.93186e+06
       798.00000  1.28729e-07  5.92799e+06
       798.10000  1.28729e-07  5.92413e+06
       798.20000  1.28729e-07  5.92027e+06
       798.30000  1.28729e-07  5.91512e+06
       798.40000  1.28729e-07  5.90997e+06
       798.50000  1.15139e-07  5.28145e+06
       798.60000  1.15139e-07  5.27569e+06
       798.70000  1.15139e-07  5.26993e+06
       798.80000  1.14876e-07  5.25214e+06
       798.90000  1.14876e-07  5.24525e+06
       799.00000  1.14876e-07  5.23836e+06
       799.10000  1.14876e-07  5.24180e+06
       799.20000  1.14876e-07  5.24640e+06
       799.30000  1.14876e-07  5.25099e+06
       799.40000  1.14876e-07  5.25444e+06
       799.50000  1.05695e-07  4.83766e+06
       799.60000  1.05695e-07  4.84083e+06
       799.70000  1.05695e-07  4.84400e+06
       799.80000  1.05695e-07  4.84611e+06
       799.90000  1.05695e-07  4.84823e+06
       800.00000  1.05695e-07  4.85034e+06
       800.10000  1.05695e-07  4.85246e+06
       800.20000  1.05695e-07  4.85457e+06
       800.30000  1.05695e-07  4.85668e+06
       800.40000  1.05695e-07  4.85774e+06
       800.50000  6.25231e-08  2.87419e+06
       800.60000  6.25231e-08  2.87481e+06
       800.70000  6.25231e-08  2.87481e+06
       800.80000  6.25231e-08  2.87544e+06
       800.90000  6.25231e-08  2.87544e+06
       801.00000  6.25231e-08  2.87544e+06
       801.10000  6.25231e-08  2.87419e+06
       801.20000  6.25231e-08  2.87294e+06
       801.30000  6.23396e-08  2.86326e+06
       801.40000  6.23396e-08  2.86201e+06
       801.50000  2.25889e-08  1.03660e+06
       801.60000  2.25889e-08  1.03615e+06
       801.70000  2.25889e-08  1.03570e+06
       801.80000  2.25889e-08  1.03525e+06
       801.90000  2.25889e-08  1.03480e+06
       802.00000  2.25889e-08  1.03435e+06
       802.10000  2.25889e-08  1.03389e+06
       802.20000  2.25889e-08  1.03344e+06
       802.30000  2.25889e-08  1.03299e+06
       802.40000  2.25889e-08  1.03254e+06
       802.50000  1.37776e-07  6.29500e+06
       802.60000  1.37776e-07  6.29224e+06
       802.70000  1.37776e-07  6.28948e+06
       802.80000  1.37776e-07  6.28535e+06
       802.90000  1.37776e-07  6.28260e+06
       803.00000  1.37776e-07  6.27984e+06
       803.10000  1.37776e-07  6.27708e+06
       803.20000  1.37776e-07  6.27433e+06
       803.30000  1.37776e-07  6.27157e+06
       803.40000  1.37776e-07  6.26744e+06
       803.50000  1.14679e-07  5.21445e+06
       803.60000  1.14679e-07  5.21216e+06
       803.70000  1.14679e-07  5.20986e+06
       803.80000  1.14323e-07  5.19139e+06
       803.90000  1.14323e-07  5.18796e+06
       804.00000  1.14323e-07  5.18567e+06
       804.10000  1.14323e-07  5.18339e+06
       804.20000  1.14323e-07  5.18110e+06
       804.30000  1.14323e-07  5.17767e+06
       804.40000  1.14323e-07  5.17539e+06
       804.50000  5.57520e-08  2.52278e+06
       804.60000  5.57520e-08  2.52110e+06
       804.70000  5.57520e-08  2.51999e+06
       804.80000  5.57520e-08  2.51887e+06
       804.90000  5.57520e-08  2.51720e+06
       805.00000  5.57520e-08  2.51609e+06
       805.10000  5.57520e-08  2.51832e+06
       805.20000  5.57520e-08  2.52110e+06
       805.30000  5.57520e-08  2.52278e+06
       805.40000  5.57520e-08  2.52501e+06
       805.50000  9.70943e-08  4.40031e+06
       805.60000  9.70943e-08  4.40323e+06
       805.70000  9.70943e-08  4.40614e+06
       805.80000  9.70943e-08  4.40808e+06
       805.90000  9.70943e-08  4.41002e+06
       806.00000  9.70943e-08  4.41196e+06
       806.10000  9.70943e-08  4.41294e+06
       806.20000  9.70943e-08  4.41391e+06
       806.30000  9.69044e-08  4.40624e+06
       806.40000  9.69044e-08  4.40721e+06
       806.50000  1.27150e-07  5.78278e+06
       806.60000  1.27150e-07  5.78278e+06
       806.70000  1.27150e-07  5.78151e+06
       806.80000  1.27150e-07  5.78151e+06
       806.90000  1.27150e-07  5.78024e+06
       807.00000  1.27150e-07  5.77769e+06
       807.10000  1.27150e-07  5.76752e+06
       807.20000  1.27150e-07  5.75608e+06
       807.30000  1.27150e-07  5.74591e+06
       807.40000  1.27150e-07  5.73701e+06
       807.50000  1.18911e-07  5.35693e+06
       807.60000  1.18911e-07  5.34861e+06
       807.70000  1.18911e-07  5.34147e+06
       807.80000  1.18911e-07  5.33553e+06
       807.90000  1.18911e-07  5.32958e+06
       808.00000  1.18911e-07  5.32363e+06
       808.10000  1.18911e-07  5.31888e+06
       808.20000  1.18911e-07  5.31412e+06
       808.30000  1.18911e-07  5.30936e+06
       808.40000  1.18911e-07  5.30580e+06
       808.50000  7.73161e-08  3.44830e+06
       808.60000  7.73161e-08  3.44675e+06
       808.70000  7.73161e-08  3.44520e+06
       808.80000  7.72430e-08  3.44117e+06
       808.90000  7.72430e-08  3.44040e+06
       809.00000  7.72430e-08  3.44040e+06
       809.10000  7.72430e-08  3.44040e+06
       809.20000  7.72430e-08  3.44117e+06
       809.30000  7.72430e-08  3.44195e+06
       809.40000  7.72430e-08  3.44272e+06
       809.50000  7.43921e-08  3.31714e+06
       809.60000  7.43921e-08  3.31938e+06
       809.70000  7.43921e-08  3.32161e+06
       809.80000  7.43921e-08  3.32384e+06
       809.90000  7.43921e-08  3.32681e+06
       810.00000  7.43921e-08  3.32979e+06
       810.10000  7.43921e-08  3.33351e+06
       810.20000  7.43921e-08  3.33723e+06
       810.30000  7.43921e-08  3.34095e+06
       810.40000  7.43921e-08  3.34541e+06
       810.50000  1.18562e-07  5.34004e+06
       810.60000  1.18562e-07  5.34716e+06
       810.70000  1.18562e-07  5.35664e+06
       810.80000  1.18562e-07  5.36613e+06
       810.90000  1.18562e-07  5.37561e+06
       811.00000  1.18562e-07  5.38628e+06
       811.10000  1.18562e-07  5.38747e+06
       811.20000  1.18562e-07  5.38984e+06
       811.30000  1.18484e-07  5.38747e+06
       811.40000  1.18484e-07  5.38984e+06
       811.50000  8.82459e-08  4.01519e+06
       811.60000  8.82459e-08  4.01607e+06
       811.70000  8.82459e-08  4.01696e+06
       811.80000  8.82459e-08  4.01784e+06
       811.90000  8.82459e-08  4.01872e+06
       812.00000  8.82459e-08  4.01960e+06
       812.10000  8.82459e-08  4.01960e+06
       812.20000  8.82459e-08  4.02048e+06
       812.30000  8.82459e-08  4.02137e+06
       812.40000  8.82459e-08  4.02137e+06
       812.50000  2.54636e-08  1.16038e+06
       812.60000  2.54636e-08  1.16063e+06
       812.70000  2.54636e-08  1.16063e+06
       812.80000  2.54636e-08  1.16063e+06
       812.90000  2.54636e-08  1.16063e+06
       813.00000  2.54636e-08  1.16063e+06
       813.10000  2.54636e-08  1.16012e+06
       813.20000  2.54636e-08  1.15987e+06
       813.30000  2.54636e-08  1.15936e+06
       813.40000  2.54636e-08  1.15910e+06
       813.50000  9.67273e-08  4.40109e+06
       813.60000  9.67273e-08  4.40012e+06
       813.70000  9.67273e-08  4.39916e+06
       813.80000  9.67166e-08  4.39770e+06
       813.90000  9.67166e-08  4.39674e+06
       814.00000  9.67166e-08  4.39480e+06
       814.10000  9.67166e-08  4.39384e+06
       814.20000  9.67166e-08  4.39287e+06
       814.30000  9.67166e-08  4.39190e+06
       814.40000  9.67166e-08  4.39190e+06
       814.50000  2.53866e-08  1.15255e+06
       814.60000  2.53866e-08  1.15230e+06
       814.70000  2.53866e-08  1.15205e+06
       814.80000  2.53866e-08  1.15179e+06
       814.90000  2.53866e-08  1.15179e+06
       815.00000  2.53866e-08  1.15154e+06
       815.10000  2.53866e-08  1.15255e+06
       815.20000  2.53866e-08  1.15331e+06
       815.30000  2.53866e-08  1.15408e+06
       815.40000  2.53866e-08  1.15458e+06
       815.50000  6.60445e-08  3.00569e+06
       815.60000  6.60445e-08  3.00635e+06
       815.70000  6.60445e-08  3.00767e+06
       815.80000  6.60445e-08  3.00767e+06
       815.90000  6.60445e-08  3.00833e+06
       816.00000  6.60445e-08  3.00833e+06
       816.10000  6.60445e-08  3.00833e+06
       816.20000  6.60445e-08  3.00767e+06
       816.30000  6.60427e-08  3.00692e+06
       816.40000  6.60427e-08  3.00626e+06
       816.50000  8.14534e-08  3.70613e+06
       816.60000  8.14534e-08  3.70450e+06
       816.70000  8.14534e-08  3.70206e+06
       816.80000  8.14534e-08  3.69961e+06
       816.90000  8.14534e-08  3.69717e+06
       817.00000  8.14534e-08  3.69391e+06
       817.10000  8.14534e-08  3.68251e+06
       817.20000  8.14534e-08  3.67192e+06
       817.30000  8.14534e-08  3.66214e+06
       817.40000  8.14534e-08  3.65237e+06
       817.50000  3.31225e-08  1.48157e+06
       817.60000  3.31225e-08  1.47826e+06
       817.70000  3.31225e-08  1.47494e+06
       817.80000  3.31225e-08  1.47163e+06
       817.90000  3.31225e-08  1.46898e+06
       818.00000  3.31225e-08  1.46600e+06
       818.10000  3.31225e-08  1.46368e+06
       818.20000  3.31225e-08  1.46136e+06
       818.30000  3.31225e-08  1.45904e+06
       818.40000  3.31225e-08  1.45739e+06
       818.50000  5.36065e-08  2.35547e+06
       818.60000  5.36065e-08  2.35333e+06
       818.70000  5.36065e-08  2.35118e+06
       818.80000  5.35984e-08  2.34868e+06
       818.90000  5.35984e-08  2.34761e+06
       819.00000  5.35984e-08  2.34600e+06
       819.10000  5.35984e-08  2.34546e+06
       819.20000  5.35984e-08  2.34493e+06
       819.30000  5.35984e-08  2.34439e+06
       819.40000  5.35984e-08  2.34439e+06
       819.50000  4.07312e-08  1.78199e+06
       819.60000  4.07312e-08  1.78240e+06
       819.70000  4.07312e-08  1.78321e+06
       819.80000  4.07312e-08  1.78444e+06
       819.90000  4.07312e-08  1.78566e+06
       820.00000  4.07312e-08  1.78729e+06
       820.10000  4.07312e-08  1.78892e+06
       820.20000  4.07312e-08  1.79095e+06
       820.30000  4.07312e-08  1.79340e+06
       820.40000  4.07312e-08  1.79584e+06
       820.50000  2.25150e-09      99426.0
       820.60000  2.25150e-09      99583.6
       820.70000  2.25150e-09      99763.8
       820.80000  2.25150e-09      99943.9
       820.90000  2.25150e-09      100146.
       821.00000  2.25150e-09      100372.
       821.10000  2.25150e-09      100327.
       821.20000  2.25150e-09      100304.
       821.30000  2.25795e-09      100547.
       821.40000  2.25795e-09      100524.
       821.50000  1.17917e-07  5.24733e+06
       821.60000  1.17917e-07  5.24615e+06
       821.70000  1.17917e-07  5.24497e+06
       821.80000  1.17917e-07  5.24261e+06
       821.90000  1.17917e-07  5.24143e+06
       822.00000  1.17917e-07  5.24025e+06
       822.10000  1.17917e-07  5.24025e+06
       822.20000  1.17917e-07  5.23907e+06
       822.30000  1.17917e-07  5.23789e+06
       822.40000  1.17917e-07  5.23789e+06
       822.50000  7.08696e-08  3.14732e+06
       822.60000  7.08696e-08  3.14732e+06
       822.70000  7.08696e-08  3.14661e+06
       822.80000  7.08696e-08  3.14661e+06
       822.90000  7.08696e-08  3.14661e+06
       823.00000  7.08696e-08  3.14661e+06
       823.10000  7.08696e-08  3.14661e+06
       823.20000  7.08696e-08  3.14661e+06
       823.30000  7.08696e-08  3.14661e+06
       823.40000  7.08696e-08  3.14661e+06
       823.50000  6.14366e-08  2.72840e+06
       823.60000  6.14366e-08  2.72840e+06
       823.70000  6.14366e-08  2.72901e+06
       823.80000  6.16042e-08  2.73646e+06
       823.90000  6.16042e-08  2.73707e+06
       824.00000  6.16042e-08  2.73769e+06
       824.10000  6.16042e-08  2.73831e+06
       824.20000  6.16042e-08  2.73892e+06
       824.30000  6.16042e-08  2.73954e+06
       824.40000  6.16042e-08  2.74077e+06
       824.50000  4.73750e-08  2.10819e+06
       824.60000  4.73750e-08  2.10914e+06
       824.70000  4.73750e-08  2.10961e+06
       824.80000  4.73750e-08  2.11056e+06
       824.90000  4.73750e-08  2.11151e+06
       825.00000  4.73750e-08  2.11245e+06
       825.10000  4.73750e-08  2.11340e+06
       825.20000  4.73750e-08  2.11435e+06
       825.30000  4.73750e-08  2.11577e+06
       825.40000  4.73750e-08  2.11672e+06
       825.50000  7.36134e-08  3.29126e+06
       825.60000  7.36134e-08  3.29273e+06
       825.70000  7.36134e-08  3.29494e+06
       825.80000  7.36134e-08  3.29715e+06
       825.90000  7.36134e-08  3.29935e+06
       826.00000  7.36134e-08  3.30156e+06
       826.10000  7.36134e-08  3.30377e+06
       826.20000  7.36134e-08  3.30524e+06
       826.30000  7.36624e-08  3.30965e+06
       826.40000  7.36624e-08  3.31112e+06
       826.50000  2.13746e-08      961000.
       826.60000  2.13746e-08      961428.
       826.70000  2.13746e-08      961855.
       826.80000  2.13746e-08      962069.
       826.90000  2.13746e-08      962282.
       827.00000  2.13746e-08      962496.
       827.10000  2.13746e-08      962496.
       827.20000  2.13746e-08      962710.
       827.30000  2.13746e-08      962710.
       827.40000  2.13746e-08      962710.
       827.50000  9.27057e-08  4.17546e+06
       827.60000  9.27057e-08  4.17546e+06
       827.70000  9.27057e-08  4.17454e+06
       827.80000  9.27057e-08  4.17361e+06
       827.90000  9.27057e-08  4.17268e+06
       828.00000  9.27057e-08  4.17175e+06
       828.10000  9.27057e-08  4.16897e+06
       828.20000  9.27057e-08  4.16527e+06
       828.30000  9.27057e-08  4.16156e+06
       828.40000  9.27057e-08  4.15785e+06
       828.50000  3.55994e-08  1.59556e+06
       828.60000  3.55994e-08  1.59414e+06
       828.70000  3.55994e-08  1.59307e+06
       828.80000  3.55705e-08  1.59071e+06
       828.90000  3.55705e-08  1.58929e+06
       829.00000  3.55705e-08  1.58822e+06
       829.10000  3.55705e-08  1.58716e+06
       829.20000  3.55705e-08  1.58609e+06
       829.30000  3.55705e-08  1.58502e+06
       829.40000  3.55705e-08  1.58395e+06
       829.50000  9.50072e-08  4.22782e+06
       829.60000  9.50072e-08  4.22497e+06
       829.70000  9.50072e-08  4.22212e+06
       829.80000  9.50072e-08  4.21927e+06
       829.90000  9.50072e-08  4.21737e+06
       830.00000  9.50072e-08  4.21452e+06
       830.10000  9.50072e-08  4.21262e+06
       830.20000  9.50072e-08  4.20977e+06
       830.30000  9.50072e-08  4.20787e+06
       830.40000  9.50072e-08  4.20502e+06
       830.50000  5.70969e-08  2.52597e+06
       830.60000  5.70969e-08  2.52482e+06
       830.70000  5.70969e-08  2.52311e+06
       830.80000  5.70969e-08  2.52197e+06
       830.90000  5.70969e-08  2.52083e+06
       831.00000  5.70969e-08  2.51968e+06
       831.10000  5.70969e-08  2.51854e+06
       831.20000  5.70969e-08  2.51740e+06
       831.30000  5.72517e-08  2.52365e+06
       831.40000  5.72517e-08  2.52251e+06
       831.50000  7.24455e-08  3.19050e+06
       831.60000  7.24455e-08  3.18978e+06
       831.70000  7.24455e-08  3.18833e+06
       831.80000  7.24455e-08  3.18688e+06
       831.90000  7.24455e-08  3.18615e+06
       832.00000  7.24455e-08  3.18543e+06
       832.10000  7.24455e-08  3.18253e+06
       832.20000  7.24455e-08  3.17963e+06
       832.30000  7.24455e-08  3.17746e+06
       832.40000  7.24455e-08  3.17529e+06
       832.50000  7.97648e-08  3.49370e+06
       832.60000  7.97648e-08  3.49210e+06
       832.70000  7.97648e-08  3.49051e+06
       832.80000  7.97648e-08  3.48811e+06
       832.90000  7.97648e-08  3.48732e+06
       833.00000  7.97648e-08  3.48572e+06
       833.10000  7.97648e-08  3.48413e+06
       833.20000  7.97648e-08  3.48333e+06
       833.30000  7.97648e-08  3.48253e+06
       833.40000  7.97648e-08  3.48173e+06
       833.50000  1.02273e-07  4.46423e+06
       833.60000  1.02273e-07  4.46321e+06
       833.70000  1.02273e-07  4.46321e+06
       833.80000  1.02380e-07  4.46786e+06
       833.90000  1.02380e-07  4.46889e+06
       834.00000  1.02380e-07  4.46889e+06
       834.10000  1.02380e-07  4.47401e+06
       834.20000  1.02380e-07  4.47810e+06
       834.30000  1.02380e-07  4.48322e+06
       834.40000  1.02380e-07  4.48732e+06
       834.50000  9.12736e-08  4.00417e+06
       834.60000  9.12736e-08  4.00782e+06
       834.70000  9.12736e-08  4.01056e+06
       834.80000  9.12736e-08  4.01330e+06
       834.90000  9.12736e-08  4.01695e+06
       835.00000  9.12736e-08  4.01969e+06
       835.10000  9.12736e-08  4.02151e+06
       835.20000  9.12736e-08  4.02425e+06
       835.30000  9.12736e-08  4.02608e+06
       835.40000  9.12736e-08  4.02790e+06
       835.50000  8.03858e-08  3.54903e+06
       835.60000  8.03858e-08  3.55064e+06
       835.70000  8.03858e-08  3.55145e+06
       835.80000  8.03858e-08  3.55305e+06
       835.90000  8.03858e-08  3.55386e+06
       836.00000  8.03858e-08  3.55466e+06
       836.10000  8.03858e-08  3.55305e+06
       836.20000  8.03858e-08  3.55225e+06
       836.30000  8.03494e-08  3.54903e+06
       836.40000  8.03494e-08  3.54823e+06
       836.50000  1.10036e-07  4.85809e+06
       836.60000  1.10036e-07  4.85589e+06
       836.70000  1.10036e-07  4.85479e+06
       836.80000  1.10036e-07  4.85369e+06
       836.90000  1.10036e-07  4.85149e+06
       837.00000  1.10036e-07  4.85039e+06
       837.10000  1.10036e-07  4.84929e+06
       837.20000  1.10036e-07  4.84819e+06
       837.30000  1.10036e-07  4.84709e+06
       837.40000  1.10036e-07  4.84599e+06
       837.50000  1.19268e-07  5.25138e+06
       837.60000  1.19268e-07  5.25019e+06
       837.70000  1.19268e-07  5.24900e+06
       837.80000  1.19268e-07  5.24781e+06
       837.90000  1.19268e-07  5.24781e+06
       838.00000  1.19268e-07  5.24661e+06
       838.10000  1.19268e-07  5.24542e+06
       838.20000  1.19268e-07  5.24542e+06
       838.30000  1.19268e-07  5.24542e+06
       838.40000  1.19268e-07  5.24542e+06
       838.50000  1.00058e-07  4.39955e+06
       838.60000  1.00058e-07  4.39955e+06
       838.70000  1.00058e-07  4.39955e+06
       838.80000  9.97555e-08  4.38525e+06
       838.90000  9.97555e-08  4.38525e+06
       839.00000  9.97555e-08  4.38525e+06
       839.10000  9.97555e-08  4.38425e+06
       839.20000  9.97555e-08  4.38425e+06
       839.30000  9.97555e-08  4.38425e+06
       839.40000  9.97555e-08  4.38326e+06
       839.50000  9.83645e-08  4.32214e+06
       839.60000  9.83645e-08  4.32214e+06
       839.70000  9.83645e-08  4.32115e+06
       839.80000  9.83645e-08  4.32115e+06
       839.90000  9.83645e-08  4.32115e+06
       840.00000  9.83645e-08  4.32017e+06
       840.10000  9.83645e-08  4.32017e+06
       840.20000  9.83645e-08  4.32017e+06
       840.30000  9.83645e-08  4.31918e+06
       840.40000  9.83645e-08  4.31918e+06
       840.50000  9.28503e-08  4.07706e+06
       840.60000  9.28503e-08  4.07613e+06
       840.70000  9.28503e-08  4.07613e+06
       840.80000  9.28503e-08  4.07613e+06
       840.90000  9.28503e-08  4.07520e+06
       841.00000  9.28503e-08  4.07520e+06
       841.10000  9.28503e-08  4.07520e+06
       841.20000  9.28503e-08  4.07520e+06
       841.30000  9.28453e-08  4.07405e+06
       841.40000  9.28453e-08  4.07405e+06
       841.50000  1.25390e-07  5.50211e+06
       841.60000  1.25390e-07  5.50085e+06
       841.70000  1.25390e-07  5.50085e+06
       841.80000  1.25390e-07  5.50085e+06
       841.90000  1.25390e-07  5.49960e+06
       842.00000  1.25390e-07  5.49960e+06
       842.10000  1.25390e-07  5.49458e+06
       842.20000  1.25390e-07  5.49082e+06
       842.30000  1.25390e-07  5.48706e+06
       842.40000  1.25390e-07  5.48204e+06
       842.50000  5.78146e-08  2.52592e+06
       842.60000  5.78146e-08  2.52476e+06
       842.70000  5.78146e-08  2.52303e+06
       842.80000  5.78146e-08  2.52187e+06
       842.90000  5.78146e-08  2.52014e+06
       843.00000  5.78146e-08  2.51898e+06
       843.10000  5.78146e-08  2.51782e+06
       843.20000  5.78146e-08  2.51667e+06
       843.30000  5.78146e-08  2.51609e+06
       843.40000  5.78146e-08  2.51493e+06
       843.50000  6.46864e-08  2.81321e+06
       843.60000  6.46864e-08  2.81257e+06
       843.70000  6.46864e-08  2.81192e+06
       843.80000  6.47797e-08  2.81533e+06
       843.90000  6.47797e-08  2.81533e+06
       844.00000  6.47797e-08  2.81468e+06
       844.10000  6.47797e-08  2.81662e+06
       844.20000  6.47797e-08  2.81792e+06
       844.30000  6.47797e-08  2.81921e+06
       844.40000  6.47797e-08  2.82051e+06
       844.50000  1.00346e-07  4.37107e+06
       844.60000  1.00346e-07  4.37308e+06
       844.70000  1.00346e-07  4.37409e+06
       844.80000  1.00346e-07  4.37609e+06
       844.90000  1.00346e-07  4.37710e+06
       845.00000  1.00346e-07  4.37910e+06
       845.10000  1.00346e-07  4.38011e+06
       845.20000  1.00346e-07  4.38111e+06
       845.30000  1.00346e-07  4.38312e+06
       845.40000  1.00346e-07  4.38412e+06
       845.50000  7.06966e-08  3.08873e+06
       845.60000  7.06966e-08  3.08944e+06
       845.70000  7.06966e-08  3.09015e+06
       845.80000  7.06966e-08  3.09085e+06
       845.90000  7.06966e-08  3.09085e+06
       846.00000  7.06966e-08  3.09156e+06
       846.10000  7.06966e-08  3.09156e+06
       846.20000  7.06966e-08  3.09156e+06
       846.30000  7.08826e-08  3.09970e+06
       846.40000  7.08826e-08  3.10041e+06
       846.50000  6.80941e-08  2.97844e+06
       846.60000  6.80941e-08  2.97775e+06
       846.70000  6.80941e-08  2.97775e+06
       846.80000  6.80941e-08  2.97775e+06
       846.90000  6.80941e-08  2.97707e+06
       847.00000  6.80941e-08  2.97707e+06
       847.10000  6.80941e-08  2.97639e+06
       847.20000  6.80941e-08  2.97639e+06
       847.30000  6.80941e-08  2.97571e+06
       847.40000  6.80941e-08  2.97503e+06
       847.50000  5.85001e-08  2.55528e+06
       847.60000  5.85001e-08  2.55470e+06
       847.70000  5.85001e-08  2.55411e+06
       847.80000  5.85001e-08  2.55353e+06
       847.90000  5.85001e-08  2.55236e+06
       848.00000  5.85001e-08  2.55177e+06
       848.10000  5.85001e-08  2.53949e+06
       848.20000  5.85001e-08  2.52837e+06
       848.30000  5.85001e-08  2.51726e+06
       848.40000  5.85001e-08  2.50673e+06
       848.50000  8.40272e-08  3.58628e+06
       848.60000  8.40272e-08  3.57368e+06
       848.70000  8.40272e-08  3.56107e+06
       848.80000  8.43479e-08  3.56286e+06
       848.90000  8.43479e-08  3.55189e+06
       849.00000  8.43479e-08  3.54177e+06
       849.10000  8.43479e-08  3.53165e+06
       849.20000  8.43479e-08  3.52321e+06
       849.30000  8.43479e-08  3.51562e+06
       849.40000  8.43479e-08  3.50803e+06
       849.50000  8.29180e-08  3.44276e+06
       849.60000  8.29180e-08  3.43695e+06
       849.70000  8.29180e-08  3.43280e+06
       849.80000  8.29180e-08  3.42866e+06
       849.90000  8.29180e-08  3.42534e+06
       850.00000  8.29180e-08  3.42285e+06
       850.10000  8.29180e-08  3.44110e+06
       850.20000  8.29180e-08  3.45851e+06
       850.30000  8.29180e-08  3.47426e+06
       850.40000  8.29180e-08  3.48836e+06
       850.50000  8.20777e-08  3.46614e+06
       850.60000  8.20777e-08  3.47763e+06
       850.70000  8.20777e-08  3.48748e+06
       850.80000  8.20777e-08  3.49651e+06
       850.90000  8.20777e-08  3.50390e+06
       851.00000  8.20777e-08  3.51046e+06
       851.10000  8.20777e-08  3.51539e+06
       851.20000  8.20777e-08  3.51949e+06
       851.30000  8.21646e-08  3.52568e+06
       851.40000  8.21646e-08  3.52650e+06
       851.50000  8.14592e-08  3.49623e+06
       851.60000  8.14592e-08  3.49460e+06
       851.70000  8.14592e-08  3.49216e+06
       851.80000  8.14592e-08  3.48808e+06
       851.90000  8.14592e-08  3.48238e+06
       852.00000  8.14592e-08  3.47587e+06
       852.10000  8.14592e-08  3.46772e+06
       852.20000  8.14592e-08  3.45876e+06
       852.30000  8.14592e-08  3.44817e+06
       852.40000  8.14592e-08  3.43676e+06
       852.50000  8.07896e-08  3.39478e+06
       852.60000  8.07896e-08  3.38105e+06
       852.70000  8.07896e-08  3.36489e+06
       852.80000  8.07896e-08  3.34873e+06
       852.90000  8.07896e-08  3.33015e+06
       853.00000  8.07896e-08  3.31076e+06
       853.10000  8.07896e-08  3.28975e+06
       853.20000  8.07896e-08  3.26794e+06
       853.30000  8.07896e-08  3.24451e+06
       853.40000  8.07896e-08  3.22028e+06
       853.50000  8.01562e-08  3.16938e+06
       853.60000  8.01562e-08  3.14212e+06
       853.70000  8.01562e-08  3.11407e+06
       853.80000  8.02633e-08  3.08853e+06
       853.90000  8.02633e-08  3.05803e+06
       854.00000  8.02633e-08  3.02593e+06
       854.10000  8.02633e-08  3.04840e+06
       854.20000  8.02633e-08  3.07087e+06
       854.30000  8.02633e-08  3.09255e+06
       854.40000  8.02633e-08  3.11341e+06
       854.50000  7.97454e-08  3.11326e+06
       854.60000  7.97454e-08  3.13320e+06
       854.70000  7.97454e-08  3.15234e+06
       854.80000  7.97454e-08  3.17068e+06
       854.90000  7.97454e-08  3.18902e+06
       855.00000  7.97454e-08  3.20656e+06
       855.10000  7.97454e-08  3.22331e+06
       855.20000  7.97454e-08  3.23926e+06
       855.30000  7.97454e-08  3.25521e+06
       855.40000  7.97454e-08  3.26956e+06
       855.50000  7.91014e-08  3.25819e+06
       855.60000  7.91014e-08  3.27163e+06
       855.70000  7.91014e-08  3.28508e+06
       855.80000  7.91014e-08  3.29774e+06
       855.90000  7.91014e-08  3.30960e+06
       856.00000  7.91014e-08  3.32068e+06
       856.10000  7.91014e-08  3.32938e+06
       856.20000  7.91014e-08  3.33729e+06
       856.30000  7.91903e-08  3.34896e+06
       856.40000  7.91903e-08  3.35688e+06
       856.50000  7.86243e-08  3.33996e+06
       856.60000  7.86243e-08  3.34704e+06
       856.70000  7.86243e-08  3.35333e+06
       856.80000  7.86243e-08  3.35962e+06
       856.90000  7.86243e-08  3.36512e+06
       857.00000  7.86243e-08  3.37062e+06
       857.10000  7.86243e-08  3.37613e+06
       857.20000  7.86243e-08  3.38085e+06
       857.30000  7.86243e-08  3.38556e+06
       857.40000  7.86243e-08  3.38949e+06
       857.50000  7.79391e-08  3.36385e+06
       857.60000  7.79391e-08  3.36775e+06
       857.70000  7.79391e-08  3.37086e+06
       857.80000  7.79391e-08  3.37398e+06
       857.90000  7.79391e-08  3.37632e+06
       858.00000  7.79391e-08  3.37944e+06
       858.10000  7.79391e-08  3.38100e+06
       858.20000  7.79391e-08  3.38256e+06
       858.30000  7.79391e-08  3.38411e+06
       858.40000  7.79391e-08  3.38489e+06
       858.50000  7.73780e-08  3.36130e+06
       858.60000  7.73780e-08  3.36208e+06
       858.70000  7.73780e-08  3.36208e+06
       858.80000  7.76122e-08  3.37225e+06
       858.90000  7.76122e-08  3.37147e+06
       859.00000  7.76122e-08  3.37070e+06
       859.10000  7.76122e-08  3.36992e+06
       859.20000  7.76122e-08  3.36837e+06
       859.30000  7.76122e-08  3.36682e+06
       859.40000  7.76122e-08  3.36449e+06
       859.50000  7.70510e-08  3.33785e+06
       859.60000  7.70510e-08  3.33554e+06
       859.70000  7.70510e-08  3.33245e+06
       859.80000  7.70510e-08  3.32860e+06
       859.90000  7.70510e-08  3.32552e+06
       860.00000  7.70510e-08  3.32167e+06
       860.10000  7.70510e-08  3.32090e+06
       860.20000  7.70510e-08  3.32013e+06
       860.30000  7.70510e-08  3.32013e+06
       860.40000  7.70510e-08  3.32013e+06
       860.50000  7.64534e-08  3.29361e+06
       860.60000  7.64534e-08  3.29361e+06
       860.70000  7.64534e-08  3.29361e+06
       860.80000  7.64534e-08  3.29361e+06
       860.90000  7.64534e-08  3.29361e+06
       861.00000  7.64534e-08  3.29361e+06
       861.10000  7.64534e-08  3.29361e+06
       861.20000  7.64534e-08  3.29361e+06
       861.30000  7.67048e-08  3.30444e+06
       861.40000  7.67048e-08  3.30521e+06
       861.50000  7.60087e-08  3.27522e+06
       861.60000  7.60087e-08  3.27522e+06
       861.70000  7.60087e-08  3.27598e+06
       861.80000  7.60087e-08  3.27674e+06
       861.90000  7.60087e-08  3.27674e+06
       862.00000  7.60087e-08  3.27750e+06
       862.10000  7.60087e-08  3.28814e+06
       862.20000  7.60087e-08  3.29726e+06
       862.30000  7.60087e-08  3.30562e+06
       862.40000  7.60087e-08  3.31322e+06
       862.50000  7.54903e-08  3.29666e+06
       862.60000  7.54903e-08  3.30195e+06
       862.70000  7.54903e-08  3.30648e+06
       862.80000  7.54903e-08  3.31025e+06
       862.90000  7.54903e-08  3.31252e+06
       863.00000  7.54903e-08  3.31403e+06
       863.10000  7.54903e-08  3.31478e+06
       863.20000  7.54903e-08  3.31478e+06
       863.30000  7.54903e-08  3.31327e+06
       863.40000  7.54903e-08  3.31101e+06
       863.50000  7.48652e-08  3.28059e+06
       863.60000  7.48652e-08  3.27610e+06
       863.70000  7.48652e-08  3.27086e+06
       863.80000  7.50747e-08  3.27401e+06
       863.90000  7.50747e-08  3.26725e+06
       864.00000  7.50747e-08  3.25899e+06
       864.10000  7.50747e-08  3.24998e+06
       864.20000  7.50747e-08  3.24022e+06
       864.30000  7.50747e-08  3.22896e+06
       864.40000  7.50747e-08  3.21770e+06
       864.50000  7.44453e-08  3.17732e+06
       864.60000  7.44453e-08  3.16392e+06
       864.70000  7.44453e-08  3.14903e+06
       864.80000  7.44453e-08  3.13415e+06
       864.90000  7.44453e-08  3.11702e+06
       865.00000  7.44453e-08  3.09990e+06
       865.10000  7.44453e-08  3.08129e+06
       865.20000  7.44453e-08  3.06193e+06
       865.30000  7.44453e-08  3.04183e+06
       865.40000  7.44453e-08  3.02024e+06
       865.50000  7.38411e-08  2.97358e+06
       865.60000  7.38411e-08  2.95069e+06
       865.70000  7.38411e-08  2.92706e+06
       865.80000  7.38411e-08  2.90196e+06
       865.90000  7.38411e-08  2.87611e+06
       866.00000  7.38411e-08  2.84953e+06
       866.10000  7.38411e-08  2.85987e+06
       866.20000  7.38411e-08  2.86947e+06
       866.30000  7.40594e-08  2.88832e+06
       866.40000  7.40594e-08  2.89794e+06
       866.50000  7.34632e-08  2.88416e+06
       866.60000  7.34632e-08  2.89371e+06
       866.70000  7.34632e-08  2.90326e+06
       866.80000  7.34632e-08  2.91282e+06
       866.90000  7.34632e-08  2.92163e+06
       867.00000  7.34632e-08  2.93045e+06
       867.10000  7.34632e-08  2.93926e+06
       867.20000  7.34632e-08  2.94808e+06
       867.30000  7.34632e-08  2.95689e+06
       867.40000  7.34632e-08  2.96497e+06
       867.50000  7.28106e-08  2.94665e+06
       867.60000  7.28106e-08  2.95466e+06
       867.70000  7.28106e-08  2.96266e+06
       867.80000  7.28106e-08  2.97067e+06
       867.90000  7.28106e-08  2.97796e+06
       868.00000  7.28106e-08  2.98524e+06
       868.10000  7.28106e-08  2.99325e+06
       868.20000  7.28106e-08  3.00125e+06
       868.30000  7.28106e-08  3.00854e+06
       868.40000  7.28106e-08  3.01582e+06
       868.50000  7.22667e-08  3.00051e+06
       868.60000  7.22667e-08  3.00702e+06
       868.70000  7.22667e-08  3.01424e+06
       868.80000  7.24477e-08  3.02759e+06
       868.90000  7.24477e-08  3.03411e+06
       869.00000  7.24477e-08  3.03991e+06
       869.10000  7.24477e-08  3.04570e+06
       869.20000  7.24477e-08  3.05150e+06
       869.30000  7.24477e-08  3.05729e+06
       869.40000  7.24477e-08  3.06236e+06
       869.50000  7.18064e-08  3.04028e+06
       869.60000  7.18064e-08  3.04459e+06
       869.70000  7.18064e-08  3.04890e+06
       869.80000  7.18064e-08  3.05321e+06
       869.90000  7.18064e-08  3.05751e+06
       870.00000  7.18064e-08  3.06182e+06
       870.10000  7.18064e-08  3.06541e+06
       870.20000  7.18064e-08  3.06900e+06
       870.30000  7.18064e-08  3.07188e+06
       870.40000  7.18064e-08  3.07475e+06
       870.50000  7.12474e-08  3.05367e+06
       870.60000  7.12474e-08  3.05652e+06
       870.70000  7.12474e-08  3.05865e+06
       870.80000  7.12474e-08  3.06150e+06
       870.90000  7.12474e-08  3.06293e+06
       871.00000  7.12474e-08  3.06507e+06
       871.10000  7.12474e-08  3.06649e+06
       871.20000  7.12474e-08  3.06792e+06
       871.30000  7.16617e-08  3.08719e+06
       871.40000  7.16617e-08  3.08790e+06
       871.50000  7.10108e-08  3.06056e+06
       871.60000  7.10108e-08  3.06128e+06
       871.70000  7.10108e-08  3.06128e+06
       871.80000  7.10108e-08  3.06199e+06
       871.90000  7.10108e-08  3.06128e+06
       872.00000  7.10108e-08  3.06128e+06
       872.10000  7.10108e-08  3.05914e+06
       872.20000  7.10108e-08  3.05772e+06
       872.30000  7.10108e-08  3.05559e+06
       872.40000  7.10108e-08  3.05417e+06
       872.50000  7.03977e-08  3.02569e+06
       872.60000  7.03977e-08  3.02428e+06
       872.70000  7.03977e-08  3.02288e+06
       872.80000  7.03977e-08  3.02147e+06
       872.90000  7.03977e-08  3.01936e+06
       873.00000  7.03977e-08  3.01795e+06
       873.10000  7.03977e-08  3.01654e+06
       873.20000  7.03977e-08  3.01513e+06
       873.30000  7.03977e-08  3.01372e+06
       873.40000  7.03977e-08  3.01232e+06
       873.50000  6.97595e-08  2.98361e+06
       873.60000  6.97595e-08  2.98222e+06
       873.70000  6.97595e-08  2.98082e+06
       873.80000  7.01279e-08  2.99586e+06
       873.90000  7.01279e-08  2.99446e+06
       874.00000  7.01279e-08  2.99306e+06
       874.10000  7.01279e-08  2.99096e+06
       874.20000  7.01279e-08  2.98885e+06
       874.30000  7.01279e-08  2.98745e+06
       874.40000  7.01279e-08  2.98534e+06
       874.50000  6.94697e-08  2.95594e+06
       874.60000  6.94697e-08  2.95455e+06
       874.70000  6.94697e-08  2.95316e+06
       874.80000  6.94697e-08  2.95246e+06
       874.90000  6.94697e-08  2.95107e+06
       875.00000  6.94697e-08  2.95038e+06
       875.10000  6.94697e-08  2.94968e+06
       875.20000  6.94697e-08  2.94899e+06
       875.30000  6.94697e-08  2.94899e+06
       875.40000  6.94697e-08  2.94829e+06
       875.50000  6.88706e-08  2.92287e+06
       875.60000  6.88706e-08  2.92287e+06
       875.70000  6.88706e-08  2.92287e+06
       875.80000  6.88706e-08  2.92356e+06
       875.90000  6.88706e-08  2.92356e+06
       876.00000  6.88706e-08  2.92425e+06
       876.10000  6.88706e-08  2.92494e+06
       876.20000  6.88706e-08  2.92562e+06
       876.30000  6.92335e-08  2.94173e+06
       876.40000  6.92335e-08  2.94312e+06
       876.50000  6.86244e-08  2.91860e+06
       876.60000  6.86244e-08  2.91997e+06
       876.70000  6.86244e-08  2.92134e+06
       876.80000  6.86244e-08  2.92271e+06
       876.90000  6.86244e-08  2.92477e+06
       877.00000  6.86244e-08  2.92683e+06
       877.10000  6.86244e-08  2.92889e+06
       877.20000  6.86244e-08  2.93095e+06
       877.30000  6.86244e-08  2.93301e+06
       877.40000  6.86244e-08  2.93575e+06
       877.50000  6.80380e-08  2.91339e+06
       877.60000  6.80380e-08  2.91611e+06
       877.70000  6.80380e-08  2.91883e+06
       877.80000  6.80380e-08  2.92155e+06
       877.90000  6.80380e-08  2.92495e+06
       878.00000  6.80380e-08  2.92835e+06
       878.10000  6.80380e-08  2.92427e+06
       878.20000  6.80380e-08  2.92087e+06
       878.30000  6.80380e-08  2.91747e+06
       878.40000  6.80380e-08  2.91407e+06
       878.50000  6.73954e-08  2.88318e+06
       878.60000  6.73954e-08  2.88048e+06
       878.70000  6.73954e-08  2.87711e+06
       878.80000  6.76979e-08  2.88732e+06
       878.90000  6.76979e-08  2.88461e+06
       879.00000  6.76979e-08  2.88190e+06
       879.10000  6.76979e-08  2.87919e+06
       879.20000  6.76979e-08  2.87716e+06
       879.30000  6.76979e-08  2.87445e+06
       879.40000  6.76979e-08  2.87242e+06
       879.50000  6.69933e-08  2.84052e+06
       879.60000  6.69933e-08  2.83851e+06
       879.70000  6.69933e-08  2.83650e+06
       879.80000  6.69933e-08  2.83516e+06
       879.90000  6.69933e-08  2.83315e+06
       880.00000  6.69933e-08  2.83181e+06
       880.10000  6.69933e-08  2.83114e+06
       880.20000  6.69933e-08  2.82980e+06
       880.30000  6.69933e-08  2.82913e+06
       880.40000  6.69933e-08  2.82779e+06
       880.50000  6.63969e-08  2.80195e+06
       880.60000  6.63969e-08  2.80129e+06
       880.70000  6.63969e-08  2.80062e+06
       880.80000  6.63969e-08  2.80062e+06
       880.90000  6.63969e-08  2.79996e+06
       881.00000  6.63969e-08  2.79929e+06
       881.10000  6.63969e-08  2.79929e+06
       881.20000  6.63969e-08  2.79929e+06
       881.30000  6.67949e-08  2.81607e+06
       881.40000  6.67949e-08  2.81541e+06
       881.50000  6.61833e-08  2.79029e+06
       881.60000  6.61833e-08  2.79029e+06
       881.70000  6.61833e-08  2.79029e+06
       881.80000  6.61833e-08  2.79095e+06
       881.90000  6.61833e-08  2.79095e+06
       882.00000  6.61833e-08  2.79161e+06
       882.10000  6.61833e-08  2.79492e+06
       882.20000  6.61833e-08  2.79757e+06
       882.30000  6.61833e-08  2.80022e+06
       882.40000  6.61833e-08  2.80286e+06
       882.50000  6.55481e-08  2.77858e+06
       882.60000  6.55481e-08  2.78055e+06
       882.70000  6.55481e-08  2.78252e+06
       882.80000  6.55481e-08  2.78448e+06
       882.90000  6.55481e-08  2.78579e+06
       883.00000  6.55481e-08  2.78711e+06
       883.10000  6.55481e-08  2.78842e+06
       883.20000  6.55481e-08  2.78973e+06
       883.30000  6.55481e-08  2.79038e+06
       883.40000  6.55481e-08  2.79104e+06
       883.50000  6.49002e-08  2.76410e+06
       883.60000  6.49002e-08  2.76410e+06
       883.70000  6.49002e-08  2.76410e+06
       883.80000  6.51366e-08  2.77417e+06
       883.90000  6.51366e-08  2.77352e+06
       884.00000  6.51366e-08  2.77287e+06
       884.10000  6.51366e-08  2.76896e+06
       884.20000  6.51366e-08  2.76505e+06
       884.30000  6.51366e-08  2.76114e+06
       884.40000  6.51366e-08  2.75723e+06
       884.50000  6.45067e-08  2.72670e+06
       884.60000  6.45067e-08  2.72347e+06
       884.70000  6.45067e-08  2.72025e+06
       884.80000  6.45067e-08  2.71767e+06
       884.90000  6.45067e-08  2.71444e+06
       885.00000  6.45067e-08  2.71186e+06
       885.10000  6.45067e-08  2.70993e+06
       885.20000  6.45067e-08  2.70735e+06
       885.30000  6.45067e-08  2.70541e+06
       885.40000  6.45067e-08  2.70348e+06
       885.50000  6.39060e-08  2.67702e+06
       885.60000  6.39060e-08  2.67510e+06
       885.70000  6.39060e-08  2.67383e+06
       885.80000  6.39060e-08  2.67319e+06
       885.90000  6.39060e-08  2.67191e+06
       886.00000  6.39060e-08  2.67127e+06
       886.10000  6.39060e-08  2.67063e+06
       886.20000  6.39060e-08  2.66999e+06
       886.30000  6.40679e-08  2.67676e+06
       886.40000  6.40679e-08  2.67676e+06
       886.50000  6.33702e-08  2.64761e+06
       886.60000  6.33702e-08  2.64824e+06
       886.70000  6.33702e-08  2.64887e+06
       886.80000  6.33702e-08  2.64951e+06
       886.90000  6.33702e-08  2.65014e+06
       887.00000  6.33702e-08  2.65141e+06
       887.10000  6.33702e-08  2.65268e+06
       887.20000  6.33702e-08  2.65394e+06
       887.30000  6.33702e-08  2.65521e+06
       887.40000  6.33702e-08  2.65711e+06
       887.50000  6.27554e-08  2.63322e+06
       887.60000  6.27554e-08  2.63573e+06
       887.70000  6.27554e-08  2.63761e+06
       887.80000  6.27554e-08  2.64012e+06
       887.90000  6.27554e-08  2.64326e+06
       888.00000  6.27554e-08  2.64577e+06
       888.10000  6.27554e-08  2.64890e+06
       888.20000  6.27554e-08  2.65141e+06
       888.30000  6.27554e-08  2.65455e+06
       888.40000  6.27554e-08  2.65706e+06
       888.50000  6.20960e-08  2.63163e+06
       888.60000  6.20960e-08  2.63349e+06
       888.70000  6.20960e-08  2.63535e+06
       888.80000  6.23587e-08  2.64837e+06
       888.90000  6.23587e-08  2.65024e+06
       889.00000  6.23587e-08  2.65211e+06
       889.10000  6.23587e-08  2.65336e+06
       889.20000  6.23587e-08  2.65461e+06
       889.30000  6.23587e-08  2.65586e+06
       889.40000  6.23587e-08  2.65648e+06
       889.50000  6.17269e-08  2.63080e+06
       889.60000  6.17269e-08  2.63142e+06
       889.70000  6.17269e-08  2.63203e+06
       889.80000  6.17269e-08  2.63203e+06
       889.90000  6.17269e-08  2.63203e+06
       890.00000  6.17269e-08  2.63203e+06
       890.10000  6.17269e-08  2.63018e+06
       890.20000  6.17269e-08  2.62833e+06
       890.30000  6.17269e-08  2.62648e+06
       890.40000  6.17269e-08  2.62463e+06
       890.50000  6.10878e-08  2.59562e+06
       890.60000  6.10878e-08  2.59379e+06
       890.70000  6.10878e-08  2.59195e+06
       890.80000  6.10878e-08  2.59012e+06
       890.90000  6.10878e-08  2.58829e+06
       891.00000  6.10878e-08  2.58707e+06
       891.10000  6.10878e-08  2.58523e+06
       891.20000  6.10878e-08  2.58401e+06
       891.30000  6.13843e-08  2.59471e+06
       891.40000  6.13843e-08  2.59349e+06
       891.50000  6.07271e-08  2.56451e+06
       891.60000  6.07271e-08  2.56329e+06
       891.70000  6.07271e-08  2.56208e+06
       891.80000  6.07271e-08  2.56086e+06
       891.90000  6.07271e-08  2.55965e+06
       892.00000  6.07271e-08  2.55843e+06
       892.10000  6.07271e-08  2.55722e+06
       892.20000  6.07271e-08  2.55661e+06
       892.30000  6.07271e-08  2.55540e+06
       892.40000  6.07271e-08  2.55479e+06
       892.50000  6.00603e-08  2.52553e+06
       892.60000  6.00603e-08  2.52493e+06
       892.70000  6.00603e-08  2.52433e+06
       892.80000  6.00603e-08  2.52373e+06
       892.90000  6.00603e-08  2.52313e+06
       893.00000  6.00603e-08  2.52253e+06
       893.10000  6.00603e-08  2.52193e+06
       893.20000  6.00603e-08  2.52133e+06
       893.30000  6.00603e-08  2.52073e+06
       893.40000  6.00603e-08  2.52073e+06
       893.50000  5.94147e-08  2.49304e+06
       893.60000  5.94147e-08  2.49304e+06
       893.70000  5.94147e-08  2.49245e+06
       893.80000  5.99323e-08  2.51416e+06
       893.90000  5.99323e-08  2.51416e+06
       894.00000  5.99323e-08  2.51416e+06
       894.10000  5.99323e-08  2.51596e+06
       894.20000  5.99323e-08  2.51716e+06
       894.30000  5.99323e-08  2.51896e+06
       894.40000  5.99323e-08  2.52015e+06
       894.50000  5.92664e-08  2.49393e+06
       894.60000  5.92664e-08  2.49511e+06
       894.70000  5.92664e-08  2.49630e+06
       894.80000  5.92664e-08  2.49749e+06
       894.90000  5.92664e-08  2.49867e+06
       895.00000  5.92664e-08  2.49986e+06
       895.10000  5.92664e-08  2.50045e+06
       895.20000  5.92664e-08  2.50163e+06
       895.30000  5.92664e-08  2.50223e+06
       895.40000  5.92664e-08  2.50282e+06
       895.50000  5.86338e-08  2.47728e+06
       895.60000  5.86338e-08  2.47786e+06
       895.70000  5.86338e-08  2.47845e+06
       895.80000  5.86338e-08  2.47845e+06
       895.90000  5.86338e-08  2.47904e+06
       896.00000  5.86338e-08  2.47962e+06
       896.10000  5.86338e-08  2.48021e+06
       896.20000  5.86338e-08  2.48021e+06
       896.30000  5.90342e-08  2.49774e+06
       896.40000  5.90342e-08  2.49774e+06
       896.50000  1.79804e-05  7.60751e+08
       896.60000  1.79804e-05  7.60751e+08
       896.70000  1.79804e-05  7.60751e+08
       896.80000  1.79804e-05  7.60751e+08
       896.90000  1.79804e-05  7.60751e+08
       897.00000  1.79804e-05  7.60572e+08
       897.10000  1.79804e-05  7.60572e+08
       897.20000  1.79804e-05  7.60392e+08
       897.30000  1.79804e-05  7.60212e+08
       897.40000  1.79804e-05  7.60032e+08
       897.50000  4.09993e-05  1.73222e+09
       897.60000  4.09993e-05  1.73181e+09
       897.70000  4.09993e-05  1.73099e+09
       897.80000  4.09993e-05  1.73058e+09
       897.90000  4.09993e-05  1.72976e+09
       898.00000  3.68994e-05  1.55605e+09
       898.10000  3.68994e-05  1.55494e+09
       898.20000  3.75827e-05  1.58298e+09
       898.30000  4.71492e-05  1.98498e+09
       898.40000  4.78325e-05  2.01231e+09
       898.50000  3.78519e-05  1.59130e+09
       898.60000  3.92038e-05  1.64695e+09
       898.70000  4.59631e-05  1.92953e+09
       898.80000  2.72306e-05  1.14232e+09
       898.90000  3.33575e-05  1.39801e+09
       899.00000  3.67613e-05  1.53956e+09
       899.10000  4.15267e-05  1.73748e+09
       899.20000  3.94844e-05  1.65045e+09
       899.30000  4.22074e-05  1.76258e+09
       899.40000  4.01652e-05  1.67569e+09
       899.50000  3.29748e-05  1.37439e+09
       899.60000  3.83585e-05  1.59686e+09
       899.70000  5.18176e-05  2.15509e+09
       899.80000  2.96100e-05  1.23000e+09
       899.90000  4.17232e-05  1.73110e+09
       900.00000  3.90314e-05  1.61746e+09
       900.10000  3.97044e-05  1.64058e+09
       900.20000  3.49937e-05  1.44244e+09
       900.30000  3.83585e-05  1.57692e+09
       900.40000  4.44151e-05  1.82191e+09
       900.50000  4.53018e-05  1.85420e+09
       900.60000  3.66411e-05  1.49679e+09
       900.70000  4.53018e-05  1.84695e+09
       900.80000  3.79735e-05  1.54590e+09
       900.90000  3.46425e-05  1.40822e+09
       901.00000  4.73004e-05  1.91992e+09
       901.10000  4.33032e-05  1.75594e+09
       901.20000  3.93060e-05  1.59228e+09
       901.30000  3.21080e-05  1.29941e+09
       901.40000  3.61215e-05  1.46111e+09
       901.50000  3.31100e-05  1.33864e+09
       901.60000  3.84076e-05  1.55244e+09
       901.70000  4.90028e-05  1.98020e+09
       901.80000  2.51636e-05  1.01686e+09
       901.90000  3.31100e-05  1.33831e+09
       902.00000  4.17186e-05  1.68710e+09
       902.10000  3.64210e-05  1.47797e+09
       902.20000  2.58258e-05  1.05137e+09
       902.30000  3.44344e-05  1.40630e+09
       902.40000  5.82736e-05  2.38689e+09
       902.50000  4.32616e-05  1.77719e+09
       902.60000  4.65390e-05  1.91694e+09
       902.70000  4.39171e-05  1.81378e+09
       902.80000  3.47404e-05  1.43825e+09
       902.90000  2.55637e-05  1.06089e+09
       903.00000  3.67068e-05  1.52664e+09
       903.10000  4.26062e-05  1.77582e+09
       903.20000  3.99842e-05  1.66974e+09
       903.30000  3.80178e-05  1.59028e+09
       903.40000  3.53959e-05  1.48309e+09
       903.50000  2.14152e-05  8.98583e+08
       903.60000  3.24473e-05  1.36344e+09
       903.70000  3.30963e-05  1.39269e+09
       903.80000  3.32716e-05  1.40140e+09
       903.90000  3.65335e-05  1.54062e+09
       904.00000  3.26192e-05  1.37653e+09
       904.10000  3.78383e-05  1.59791e+09
       904.20000  3.97954e-05  1.68176e+09
       904.30000  3.19668e-05  1.35156e+09
       904.40000  2.87049e-05  1.21393e+09
       904.50000  4.77837e-05  2.02125e+09
       904.60000  4.06807e-05  1.72120e+09
       904.70000  4.13264e-05  1.74852e+09
       904.80000  3.48692e-05  1.47497e+09
       904.90000  4.00350e-05  1.69308e+09
       905.00000  3.48692e-05  1.47392e+09
       905.10000  4.58465e-05  1.93701e+09
       905.20000  3.16405e-05  1.33586e+09
       905.30000  2.51833e-05  1.06248e+09
       905.40000  3.68063e-05  1.55139e+09
       905.50000  3.57886e-05  1.50670e+09
       905.60000  2.68414e-05  1.12868e+09
       905.70000  2.81196e-05  1.18102e+09
       905.80000  4.15403e-05  1.74220e+09
       905.90000  3.38714e-05  1.41819e+09
       906.00000  3.45104e-05  1.44254e+09
       906.10000  4.40967e-05  1.84148e+09
       906.20000  4.28185e-05  1.78682e+09
       906.30000  5.77828e-05  2.40954e+09
       906.40000  4.43002e-05  1.84554e+09
       906.50000  3.55769e-05  1.48107e+09
       906.60000  3.87534e-05  1.61214e+09
       906.70000  3.43063e-05  1.42611e+09
       906.80000  3.62122e-05  1.50425e+09
       906.90000  2.85886e-05  1.18671e+09
       907.00000  2.79533e-05  1.15950e+09
       907.10000  3.24004e-05  1.34300e+09
       907.20000  3.87534e-05  1.60517e+09
       907.30000  4.32005e-05  1.78807e+09
       907.40000  3.62122e-05  1.49774e+09
       907.50000  3.70809e-05  1.53255e+09
       907.60000  3.14245e-05  1.29814e+09
       907.70000  4.58797e-05  1.89391e+09
       907.80000  4.90222e-05  2.02216e+09
       907.90000  3.58239e-05  1.47702e+09
       908.00000  3.33099e-05  1.37237e+09
       908.10000  3.58239e-05  1.47451e+09
       908.20000  3.70809e-05  1.52514e+09
       908.30000  4.58797e-05  1.88520e+09
       908.40000  3.51954e-05  1.44512e+09
       908.50000  2.92311e-05  1.19935e+09
       908.60000  3.66944e-05  1.50447e+09
       908.70000  3.17189e-05  1.29984e+09
       908.80000  3.18280e-05  1.30336e+09
       908.90000  3.18280e-05  1.30272e+09
       909.00000  3.37002e-05  1.37868e+09
       909.10000  3.43243e-05  1.40352e+09
       909.20000  4.24373e-05  1.73441e+09
       909.30000  4.18132e-05  1.70807e+09
       909.40000  3.68206e-05  1.50375e+09
       909.50000  4.01196e-05  1.63808e+09
       909.60000  4.50574e-05  1.83924e+09
       909.70000  3.51818e-05  1.43577e+09
       909.80000  3.57990e-05  1.46060e+09
       909.90000  3.27129e-05  1.33469e+09
       910.00000  2.03684e-05  8.30827e+08
       910.10000  3.14784e-05  1.28401e+09
       910.20000  3.70335e-05  1.51059e+09
       910.30000  2.96268e-05  1.20877e+09
       910.40000  2.77751e-05  1.13322e+09
       910.50000  2.86999e-05  1.17124e+09
       910.60000  3.05318e-05  1.24600e+09
       910.70000  2.44255e-05  9.97048e+08
       910.80000  2.56467e-05  1.04741e+09
       910.90000  5.31254e-05  2.17017e+09
       911.00000  5.19041e-05  2.12080e+09
       911.10000  3.54169e-05  1.44784e+09
       911.20000  3.29744e-05  1.34865e+09
       911.30000  4.03394e-05  1.65069e+09
       911.40000  3.66722e-05  1.50136e+09
       911.50000  3.86690e-05  1.58427e+09
       911.60000  3.14186e-05  1.28785e+09
       911.70000  3.98775e-05  1.63577e+09
       911.80000  3.92733e-05  1.61217e+09
       911.90000  2.71892e-05  1.11693e+09
       912.00000  3.08144e-05  1.26709e+09
       912.10000  3.74606e-05  1.54225e+09
       912.20000  4.59195e-05  1.89234e+09
       912.30000  3.20228e-05  1.32094e+09
       912.40000  3.44396e-05  1.42201e+09
       912.50000  3.64480e-05  1.50640e+09
       912.60000  3.58505e-05  1.48314e+09
       912.70000  3.22655e-05  1.33611e+09
       912.80000  3.34605e-05  1.38660e+09
       912.90000  2.92779e-05  1.21416e+09
       913.00000  3.40580e-05  1.41341e+09
       913.10000  4.42157e-05  1.83628e+09
       913.20000  3.82406e-05  1.58890e+09
       913.30000  2.86804e-05  1.19253e+09
       913.40000  2.86804e-05  1.19311e+09
       913.50000  3.42648e-05  1.42610e+09
       913.60000  3.72187e-05  1.54979e+09
       913.70000  3.54464e-05  1.47634e+09
       913.80000  3.08841e-05  1.28663e+09
       913.90000  2.91023e-05  1.21298e+09
       914.00000  2.43509e-05  1.01519e+09
       914.10000  2.96962e-05  1.23744e+09
       914.20000  3.97929e-05  1.65777e+09
       914.30000  3.38537e-05  1.41001e+09
       914.40000  4.15747e-05  1.73117e+09
       914.50000  3.05446e-05  1.27157e+09
       914.60000  3.05446e-05  1.27096e+09
       914.70000  3.05446e-05  1.27065e+09
       914.80000  2.87824e-05  1.19706e+09
       914.90000  2.87824e-05  1.19677e+09
       915.00000  3.46563e-05  1.44066e+09
       915.10000  3.75933e-05  1.56238e+09
       915.20000  2.93698e-05  1.22031e+09
       915.30000  3.40689e-05  1.41522e+09
       915.40000  4.40547e-05  1.82959e+09
       915.50000  2.20534e-05  9.15656e+08
       915.60000  2.84372e-05  1.18043e+09
       915.70000  2.03123e-05  8.42961e+08
       915.80000  2.78569e-05  1.15578e+09
       915.90000  2.37944e-05  9.86993e+08
       916.00000  3.19194e-05  1.32370e+09
       916.10000  4.06246e-05  1.68430e+09
       916.20000  2.90176e-05  1.20278e+09
       916.30000  2.86401e-05  1.18685e+09
       916.40000  3.62385e-05  1.50136e+09
       916.50000  3.23505e-05  1.33996e+09
       916.60000  2.36851e-05  9.81039e+08
       916.70000  1.84860e-05  7.65504e+08
       916.80000  2.65736e-05  1.10015e+09
       916.90000  3.87050e-05  1.60200e+09
       917.00000  3.29281e-05  1.36257e+09
       917.10000  3.87050e-05  1.60161e+09
       917.20000  3.23505e-05  1.33834e+09
       917.30000  2.94620e-05  1.21855e+09
       917.40000  2.88843e-05  1.19437e+09
       917.50000  2.85399e-05  1.18013e+09
       917.60000  3.31063e-05  1.36862e+09
       917.70000  3.08231e-05  1.27392e+09
       917.80000  3.42479e-05  1.41547e+09
       917.90000  3.93851e-05  1.62739e+09
       918.00000  3.13939e-05  1.29688e+09
       918.10000  3.13939e-05  1.29751e+09
       918.20000  3.53895e-05  1.46336e+09
       918.30000  3.99559e-05  1.65298e+09
       918.40000  3.13939e-05  1.29908e+09
       918.50000  3.38424e-05  1.40074e+09
       918.60000  3.27143e-05  1.35437e+09
       918.70000  2.82020e-05  1.16756e+09
       918.80000  3.01723e-05  1.24913e+09
       918.90000  3.47266e-05  1.43768e+09
       919.00000  3.47266e-05  1.43768e+09
       919.10000  2.67565e-05  1.10745e+09
       919.20000  2.96030e-05  1.22497e+09
       919.30000  2.61872e-05  1.08337e+09
       919.40000  4.04194e-05  1.67134e+09
       919.50000  2.81097e-05  1.16178e+09
       919.60000  3.20451e-05  1.32378e+09
       919.70000  2.81097e-05  1.16065e+09
       919.80000  2.92341e-05  1.20620e+09
       919.90000  2.86719e-05  1.18243e+09
       920.00000  3.48561e-05  1.43642e+09
       920.10000  3.42939e-05  1.41016e+09
       920.20000  2.92341e-05  1.19977e+09
       920.30000  3.20451e-05  1.31257e+09
       920.40000  3.71048e-05  1.51685e+09
       920.50000  2.88739e-05  1.17805e+09
       920.60000  2.88739e-05  1.17603e+09
       920.70000  2.83186e-05  1.15143e+09
       920.80000  2.88739e-05  1.17228e+09
       920.90000  2.88739e-05  1.17026e+09
       921.00000  2.83186e-05  1.14605e+09
       921.10000  2.94291e-05  1.18923e+09
       921.20000  2.44317e-05  9.86064e+08
       921.30000  2.56479e-05  1.03361e+09
       921.40000  3.17810e-05  1.27919e+09
       921.50000  3.52404e-05  1.41666e+09
       921.60000  3.08353e-05  1.23835e+09
       921.70000  2.64303e-05  1.06038e+09
       921.80000  2.75315e-05  1.10346e+09
       921.90000  2.97341e-05  1.19055e+09
       922.00000  3.41391e-05  1.36591e+09
       922.10000  3.19366e-05  1.27651e+09
       922.20000  2.69809e-05  1.07789e+09
       922.30000  2.86328e-05  1.14302e+09
       922.40000  2.58796e-05  1.03260e+09
       922.50000  3.53462e-05  1.40925e+09
       922.60000  3.86089e-05  1.53895e+09
       922.70000  3.20835e-05  1.27821e+09
       922.80000  3.15397e-05  1.25623e+09
       922.90000  2.55580e-05  1.01772e+09
       923.00000  3.15397e-05  1.25560e+09
       923.10000  2.77332e-05  1.10406e+09
       923.20000  2.44705e-05  9.73924e+08
       923.30000  2.77332e-05  1.10378e+09
       923.40000  3.48024e-05  1.38548e+09
       923.50000  2.79144e-05  1.11127e+09
       923.60000  4.34820e-05  1.73145e+09
       923.70000  3.43561e-05  1.36840e+09
       923.80000  3.06678e-05  1.22211e+09
       923.90000  3.33580e-05  1.32965e+09
       924.00000  3.12058e-05  1.24449e+09
       924.10000  3.60481e-05  1.43760e+09
       924.20000  2.79776e-05  1.11575e+09
       924.30000  3.12058e-05  1.24449e+09
       924.40000  3.33580e-05  1.33032e+09
       924.50000  3.02671e-05  1.20705e+09
       924.60000  3.07981e-05  1.22823e+09
       924.70000  4.19491e-05  1.67335e+09
       924.80000  3.18601e-05  1.27122e+09
       924.90000  2.65501e-05  1.05935e+09
       925.00000  3.50461e-05  1.39869e+09
       925.10000  3.45151e-05  1.37819e+09
       925.20000  4.40731e-05  1.76028e+09
       925.30000  3.66391e-05  1.46373e+09
       925.40000  3.77011e-05  1.50691e+09
       925.50000  3.87668e-05  1.55029e+09
       925.60000  3.77191e-05  1.50914e+09
       925.70000  3.82430e-05  1.53087e+09
       925.80000  3.19564e-05  1.27986e+09
       925.90000  3.66713e-05  1.46942e+09
       926.00000  4.08623e-05  1.63858e+09
       926.10000  4.03385e-05  1.61999e+09
       926.20000  3.98146e-05  1.60174e+09
       926.30000  2.47243e-05  9.96142e+08
       926.40000  4.20839e-05  1.69809e+09
       926.50000  3.73781e-05  1.51045e+09
       926.60000  4.10121e-05  1.65935e+09
       926.70000  4.25695e-05  1.72449e+09
       926.80000  4.04929e-05  1.64239e+09
       926.90000  3.78972e-05  1.53901e+09
       927.00000  3.94547e-05  1.60383e+09
       927.10000  4.46461e-05  1.81665e+09
       927.20000  5.13949e-05  2.09331e+09
       927.30000  5.29523e-05  2.15834e+09
       927.40000  5.97011e-05  2.43521e+09
       927.50000  6.45302e-05  2.63412e+09
       927.60000  6.96517e-05  2.84457e+09
       927.70000  6.09452e-05  2.49083e+09
       927.80000  6.04331e-05  2.47111e+09
       927.90000  6.76031e-05  2.76497e+09
       928.00000  7.22124e-05  2.95421e+09
       928.10000  7.57974e-05  3.09936e+09
       928.20000  8.75767e-05  3.57926e+09
       928.30000  9.78196e-05  3.99495e+09
       928.40000  8.96253e-05  3.65851e+09
       928.50000  9.79758e-05  3.99741e+09
       928.60000  0.000107571  4.38676e+09
       928.70000  0.000118682  4.83748e+09
       928.80000  0.000120756  4.91959e+09
       928.90000  0.000128366  5.22708e+09
       929.00000  0.000147647  6.01070e+09
       929.10000  0.000154243  6.27613e+09
       929.20000  0.000172001  6.99527e+09
       929.30000  0.000196355  7.98379e+09
       929.40000  0.000215128  8.74280e+09
       929.50000  0.000228702  9.29218e+09
       929.60000  0.000249221  1.01233e+10
       929.70000  0.000277245  1.12562e+10
       929.80000  0.000317781  1.28987e+10
       929.90000  0.000342803  1.39110e+10
       930.00000  0.000364823  1.48009e+10
       930.10000  0.000430381  1.74606e+10
       930.20000  0.000496940  2.01608e+10
       930.30000  0.000552989  2.24292e+10
       930.40000  0.000602033  2.44184e+10
       930.50000  0.000662553  2.68732e+10
       930.60000  0.000793781  3.21958e+10
       930.70000  0.000900342  3.65089e+10
       930.80000  0.000988650  4.00897e+10
       930.90000   0.00112234  4.55111e+10
       931.00000   0.00133547  5.41532e+10
       931.10000   0.00154070  6.24752e+10
       931.20000   0.00172619  6.99798e+10
       931.30000   0.00192773  7.81504e+10
       931.40000   0.00228107  9.24746e+10
       931.50000   0.00268997  1.09051e+11
       931.60000   0.00294983  1.19586e+11
       931.70000   0.00329908  1.33745e+11
       931.80000   0.00375335  1.52161e+11
       931.90000   0.00444599  1.80241e+11
       932.00000   0.00498867  2.02241e+11
       932.10000   0.00550254  2.23073e+11
       932.20000   0.00623474  2.52757e+11
       932.30000   0.00729178  2.95609e+11
       932.40000   0.00828922  3.36045e+11
       932.50000   0.00886489  3.59383e+11
       932.60000   0.00986031  3.99737e+11
       932.70000    0.0111802  4.53243e+11
       932.80000    0.0127257  5.16029e+11
       932.90000    0.0136605  5.53934e+11
       933.00000    0.0146256  5.93068e+11
       933.10000    0.0162420  6.58611e+11
       933.20000    0.0184292  7.47303e+11
       933.30000    0.0194780  7.90029e+11
       933.40000    0.0206770  8.38661e+11
       933.50000    0.0216408  8.77751e+11
       933.60000    0.0235376  9.54921e+11
       933.70000    0.0251300  1.01952e+12
       933.80000    0.0264095  1.07143e+12
       933.90000    0.0274724  1.11483e+12
       934.00000    0.0291084  1.18122e+12
       934.10000    0.0307529  1.24703e+12
       934.20000    0.0315459  1.27824e+12
       934.30000    0.0324441  1.31366e+12
       934.40000    0.0336341  1.36084e+12
       934.50000    0.0343039  1.38691e+12
       934.60000    0.0349621  1.41282e+12
       934.70000    0.0355964  1.43774e+12
       934.80000    0.0362391  1.46261e+12
       934.90000    0.0370010  1.49262e+12
       935.00000    0.0374590  1.51072e+12
       935.10000    0.0377726  1.52261e+12
       935.20000    0.0381200  1.53586e+12
       935.30000    0.0384969  1.55066e+12
       935.40000    0.0388556  1.56471e+12
       935.50000    0.0384545  1.54818e+12
       935.60000    0.0386115  1.55411e+12
       935.70000    0.0388345  1.56270e+12
       935.80000    0.0390732  1.57191e+12
       935.90000    0.0391988  1.57697e+12
       936.00000    0.0393142  1.58122e+12
       936.10000    0.0394878  1.58938e+12
       936.20000    0.0396669  1.59778e+12
       936.30000    0.0399523  1.61048e+12
       936.40000    0.0400556  1.61584e+12
       936.50000    0.0395599  1.59664e+12
       936.60000    0.0397483  1.60503e+12
       936.70000    0.0398815  1.61121e+12
       936.80000    0.0399695  1.61557e+12
       936.90000    0.0400617  1.61969e+12
       937.00000    0.0401698  1.62487e+12
       937.10000    0.0402934  1.63027e+12
       937.20000    0.0403687  1.63372e+12
       937.30000    0.0404348  1.63640e+12
       937.40000    0.0404968  1.63931e+12
       937.50000    0.0399255  1.61618e+12
       937.60000    0.0399753  1.61820e+12
       937.70000    0.0400014  1.61926e+12
       937.80000    0.0400256  1.62024e+12
       937.90000    0.0400427  1.62053e+12
       938.00000    0.0400427  1.62053e+12
       938.10000    0.0400449  1.62022e+12
       938.20000    0.0400418  1.61929e+12
       938.30000    0.0399955  1.61702e+12
       938.40000    0.0399515  1.61444e+12
       938.50000    0.0393071  1.58801e+12
       938.60000    0.0392686  1.58567e+12
       938.70000    0.0392271  1.58281e+12
       938.80000    0.0392454  1.58277e+12
       938.90000    0.0391798  1.57895e+12
       939.00000    0.0391302  1.57616e+12
       939.10000    0.0390544  1.57194e+12
       939.20000    0.0389290  1.56534e+12
       939.30000    0.0388182  1.55972e+12
       939.40000    0.0387513  1.55548e+12
       939.50000    0.0380023  1.52389e+12
       939.60000    0.0378868  1.51775e+12
       939.70000    0.0377321  1.51004e+12
       939.80000    0.0376457  1.50508e+12
       939.90000    0.0375376  1.49888e+12
       940.00000    0.0373951  1.49132e+12
       940.10000    0.0372037  1.48108e+12
       940.20000    0.0370908  1.47399e+12
       940.30000    0.0369958  1.46799e+12
       940.40000    0.0368755  1.46101e+12
       940.50000    0.0360664  1.42679e+12
       940.60000    0.0358992  1.41838e+12
       940.70000    0.0357745  1.41166e+12
       940.80000    0.0356416  1.40463e+12
       940.90000    0.0354320  1.39460e+12
       941.00000    0.0351799  1.38328e+12
       941.10000    0.0350162  1.37544e+12
       941.20000    0.0348139  1.36645e+12
       941.30000    0.0345334  1.35440e+12
       941.40000    0.0341093  1.33675e+12
       941.50000    0.0332027  1.30022e+12
       941.60000    0.0328964  1.28756e+12
       941.70000    0.0324225  1.26837e+12
       941.80000    0.0316385  1.23707e+12
       941.90000    0.0310077  1.21178e+12
       942.00000    0.0304453  1.18950e+12
       942.10000    0.0298744  1.16809e+12
       942.20000    0.0288022  1.12674e+12
       942.30000    0.0275166  1.07727e+12
       942.40000    0.0267541  1.04796e+12
       942.50000    0.0255545  1.00148e+12
       942.60000    0.0242800  9.52262e+11
       942.70000    0.0226367  8.88262e+11
       942.80000    0.0215090  8.44444e+11
       942.90000    0.0204212  8.02145e+11
       943.00000    0.0191529  7.52710e+11
       943.10000    0.0174702  6.87102e+11
       943.20000    0.0160069  6.29871e+11
       943.30000    0.0150195  5.91317e+11
       943.40000    0.0138545  5.45728e+11
       943.50000    0.0120244  4.73883e+11
       943.60000    0.0105771  4.17056e+11
       943.70000   0.00987038  3.89387e+11
       943.80000   0.00899269  3.54941e+11
       943.90000   0.00784756  3.09900e+11
       944.00000   0.00668451  2.64105e+11
       944.10000   0.00600844  2.37514e+11
       944.20000   0.00545666  2.15811e+11
       944.30000   0.00484946  1.91845e+11
       944.40000   0.00403850  1.59844e+11
       944.50000   0.00342149  1.35491e+11
       944.60000   0.00306040  1.21253e+11
       944.70000   0.00272254  1.07894e+11
       944.80000   0.00229340  9.09333e+10
       944.90000   0.00191951  7.61468e+10
       945.00000   0.00172135  6.83032e+10
       945.10000   0.00155522  6.17423e+10
       945.20000   0.00131583  5.22649e+10
       945.30000   0.00109646  4.35624e+10
       945.40000  0.000996382  3.96062e+10
       945.50000  0.000880821  3.50214e+10
       945.60000  0.000782166  3.11145e+10
       945.70000  0.000659535  2.62429e+10
       945.80000  0.000589179  2.34552e+10
       945.90000  0.000540048  2.15047e+10
       946.00000  0.000488559  1.94593e+10
       946.10000  0.000424099  1.69003e+10
       946.20000  0.000363176  1.44798e+10
       946.30000  0.000334977  1.33622e+10
       946.40000  0.000312566  1.24745e+10
       946.50000  0.000276329  1.10338e+10
       946.60000  0.000236578  9.44892e+09
       946.70000  0.000221140  8.83677e+09
       946.80000  0.000209562  8.37621e+09
       946.90000  0.000184091  7.35995e+09
       947.00000  0.000161707  6.46826e+09
       947.10000  0.000153602  6.14561e+09
       947.20000  0.000138936  5.56024e+09
       947.30000  0.000133533  5.34534e+09
       947.40000  0.000117324  4.69766e+09
       947.50000  0.000109093  4.36807e+09
       947.60000  0.000104547  4.18711e+09
       947.70000  9.81076e-05  3.93019e+09
       947.80000  8.86378e-05  3.55083e+09
       947.90000  8.03043e-05  3.21779e+09
       948.00000  7.57588e-05  3.03565e+09
       948.10000  7.00769e-05  2.80798e+09
       948.20000  7.04557e-05  2.82316e+09
       948.30000  6.21222e-05  2.48862e+09
       948.40000  5.94706e-05  2.38239e+09
       948.50000  5.57184e-05  2.23152e+09
       948.60000  5.57184e-05  2.23152e+09
       948.70000  5.34896e-05  2.14226e+09
       948.80000  4.54583e-05  1.82015e+09
       948.90000  4.21048e-05  1.68588e+09
       949.00000  4.24774e-05  1.70037e+09
       949.10000  4.24774e-05  1.70037e+09
       949.20000  5.25379e-05  2.10257e+09
       949.30000  3.80061e-05  1.52100e+09
       949.40000  3.46526e-05  1.38645e+09
       949.50000  3.94652e-05  1.57900e+09
       949.60000  3.58110e-05  1.43244e+09
       949.70000  3.25223e-05  1.30057e+09
       949.80000  3.17914e-05  1.27134e+09
       949.90000  3.39839e-05  1.35868e+09
       950.00000  2.74064e-05  1.09543e+09
       950.10000  3.36185e-05  1.34373e+09
       950.20000  2.85027e-05  1.13897e+09
       950.30000  2.85027e-05  1.13868e+09
       950.40000  3.06952e-05  1.22627e+09
       950.50000  2.59800e-05  1.03764e+09
       950.60000  3.03100e-05  1.21028e+09
       950.70000  2.59800e-05  1.03712e+09
       950.80000  2.41758e-05  9.65099e+08
       950.90000  2.41758e-05  9.64857e+08
       951.00000  2.41758e-05  9.64616e+08
       951.10000  2.38150e-05  9.49980e+08
       951.20000  2.48975e-05  9.92912e+08
       951.30000  2.48738e-05  9.91966e+08
       951.40000  2.91996e-05  1.16419e+09
       951.50000  2.84952e-05  1.13582e+09
       951.60000  2.63580e-05  1.05037e+09
       951.70000  2.38647e-05  9.50769e+08
       951.80000  2.42209e-05  9.64718e+08
       951.90000  2.56456e-05  1.02121e+09
       952.00000  2.60018e-05  1.03513e+09
       952.10000  2.31523e-05  9.19841e+08
       952.20000  2.31523e-05  9.17989e+08
       952.30000  2.67142e-05  1.05735e+09
       952.40000  2.63580e-05  1.04141e+09
       952.50000  2.60523e-05  1.02750e+09
       952.60000  2.39399e-05  9.42514e+08
       952.70000  2.35879e-05  9.27238e+08
       952.80000  1.86590e-05  7.32368e+08
       952.90000  1.97152e-05  7.72639e+08
       953.00000  2.11234e-05  8.26772e+08
       953.10000  1.90111e-05  7.43144e+08
       953.20000  2.57002e-05  1.00334e+09
       953.30000  2.18276e-05  8.51275e+08
       953.40000  2.14755e-05  8.36471e+08
       953.50000  2.05201e-05  7.98437e+08
       953.60000  2.15635e-05  8.38388e+08
       953.70000  1.91289e-05  7.42966e+08
       953.80000  1.88212e-05  7.30449e+08
       953.90000  2.19580e-05  8.51532e+08
       954.00000  2.19580e-05  8.51093e+08
       954.10000  2.26551e-05  8.77885e+08
       954.20000  2.12609e-05  8.23649e+08
       954.30000  1.81241e-05  7.02127e+08
       954.40000  2.57920e-05  9.99180e+08
       954.50000  1.96210e-05  7.59920e+08
       954.60000  1.78998e-05  6.93260e+08
       954.70000  1.96210e-05  7.59920e+08
       954.80000  2.30632e-05  8.93239e+08
       954.90000  1.78998e-05  6.93439e+08
       955.00000  2.20305e-05  8.53463e+08
       955.10000  2.20305e-05  8.53684e+08
       955.20000  1.96210e-05  7.60312e+08
       955.30000  1.78998e-05  6.93797e+08
       955.40000  2.03094e-05  7.87396e+08
       955.50000  2.00577e-05  7.77838e+08
       955.60000  1.90378e-05  7.38478e+08
       955.70000  2.48172e-05  9.62906e+08
       955.80000  2.58371e-05  1.00299e+09
       955.90000  2.41373e-05  9.37249e+08
       956.00000  1.69981e-05  6.60375e+08
       956.10000  2.00577e-05  7.79643e+08
       956.20000  1.97178e-05  7.66626e+08
       956.30000  1.77380e-05  6.90009e+08
       956.40000  1.84202e-05  7.17100e+08
       956.50000  1.68418e-05  6.55990e+08
       956.60000  2.22312e-05  8.66351e+08
       956.70000  2.39154e-05  9.32701e+08
       956.80000  1.98734e-05  7.75459e+08
       956.90000  1.75155e-05  6.83981e+08
       957.00000  2.15576e-05  8.42469e+08
       957.10000  1.78523e-05  6.98205e+08
       957.20000  1.88629e-05  7.38292e+08
       957.30000  2.25681e-05  8.84217e+08
       957.40000  2.02102e-05  7.92442e+08
       957.50000  1.56295e-05  6.13302e+08
       957.60000  2.02851e-05  7.96799e+08
       957.70000  1.76248e-05  6.93006e+08
       957.80000  1.99526e-05  7.85333e+08
       957.90000  2.09502e-05  8.25438e+08
       958.00000  1.92875e-05  7.60698e+08
       958.10000  1.92875e-05  7.60698e+08
       958.20000  1.92875e-05  7.60505e+08
       958.30000  1.92875e-05  7.60505e+08
       958.40000  1.92875e-05  7.60505e+08
       958.50000  2.29815e-06  9.06159e+07
       958.60000  2.29815e-06  9.05929e+07
       958.70000  2.29815e-06  9.05929e+07
       958.80000  2.30052e-06  9.06864e+07
       958.90000  2.30052e-06  9.06634e+07
       959.00000  2.30052e-06  9.06634e+07
       959.10000  2.30052e-06  9.06404e+07
       959.20000  2.30052e-06  9.06404e+07
       959.30000  2.30052e-06  9.06174e+07
       959.40000  2.30052e-06  9.05944e+07
       959.50000  2.27044e-06  8.94097e+07
       959.60000  2.27044e-06  8.93870e+07
       959.70000  2.27044e-06  8.93870e+07
       959.80000  2.27044e-06  8.93643e+07
       959.90000  2.27044e-06  8.93416e+07
       960.00000  2.27044e-06  8.93189e+07
       960.10000  2.27044e-06  8.92962e+07
       960.20000  2.27044e-06  8.92735e+07
       960.30000  2.27044e-06  8.92508e+07
       960.40000  2.27044e-06  8.92281e+07
       960.50000  2.24086e-06  8.80433e+07
       960.60000  2.24086e-06  8.80209e+07
       960.70000  2.24086e-06  8.79985e+07
       960.80000  2.24086e-06  8.79761e+07
       960.90000  2.24086e-06  8.79537e+07
       961.00000  2.24086e-06  8.79313e+07
       961.10000  2.24086e-06  8.79089e+07
       961.20000  2.24086e-06  8.78865e+07
       961.30000  2.24526e-06  8.80365e+07
       961.40000  2.24526e-06  8.80140e+07
       961.50000  2.21512e-06  8.68104e+07
       961.60000  2.21512e-06  8.67661e+07
       961.70000  2.21512e-06  8.67439e+07
       961.80000  2.21512e-06  8.67218e+07
       961.90000  2.21512e-06  8.66996e+07
       962.00000  2.21512e-06  8.66775e+07
       962.10000  2.21512e-06  8.66332e+07
       962.20000  2.21512e-06  8.66110e+07
       962.30000  2.21512e-06  8.65889e+07
       962.40000  2.21512e-06  8.65446e+07
       962.50000  2.18494e-06  8.53439e+07
       962.60000  2.18494e-06  8.53221e+07
       962.70000  2.18494e-06  8.52784e+07
       962.80000  2.18494e-06  8.52565e+07
       962.90000  2.18494e-06  8.52128e+07
       963.00000  2.18494e-06  8.51910e+07
       963.10000  2.18494e-06  8.51691e+07
       963.20000  2.18494e-06  8.51254e+07
       963.30000  2.18494e-06  8.51036e+07
       963.40000  2.18494e-06  8.50599e+07
       963.50000  2.15481e-06  8.38652e+07
       963.60000  2.15481e-06  8.38221e+07
       963.70000  2.15481e-06  8.38006e+07
       963.80000  2.15936e-06  8.39344e+07
       963.90000  2.15936e-06  8.38912e+07
       964.00000  2.15936e-06  8.38696e+07
       964.10000  2.15936e-06  8.38264e+07
       964.20000  2.15936e-06  8.37616e+07
       964.30000  2.15936e-06  8.37184e+07
       964.40000  2.15936e-06  8.36968e+07
       964.50000  2.12951e-06  8.24972e+07
       964.60000  2.12951e-06  8.24546e+07
       964.70000  2.12951e-06  8.24333e+07
       964.80000  2.12951e-06  8.23907e+07
       964.90000  2.12951e-06  8.23694e+07
       965.00000  2.12951e-06  8.23268e+07
       965.10000  2.12951e-06  8.23055e+07
       965.20000  2.12951e-06  8.22842e+07
       965.30000  2.12951e-06  8.22629e+07
       965.40000  2.12951e-06  8.22629e+07
       965.50000  2.09911e-06  8.10678e+07
       965.60000  2.09911e-06  8.10468e+07
       965.70000  2.09911e-06  8.10468e+07
       965.80000  2.09911e-06  8.10258e+07
       965.90000  2.09911e-06  8.10258e+07
       966.00000  2.09911e-06  8.10258e+07
       966.10000  2.09911e-06  8.10468e+07
       966.20000  2.09911e-06  8.10678e+07
       966.30000  2.10600e-06  8.13758e+07
       966.40000  2.10600e-06  8.13968e+07
       966.50000  2.07570e-06  8.02464e+07
       966.60000  2.07570e-06  8.02671e+07
       966.70000  2.07570e-06  8.02879e+07
       966.80000  2.07570e-06  8.03086e+07
       966.90000  2.07570e-06  8.03294e+07
       967.00000  2.07570e-06  8.03502e+07
       967.10000  2.07570e-06  8.03709e+07
       967.20000  2.07570e-06  8.03917e+07
       967.30000  2.07570e-06  8.04124e+07
       967.40000  2.07570e-06  8.04332e+07
       967.50000  2.04529e-06  7.92552e+07
       967.60000  2.04529e-06  7.92756e+07
       967.70000  2.04529e-06  7.92961e+07
       967.80000  2.04529e-06  7.92961e+07
       967.90000  2.04529e-06  7.93165e+07
       968.00000  2.04529e-06  7.93370e+07
       968.10000  2.04529e-06  7.93370e+07
       968.20000  2.04529e-06  7.93574e+07
       968.30000  2.04529e-06  7.93574e+07
       968.40000  2.04529e-06  7.93574e+07
       968.50000  2.01474e-06  7.81922e+07
       968.60000  2.01474e-06  7.81922e+07
       968.70000  2.01474e-06  7.81922e+07
       968.80000  2.01950e-06  7.83971e+07
       968.90000  2.01950e-06  7.83971e+07
       969.00000  2.01950e-06  7.83971e+07
       969.10000  2.01950e-06  7.83971e+07
       969.20000  2.01950e-06  7.83971e+07
       969.30000  2.01950e-06  7.83971e+07
       969.40000  2.01950e-06  7.83971e+07
       969.50000  1.98952e-06  7.72332e+07
       969.60000  1.98952e-06  7.72332e+07
       969.70000  1.98952e-06  7.72332e+07
       969.80000  1.98952e-06  7.72332e+07
       969.90000  1.98952e-06  7.72332e+07
       970.00000  1.98952e-06  7.72332e+07
       970.10000  1.98952e-06  7.72531e+07
       970.20000  1.98952e-06  7.72730e+07
       970.30000  1.98952e-06  7.72730e+07
       970.40000  1.98952e-06  7.72929e+07
       970.50000  1.95910e-06  7.61111e+07
       970.60000  1.95910e-06  7.61307e+07
       970.70000  1.95910e-06  7.61307e+07
       970.80000  1.95910e-06  7.61307e+07
       970.90000  1.95910e-06  7.61307e+07
       971.00000  1.95910e-06  7.61307e+07
       971.10000  1.95910e-06  7.61307e+07
       971.20000  1.95910e-06  7.61111e+07
       971.30000  1.96228e-06  7.62344e+07
       971.40000  1.96228e-06  7.62148e+07
       971.50000  1.93181e-06  7.50313e+07
       971.60000  1.93181e-06  7.50120e+07
       971.70000  1.93181e-06  7.49927e+07
       971.80000  1.93181e-06  7.49734e+07
       971.90000  1.93181e-06  7.49541e+07
       972.00000  1.93181e-06  7.49154e+07
       972.10000  1.93181e-06  7.48382e+07
       972.20000  1.93181e-06  7.47609e+07
       972.30000  1.93181e-06  7.47029e+07
       972.40000  1.93181e-06  7.46257e+07
       972.50000  1.90135e-06  7.33919e+07
       972.60000  1.90135e-06  7.33159e+07
       972.70000  1.90135e-06  7.32588e+07
       972.80000  1.90135e-06  7.32018e+07
       972.90000  1.90135e-06  7.31448e+07
       973.00000  1.90135e-06  7.31067e+07
       973.10000  1.90135e-06  7.30497e+07
       973.20000  1.90135e-06  7.30117e+07
       973.30000  1.90135e-06  7.29736e+07
       973.40000  1.90135e-06  7.29356e+07
       973.50000  1.87091e-06  7.17306e+07
       973.60000  1.87091e-06  7.16932e+07
       973.70000  1.87091e-06  7.16744e+07
       973.80000  1.87192e-06  7.16758e+07
       973.90000  1.87192e-06  7.16571e+07
       974.00000  1.87192e-06  7.16384e+07
       974.10000  1.87192e-06  7.16571e+07
       974.20000  1.87192e-06  7.16945e+07
       974.30000  1.87192e-06  7.17132e+07
       974.40000  1.87192e-06  7.17319e+07
       974.50000  1.84140e-06  7.05810e+07
       974.60000  1.84140e-06  7.05994e+07
       974.70000  1.84140e-06  7.06178e+07
       974.80000  1.84140e-06  7.06362e+07
       974.90000  1.84140e-06  7.06362e+07
       975.00000  1.84140e-06  7.06546e+07
       975.10000  1.84140e-06  7.06731e+07
       975.20000  1.84140e-06  7.06731e+07
       975.30000  1.84140e-06  7.06915e+07
       975.40000  1.84140e-06  7.06915e+07
       975.50000  1.81099e-06  6.95239e+07
       975.60000  1.81099e-06  6.95420e+07
       975.70000  1.81099e-06  6.95420e+07
       975.80000  1.81099e-06  6.95420e+07
       975.90000  1.81099e-06  6.95420e+07
       976.00000  1.81099e-06  6.95420e+07
       976.10000  1.81099e-06  6.95239e+07
       976.20000  1.81099e-06  6.95058e+07
       976.30000  1.80977e-06  6.94410e+07
       976.40000  1.80977e-06  6.94229e+07
       976.50000  1.77908e-06  6.82456e+07
       976.60000  1.77908e-06  6.82278e+07
       976.70000  1.77908e-06  6.82100e+07
       976.80000  1.77908e-06  6.81922e+07
       976.90000  1.77908e-06  6.81922e+07
       977.00000  1.77908e-06  6.81744e+07
       977.10000  1.77908e-06  6.81566e+07
       977.20000  1.77908e-06  6.81388e+07
       977.30000  1.77908e-06  6.81388e+07
       977.40000  1.77908e-06  6.81210e+07
       977.50000  1.74918e-06  6.69585e+07
       977.60000  1.74918e-06  6.69585e+07
       977.70000  1.74918e-06  6.69410e+07
       977.80000  1.74918e-06  6.69235e+07
       977.90000  1.74918e-06  6.69235e+07
       978.00000  1.74918e-06  6.69060e+07
       978.10000  1.74918e-06  6.69060e+07
       978.20000  1.74918e-06  6.68885e+07
       978.30000  1.74918e-06  6.68885e+07
       978.40000  1.74918e-06  6.68710e+07
       978.50000  1.71822e-06  6.56705e+07
       978.60000  1.71822e-06  6.56705e+07
       978.70000  1.71822e-06  6.56705e+07
       978.80000  1.71794e-06  6.56425e+07
       978.90000  1.71794e-06  6.56425e+07
       979.00000  1.71794e-06  6.56253e+07
       979.10000  1.71794e-06  6.56253e+07
       979.20000  1.71794e-06  6.56082e+07
       979.30000  1.71794e-06  6.56082e+07
       979.40000  1.71794e-06  6.56082e+07
       979.50000  1.68723e-06  6.44186e+07
       979.60000  1.68723e-06  6.44186e+07
       979.70000  1.68723e-06  6.44186e+07
       979.80000  1.68723e-06  6.44017e+07
       979.90000  1.68723e-06  6.44017e+07
       980.00000  1.68723e-06  6.44017e+07
       980.10000  1.68723e-06  6.44354e+07
       980.20000  1.68723e-06  6.44523e+07
       980.30000  1.68723e-06  6.44860e+07
       980.40000  1.68723e-06  6.45029e+07
       980.50000  1.65691e-06  6.33769e+07
       980.60000  1.65691e-06  6.33934e+07
       980.70000  1.65691e-06  6.34100e+07
       980.80000  1.65691e-06  6.34266e+07
       980.90000  1.65691e-06  6.34431e+07
       981.00000  1.65691e-06  6.34597e+07
       981.10000  1.65691e-06  6.34763e+07
       981.20000  1.65691e-06  6.34928e+07
       981.30000  1.66580e-06  6.38335e+07
       981.40000  1.66580e-06  6.38501e+07
       981.50000  1.63503e-06  6.26706e+07
       981.60000  1.63503e-06  6.26706e+07
       981.70000  1.63503e-06  6.26869e+07
       981.80000  1.63503e-06  6.26869e+07
       981.90000  1.63503e-06  6.26869e+07
       982.00000  1.63503e-06  6.26706e+07
       982.10000  1.63503e-06  6.26542e+07
       982.20000  1.63503e-06  6.26215e+07
       982.30000  1.63503e-06  6.26052e+07
       982.40000  1.63503e-06  6.25725e+07
       982.50000  1.60423e-06  6.13780e+07
       982.60000  1.60423e-06  6.13459e+07
       982.70000  1.60423e-06  6.13298e+07
       982.80000  1.60423e-06  6.13138e+07
       982.90000  1.60423e-06  6.12817e+07
       983.00000  1.60423e-06  6.12657e+07
       983.10000  1.60423e-06  6.12496e+07
       983.20000  1.60423e-06  6.12336e+07
       983.30000  1.60423e-06  6.12175e+07
       983.40000  1.60423e-06  6.11855e+07
       983.50000  1.57349e-06  5.99973e+07
       983.60000  1.57349e-06  5.99816e+07
       983.70000  1.57349e-06  5.99659e+07
       983.80000  1.57472e-06  5.99970e+07
       983.90000  1.57472e-06  5.99812e+07
       984.00000  1.57472e-06  5.99655e+07
       984.10000  1.57472e-06  5.99655e+07
       984.20000  1.57472e-06  5.99497e+07
       984.30000  1.57472e-06  5.99340e+07
       984.40000  1.57472e-06  5.99183e+07
       984.50000  1.54429e-06  5.87602e+07
       984.60000  1.54429e-06  5.87447e+07
       984.70000  1.54429e-06  5.87293e+07
       984.80000  1.54429e-06  5.87293e+07
       984.90000  1.54429e-06  5.87138e+07
       985.00000  1.54429e-06  5.86984e+07
       985.10000  1.54429e-06  5.86984e+07
       985.20000  1.54429e-06  5.86830e+07
       985.30000  1.54429e-06  5.86830e+07
       985.40000  1.54429e-06  5.86830e+07
       985.50000  1.51348e-06  5.74973e+07
       985.60000  1.51348e-06  5.74973e+07
       985.70000  1.51348e-06  5.74973e+07
       985.80000  1.51348e-06  5.74821e+07
       985.90000  1.51348e-06  5.74821e+07
       986.00000  1.51348e-06  5.74821e+07
       986.10000  1.51348e-06  5.74670e+07
       986.20000  1.51348e-06  5.74670e+07
       986.30000  1.50481e-06  5.71378e+07
       986.40000  1.50481e-06  5.71227e+07
       986.50000  1.47413e-06  5.59433e+07
       986.60000  1.47413e-06  5.59433e+07
       986.70000  1.47413e-06  5.59286e+07
       986.80000  1.47413e-06  5.59286e+07
       986.90000  1.47413e-06  5.59138e+07
       987.00000  1.47413e-06  5.58991e+07
       987.10000  1.47413e-06  5.58843e+07
       987.20000  1.47413e-06  5.58843e+07
       987.30000  1.47413e-06  5.58696e+07
       987.40000  1.47413e-06  5.58548e+07
       987.50000  1.44353e-06  5.46810e+07
       987.60000  1.44353e-06  5.46666e+07
       987.70000  1.44353e-06  5.46521e+07
       987.80000  1.44353e-06  5.46377e+07
       987.90000  1.44353e-06  5.46233e+07
       988.00000  1.44353e-06  5.46088e+07
       988.10000  1.44353e-06  5.45655e+07
       988.20000  1.44353e-06  5.45367e+07
       988.30000  1.44353e-06  5.44934e+07
       988.40000  1.44353e-06  5.44645e+07
       988.50000  1.41310e-06  5.32880e+07
       988.60000  1.41310e-06  5.32597e+07
       988.70000  1.41310e-06  5.32315e+07
       988.80000  1.41700e-06  5.33500e+07
       988.90000  1.41700e-06  5.33217e+07
       989.00000  1.41700e-06  5.33075e+07
       989.10000  1.41700e-06  5.32934e+07
       989.20000  1.41700e-06  5.32650e+07
       989.30000  1.41700e-06  5.32509e+07
       989.40000  1.41700e-06  5.32367e+07
       989.50000  1.38594e-06  5.20560e+07
       989.60000  1.38594e-06  5.20422e+07
       989.70000  1.38594e-06  5.20422e+07
       989.80000  1.38594e-06  5.20283e+07
       989.90000  1.38594e-06  5.20283e+07
       990.00000  1.38594e-06  5.20283e+07
       990.10000  1.38594e-06  5.20145e+07
       990.20000  1.38594e-06  5.20145e+07
       990.30000  1.38594e-06  5.20283e+07
       990.40000  1.38594e-06  5.20283e+07
       990.50000  1.35520e-06  5.08744e+07
       990.60000  1.35520e-06  5.08879e+07
       990.70000  1.35520e-06  5.08879e+07
       990.80000  1.35520e-06  5.09015e+07
       990.90000  1.35520e-06  5.09150e+07
       991.00000  1.35520e-06  5.09286e+07
       991.10000  1.35520e-06  5.09421e+07
       991.20000  1.35520e-06  5.09557e+07
       991.30000  1.35808e-06  5.10773e+07
       991.40000  1.35808e-06  5.11044e+07
       991.50000  1.32743e-06  4.99644e+07
       991.60000  1.32743e-06  4.99909e+07
       991.70000  1.32743e-06  5.00175e+07
       991.80000  1.32743e-06  5.00440e+07
       991.90000  1.32743e-06  5.00706e+07
       992.00000  1.32743e-06  5.00971e+07
       992.10000  1.32743e-06  5.01104e+07
       992.20000  1.32743e-06  5.01104e+07
       992.30000  1.32743e-06  5.01104e+07
       992.40000  1.32743e-06  5.01104e+07
       992.50000  1.29614e-06  4.89422e+07
       992.60000  1.29614e-06  4.89422e+07
       992.70000  1.29614e-06  4.89422e+07
       992.80000  1.29614e-06  4.89422e+07
       992.90000  1.29614e-06  4.89422e+07
       993.00000  1.29614e-06  4.89551e+07
       993.10000  1.29614e-06  4.89551e+07
       993.20000  1.29614e-06  4.89551e+07
       993.30000  1.29614e-06  4.89551e+07
       993.40000  1.29614e-06  4.89551e+07
       993.50000  1.26573e-06  4.78067e+07
       993.60000  1.26573e-06  4.78067e+07
       993.70000  1.26573e-06  4.78067e+07
       993.80000  1.26644e-06  4.78334e+07
       993.90000  1.26644e-06  4.78208e+07
       994.00000  1.26644e-06  4.78208e+07
       994.10000  1.26644e-06  4.78208e+07
       994.20000  1.26644e-06  4.78081e+07
       994.30000  1.26644e-06  4.78081e+07
       994.40000  1.26644e-06  4.77954e+07
       994.50000  1.23560e-06  4.66317e+07
       994.60000  1.23560e-06  4.66193e+07
       994.70000  1.23560e-06  4.66193e+07
       994.80000  1.23560e-06  4.66070e+07
       994.90000  1.23560e-06  4.66070e+07
       995.00000  1.23560e-06  4.65946e+07
       995.10000  1.23560e-06  4.65946e+07
       995.20000  1.23560e-06  4.65946e+07
       995.30000  1.23560e-06  4.65822e+07
       995.40000  1.23560e-06  4.65822e+07
       995.50000  1.20460e-06  4.54133e+07
       995.60000  1.20460e-06  4.54013e+07
       995.70000  1.20460e-06  4.54013e+07
       995.80000  1.20460e-06  4.54013e+07
       995.90000  1.20460e-06  4.54013e+07
       996.00000  1.20460e-06  4.53892e+07
       996.10000  1.20460e-06  4.54013e+07
       996.20000  1.20460e-06  4.54013e+07
       996.30000  1.20600e-06  4.54542e+07
       996.40000  1.20600e-06  4.54542e+07
       996.50000  1.17516e-06  4.42918e+07
       996.60000  1.17516e-06  4.42918e+07
       996.70000  1.17516e-06  4.42918e+07
       996.80000  1.17516e-06  4.42918e+07
       996.90000  1.17516e-06  4.42918e+07
       997.00000  1.17516e-06  4.42918e+07
       997.10000  1.17516e-06  4.42918e+07
       997.20000  1.17516e-06  4.42918e+07
       997.30000  1.17516e-06  4.42918e+07
       997.40000  1.17516e-06  4.42918e+07
       997.50000  1.14419e-06  4.31245e+07
       997.60000  1.14419e-06  4.31245e+07
       997.70000  1.14419e-06  4.31245e+07
       997.80000  1.14419e-06  4.31245e+07
       997.90000  1.14419e-06  4.31245e+07
       998.00000  1.14419e-06  4.31130e+07
       998.10000  1.14419e-06  4.31130e+07
       998.20000  1.14419e-06  4.31016e+07
       998.30000  1.14419e-06  4.31016e+07
       998.40000  1.14419e-06  4.30901e+07
       998.50000  1.11312e-06  4.19088e+07
       998.60000  1.11312e-06  4.19088e+07
       998.70000  1.11312e-06  4.18977e+07
       998.80000  1.12225e-06  4.22414e+07
       998.90000  1.12225e-06  4.22414e+07
       999.00000  1.12225e-06  4.22302e+07
       999.10000  1.12225e-06  4.22302e+07
       999.20000  1.12225e-06  4.22190e+07
       999.30000  1.12225e-06  4.22190e+07
       999.40000  1.12225e-06  4.22190e+07
       999.50000  1.09120e-06  4.10401e+07
       999.60000  1.09120e-06  4.10401e+07
       999.70000  1.09120e-06  4.10401e+07
       999.80000  1.09120e-06  4.10401e+07
       999.90000  1.09120e-06  4.10401e+07
       1000.0000  1.09120e-06  4.10292e+07
       1000.1000  1.09120e-06  4.10292e+07
       1000.2000  1.09120e-06  4.10292e+07
       1000.3000  1.09120e-06  4.10292e+07
       1000.4000  1.09120e-06  4.10292e+07
       1000.5000  1.07232e-06  4.03194e+07
       1000.6000  1.07232e-06  4.03194e+07
       1000.7000  1.07232e-06  4.03194e+07
       1000.8000  1.07232e-06  4.03194e+07
       1000.9000  1.07232e-06  4.03194e+07
       1001.0000  1.07232e-06  4.03194e+07
       1001.1000  1.07232e-06  4.03194e+07
       1001.2000  1.07232e-06  4.03301e+07
       1001.3000  1.05976e-06  3.98574e+07
       1001.4000  1.05976e-06  3.98574e+07
       1001.5000  1.04118e-06  3.91589e+07
       1001.6000  1.04118e-06  3.91589e+07
       1001.7000  1.04118e-06  3.91693e+07
       1001.8000  1.04118e-06  3.91693e+07
       1001.9000  1.04118e-06  3.91693e+07
       1002.0000  1.04118e-06  3.91797e+07
       1002.1000  1.04118e-06  3.91172e+07
       1002.2000  1.04118e-06  3.90547e+07
       1002.3000  1.04118e-06  3.90027e+07
       1002.4000  1.04118e-06  3.89402e+07
       1002.5000  1.02265e-06  3.81962e+07
       1002.6000  1.02265e-06  3.81348e+07
       1002.7000  1.02265e-06  3.80837e+07
       1002.8000  1.02265e-06  3.80325e+07
       1002.9000  1.02265e-06  3.79814e+07
       1003.0000  1.02265e-06  3.79303e+07
       1003.1000  1.02265e-06  3.78791e+07
       1003.2000  1.02265e-06  3.78280e+07
       1003.3000  1.02265e-06  3.77871e+07
       1003.4000  1.02265e-06  3.77360e+07
       1003.5000  1.00408e-06  3.70103e+07
       1003.6000  1.00408e-06  3.69701e+07
       1003.7000  1.00408e-06  3.69199e+07
       1003.8000  1.00381e-06  3.68699e+07
       1003.9000  1.00381e-06  3.68298e+07
       1004.0000  1.00381e-06  3.67896e+07
       1004.1000  1.00381e-06  3.67294e+07
       1004.2000  1.00381e-06  3.66591e+07
       1004.3000  1.00381e-06  3.66089e+07
       1004.4000  1.00381e-06  3.65487e+07
       1004.5000  9.85057e-07  3.58167e+07
       1004.6000  9.85057e-07  3.57674e+07
       1004.7000  9.85057e-07  3.57280e+07
       1004.8000  9.85057e-07  3.56886e+07
       1004.9000  9.85057e-07  3.56591e+07
       1005.0000  9.85057e-07  3.56295e+07
       1005.1000  9.85057e-07  3.56000e+07
       1005.2000  9.85057e-07  3.55803e+07
       1005.3000  9.85057e-07  3.55606e+07
       1005.4000  9.85057e-07  3.55507e+07
       1005.5000  9.66594e-07  3.48747e+07
       1005.6000  9.66594e-07  3.48650e+07
       1005.7000  9.66594e-07  3.48650e+07
       1005.8000  9.66594e-07  3.48747e+07
       1005.9000  9.66594e-07  3.48747e+07
       1006.0000  9.66594e-07  3.48844e+07
       1006.1000  9.66594e-07  3.49037e+07
       1006.2000  9.66594e-07  3.49230e+07
       1006.3000  9.64586e-07  3.48698e+07
       1006.4000  9.64586e-07  3.48987e+07
       1006.5000  9.45866e-07  3.42498e+07
       1006.6000  9.45866e-07  3.42876e+07
       1006.7000  9.45866e-07  3.43255e+07
       1006.8000  9.45866e-07  3.43633e+07
       1006.9000  9.45866e-07  3.44106e+07
       1007.0000  9.45866e-07  3.44579e+07
       1007.1000  9.45866e-07  3.45146e+07
       1007.2000  9.45866e-07  3.45714e+07
       1007.3000  9.45866e-07  3.46281e+07
       1007.4000  9.45866e-07  3.46943e+07
       1007.5000  9.27155e-07  3.40729e+07
       1007.6000  9.27155e-07  3.41471e+07
       1007.7000  9.27155e-07  3.42213e+07
       1007.8000  9.27155e-07  3.42955e+07
       1007.9000  9.27155e-07  3.43789e+07
       1008.0000  9.27155e-07  3.44623e+07
       1008.1000  9.27155e-07  3.44716e+07
       1008.2000  9.27155e-07  3.44716e+07
       1008.3000  9.27155e-07  3.44716e+07
       1008.4000  9.27155e-07  3.44716e+07
       1008.5000  9.08687e-07  3.37850e+07
       1008.6000  9.08687e-07  3.37850e+07
       1008.7000  9.08687e-07  3.37850e+07
       1008.8000  9.06780e-07  3.37141e+07
       1008.9000  9.06780e-07  3.37141e+07
       1009.0000  9.06780e-07  3.37050e+07
       1009.1000  9.06780e-07  3.37050e+07
       1009.2000  9.06780e-07  3.37050e+07
       1009.3000  9.06780e-07  3.37050e+07
       1009.4000  9.06780e-07  3.36959e+07
       1009.5000  8.88258e-07  3.30077e+07
       1009.6000  8.88258e-07  3.30077e+07
       1009.7000  8.88258e-07  3.29988e+07
       1009.8000  8.88258e-07  3.29988e+07
       1009.9000  8.88258e-07  3.29899e+07
       1010.0000  8.88258e-07  3.29899e+07
       1010.1000  8.88258e-07  3.29810e+07
       1010.2000  8.88258e-07  3.29721e+07
       1010.3000  8.88258e-07  3.29632e+07
       1010.4000  8.88258e-07  3.29544e+07
       1010.5000  8.69719e-07  3.22579e+07
       1010.6000  8.69719e-07  3.22492e+07
       1010.7000  8.69719e-07  3.22405e+07
       1010.8000  8.69719e-07  3.22318e+07
       1010.9000  8.69719e-07  3.22231e+07
       1011.0000  8.69719e-07  3.22144e+07
       1011.1000  8.69719e-07  3.22144e+07
       1011.2000  8.69719e-07  3.22057e+07
       1011.3000  8.67391e-07  3.21108e+07
       1011.4000  8.67391e-07  3.21021e+07
       1011.5000  8.48807e-07  3.14059e+07
       1011.6000  8.48807e-07  3.13974e+07
       1011.7000  8.48807e-07  3.13889e+07
       1011.8000  8.48807e-07  3.13804e+07
       1011.9000  8.48807e-07  3.13719e+07
       1012.0000  8.48807e-07  3.13634e+07
       1012.1000  8.48807e-07  3.13549e+07
       1012.2000  8.48807e-07  3.13465e+07
       1012.3000  8.48807e-07  3.13380e+07
       1012.4000  8.48807e-07  3.13295e+07
       1012.5000  8.30427e-07  3.06427e+07
       1012.6000  8.30427e-07  3.06344e+07
       1012.7000  8.30427e-07  3.06261e+07
       1012.8000  8.30427e-07  3.06178e+07
       1012.9000  8.30427e-07  3.06178e+07
       1013.0000  8.30427e-07  3.06095e+07
       1013.1000  8.30427e-07  3.06012e+07
       1013.2000  8.30427e-07  3.05929e+07
       1013.3000  8.30427e-07  3.05846e+07
       1013.4000  8.30427e-07  3.05763e+07
       1013.5000  8.11724e-07  2.98795e+07
       1013.6000  8.11724e-07  2.98714e+07
       1013.7000  8.11724e-07  2.98633e+07
       1013.8000  8.11093e-07  2.98320e+07
       1013.9000  8.11093e-07  2.98239e+07
       1014.0000  8.11093e-07  2.98158e+07
       1014.1000  8.11093e-07  2.97995e+07
       1014.2000  8.11093e-07  2.97833e+07
       1014.3000  8.11093e-07  2.97671e+07
       1014.4000  8.11093e-07  2.97509e+07
       1014.5000  7.92512e-07  2.90614e+07
       1014.6000  7.92512e-07  2.90456e+07
       1014.7000  7.92512e-07  2.90297e+07
       1014.8000  7.92512e-07  2.90218e+07
       1014.9000  7.92512e-07  2.90060e+07
       1015.0000  7.92512e-07  2.89980e+07
       1015.1000  7.92512e-07  2.89822e+07
       1015.2000  7.92512e-07  2.89742e+07
       1015.3000  7.92512e-07  2.89663e+07
       1015.4000  7.92512e-07  2.89505e+07
       1015.5000  7.73969e-07  2.82653e+07
       1015.6000  7.73969e-07  2.82576e+07
       1015.7000  7.73969e-07  2.82499e+07
       1015.8000  7.73969e-07  2.82421e+07
       1015.9000  7.73969e-07  2.82344e+07
       1016.0000  7.73969e-07  2.82266e+07
       1016.1000  7.73969e-07  2.82266e+07
       1016.2000  7.73969e-07  2.82266e+07
       1016.3000  7.75221e-07  2.82723e+07
       1016.4000  7.75221e-07  2.82646e+07
       1016.5000  7.56666e-07  2.75880e+07
       1016.6000  7.56666e-07  2.75880e+07
       1016.7000  7.56666e-07  2.75880e+07
       1016.8000  7.56666e-07  2.75805e+07
       1016.9000  7.56666e-07  2.75805e+07
       1017.0000  7.56666e-07  2.75729e+07
       1017.1000  7.56666e-07  2.75729e+07
       1017.2000  7.56666e-07  2.75654e+07
       1017.3000  7.56666e-07  2.75654e+07
       1017.4000  7.56666e-07  2.75578e+07
       1017.5000  7.38143e-07  2.68832e+07
       1017.6000  7.38143e-07  2.68758e+07
       1017.7000  7.38143e-07  2.68684e+07
       1017.8000  7.38143e-07  2.68610e+07
       1017.9000  7.38143e-07  2.68536e+07
       1018.0000  7.38143e-07  2.68536e+07
       1018.1000  7.38143e-07  2.68389e+07
       1018.2000  7.38143e-07  2.68241e+07
       1018.3000  7.38143e-07  2.68094e+07
       1018.4000  7.38143e-07  2.67946e+07
       1018.5000  7.19508e-07  2.61109e+07
       1018.6000  7.19508e-07  2.60966e+07
       1018.7000  7.19508e-07  2.60894e+07
       1018.8000  7.19168e-07  2.60627e+07
       1018.9000  7.19168e-07  2.60555e+07
       1019.0000  7.19168e-07  2.60411e+07
       1019.1000  7.19168e-07  2.60339e+07
       1019.2000  7.19168e-07  2.60267e+07
       1019.3000  7.19168e-07  2.60195e+07
       1019.4000  7.19168e-07  2.60051e+07
       1019.5000  7.00583e-07  2.53261e+07
       1019.6000  7.00583e-07  2.53191e+07
       1019.7000  7.00583e-07  2.53121e+07
       1019.8000  7.00583e-07  2.53121e+07
       1019.9000  7.00583e-07  2.53050e+07
       1020.0000  7.00583e-07  2.52980e+07
       1020.1000  7.00583e-07  2.52910e+07
       1020.2000  7.00583e-07  2.52840e+07
       1020.3000  7.00583e-07  2.52840e+07
       1020.4000  7.00583e-07  2.52770e+07
       1020.5000  6.81943e-07  2.46045e+07
       1020.6000  6.81943e-07  2.45977e+07
       1020.7000  6.81943e-07  2.45977e+07
       1020.8000  6.81943e-07  2.45909e+07
       1020.9000  6.81943e-07  2.45909e+07
       1021.0000  6.81943e-07  2.45909e+07
       1021.1000  6.81943e-07  2.45909e+07
       1021.2000  6.81943e-07  2.45909e+07
       1021.3000  6.80494e-07  2.45386e+07
       1021.4000  6.80494e-07  2.45386e+07
       1021.5000  6.62001e-07  2.38717e+07
       1021.6000  6.62001e-07  2.38717e+07
       1021.7000  6.62001e-07  2.38717e+07
       1021.8000  6.62001e-07  2.38784e+07
       1021.9000  6.62001e-07  2.38784e+07
       1022.0000  6.62001e-07  2.38850e+07
       1022.1000  6.62001e-07  2.38850e+07
       1022.2000  6.62001e-07  2.38916e+07
       1022.3000  6.62001e-07  2.38982e+07
       1022.4000  6.62001e-07  2.38982e+07
       1022.5000  6.43426e-07  2.32341e+07
       1022.6000  6.43426e-07  2.32405e+07
       1022.7000  6.43426e-07  2.32470e+07
       1022.8000  6.43426e-07  2.32534e+07
       1022.9000  6.43426e-07  2.32598e+07
       1023.0000  6.43426e-07  2.32663e+07
       1023.1000  6.43426e-07  2.32791e+07
       1023.2000  6.43426e-07  2.32856e+07
       1023.3000  6.43426e-07  2.32920e+07
       1023.4000  6.43426e-07  2.33049e+07
       1023.5000  6.24911e-07  2.26405e+07
       1023.6000  6.24911e-07  2.26530e+07
       1023.7000  6.24911e-07  2.26593e+07
       1023.8000  6.23082e-07  2.26054e+07
       1023.9000  6.23082e-07  2.26179e+07
       1024.0000  6.23082e-07  2.26303e+07
       1024.1000  6.23082e-07  2.26303e+07
       1024.2000  6.23082e-07  2.26241e+07
       1024.3000  6.23082e-07  2.26241e+07
       1024.4000  6.23082e-07  2.26241e+07
       1024.5000  6.04545e-07  2.19510e+07
       1024.6000  6.04545e-07  2.19450e+07
       1024.7000  6.04545e-07  2.19450e+07
       1024.8000  6.04545e-07  2.19450e+07
       1024.9000  6.04545e-07  2.19389e+07
       1025.0000  6.04545e-07  2.19389e+07
       1025.1000  6.04545e-07  2.19389e+07
       1025.2000  6.04545e-07  2.19329e+07
       1025.3000  6.04545e-07  2.19329e+07
       1025.4000  6.04545e-07  2.19329e+07
       1025.5000  5.85986e-07  2.12537e+07
       1025.6000  5.85986e-07  2.12537e+07
       1025.7000  5.85986e-07  2.12479e+07
       1025.8000  5.85986e-07  2.12479e+07
       1025.9000  5.85986e-07  2.12420e+07
       1026.0000  5.85986e-07  2.12420e+07
       1026.1000  5.85986e-07  2.12420e+07
       1026.2000  5.85986e-07  2.12361e+07
       1026.3000  5.83894e-07  2.11603e+07
       1026.4000  5.83894e-07  2.11545e+07
       1026.5000  5.65422e-07  2.04852e+07
       1026.6000  5.65422e-07  2.04796e+07
       1026.7000  5.65422e-07  2.04739e+07
       1026.8000  5.65422e-07  2.04739e+07
       1026.9000  5.65422e-07  2.04683e+07
       1027.0000  5.65422e-07  2.04683e+07
       1027.1000  5.65422e-07  2.04626e+07
       1027.2000  5.65422e-07  2.04570e+07
       1027.3000  5.65422e-07  2.04570e+07
       1027.4000  5.65422e-07  2.04513e+07
       1027.5000  5.47002e-07  1.97796e+07
       1027.6000  5.47002e-07  1.97796e+07
       1027.7000  5.47002e-07  1.97741e+07
       1027.8000  5.47002e-07  1.97686e+07
       1027.9000  5.47002e-07  1.97632e+07
       1028.0000  5.47002e-07  1.97577e+07
       1028.1000  5.47002e-07  1.97577e+07
       1028.2000  5.47002e-07  1.97522e+07
       1028.3000  5.47002e-07  1.97468e+07
       1028.4000  5.47002e-07  1.97413e+07
       1028.5000  5.28508e-07  1.90686e+07
       1028.6000  5.28508e-07  1.90633e+07
       1028.7000  5.28508e-07  1.90580e+07
       1028.8000  5.28663e-07  1.90583e+07
       1028.9000  5.28663e-07  1.90530e+07
       1029.0000  5.28663e-07  1.90477e+07
       1029.1000  5.28663e-07  1.90424e+07
       1029.2000  5.28663e-07  1.90372e+07
       1029.3000  5.28663e-07  1.90319e+07
       1029.4000  5.28663e-07  1.90266e+07
       1029.5000  5.10166e-07  1.83558e+07
       1029.6000  5.10166e-07  1.83507e+07
       1029.7000  5.10166e-07  1.83456e+07
       1029.8000  5.10166e-07  1.83405e+07
       1029.9000  5.10166e-07  1.83354e+07
       1030.0000  5.10166e-07  1.83252e+07
       1030.1000  5.10166e-07  1.83303e+07
       1030.2000  5.10166e-07  1.83303e+07
       1030.3000  5.10166e-07  1.83303e+07
       1030.4000  5.10166e-07  1.83303e+07
       1030.5000  4.91681e-07  1.76661e+07
       1030.6000  4.91681e-07  1.76661e+07
       1030.7000  4.91681e-07  1.76612e+07
       1030.8000  4.91681e-07  1.76612e+07
       1030.9000  4.91681e-07  1.76612e+07
       1031.0000  4.91681e-07  1.76562e+07
       1031.1000  4.91681e-07  1.76562e+07
       1031.2000  4.91681e-07  1.76513e+07
       1031.3000  4.91822e-07  1.76564e+07
       1031.4000  4.91822e-07  1.76515e+07
       1031.5000  4.73331e-07  1.69831e+07
       1031.6000  4.73331e-07  1.69784e+07
       1031.7000  4.73331e-07  1.69737e+07
       1031.8000  4.73331e-07  1.69689e+07
       1031.9000  4.73331e-07  1.69642e+07
       1032.0000  4.73331e-07  1.69595e+07
       1032.1000  4.73331e-07  1.69453e+07
       1032.2000  4.73331e-07  1.69263e+07
       1032.3000  4.73331e-07  1.69121e+07
       1032.4000  4.73331e-07  1.69027e+07
       1032.5000  4.54854e-07  1.62292e+07
       1032.6000  4.54854e-07  1.62155e+07
       1032.7000  4.54854e-07  1.62064e+07
       1032.8000  4.54854e-07  1.61928e+07
       1032.9000  4.54854e-07  1.61837e+07
       1033.0000  4.54854e-07  1.61746e+07
       1033.1000  4.54854e-07  1.61655e+07
       1033.2000  4.54854e-07  1.61610e+07
       1033.3000  4.54854e-07  1.61519e+07
       1033.4000  4.54854e-07  1.61473e+07
       1033.5000  4.36347e-07  1.54816e+07
       1033.6000  4.36347e-07  1.54772e+07
       1033.7000  4.36347e-07  1.54729e+07
       1033.8000  4.36975e-07  1.54908e+07
       1033.9000  4.36975e-07  1.54908e+07
       1034.0000  4.36975e-07  1.54864e+07
       1034.1000  4.36975e-07  1.54864e+07
       1034.2000  4.36975e-07  1.54820e+07
       1034.3000  4.36975e-07  1.54820e+07
       1034.4000  4.36975e-07  1.54820e+07
       1034.5000  4.18402e-07  1.48240e+07
       1034.6000  4.18402e-07  1.48282e+07
       1034.7000  4.18402e-07  1.48282e+07
       1034.8000  4.18402e-07  1.48324e+07
       1034.9000  4.18402e-07  1.48324e+07
       1035.0000  4.18402e-07  1.48365e+07
       1035.1000  4.18402e-07  1.48407e+07
       1035.2000  4.18402e-07  1.48449e+07
       1035.3000  4.18402e-07  1.48533e+07
       1035.4000  4.18402e-07  1.48575e+07
       1035.5000  3.99798e-07  1.42048e+07
       1035.6000  3.99798e-07  1.42128e+07
       1035.7000  3.99798e-07  1.42168e+07
       1035.8000  3.99798e-07  1.42248e+07
       1035.9000  3.99798e-07  1.42368e+07
       1036.0000  3.99798e-07  1.42448e+07
       1036.1000  3.99798e-07  1.42368e+07
       1036.2000  3.99798e-07  1.42288e+07
       1036.3000  3.99137e-07  1.41973e+07
       1036.4000  3.99137e-07  1.41893e+07
       1036.5000  3.80659e-07  1.35248e+07
       1036.6000  3.80659e-07  1.35172e+07
       1036.7000  3.80659e-07  1.35134e+07
       1036.8000  3.80659e-07  1.35058e+07
       1036.9000  3.80659e-07  1.34982e+07
       1037.0000  3.80659e-07  1.34944e+07
       1037.1000  3.80659e-07  1.34906e+07
       1037.2000  3.80659e-07  1.34829e+07
       1037.3000  3.80659e-07  1.34791e+07
       1037.4000  3.80659e-07  1.34753e+07
       1037.5000  3.62172e-07  1.28173e+07
       1037.6000  3.62172e-07  1.28137e+07
       1037.7000  3.62172e-07  1.28100e+07
       1037.8000  3.62172e-07  1.28064e+07
       1037.9000  3.62172e-07  1.28028e+07
       1038.0000  3.62172e-07  1.27992e+07
       1038.1000  3.62172e-07  1.27992e+07
       1038.2000  3.62172e-07  1.27992e+07
       1038.3000  3.62172e-07  1.28028e+07
       1038.4000  3.62172e-07  1.28028e+07
       1038.5000  3.43649e-07  1.21480e+07
       1038.6000  3.43649e-07  1.21480e+07
       1038.7000  3.43649e-07  1.21480e+07
       1038.8000  3.42894e-07  1.21213e+07
       1038.9000  3.42894e-07  1.21213e+07
       1039.0000  3.42894e-07  1.21213e+07
       1039.1000  3.42894e-07  1.21213e+07
       1039.2000  3.42894e-07  1.21213e+07
       1039.3000  3.42894e-07  1.21213e+07
       1039.4000  3.42894e-07  1.21213e+07
       1039.5000  3.24343e-07  1.14655e+07
       1039.6000  3.24343e-07  1.14655e+07
       1039.7000  3.24343e-07  1.14655e+07
       1039.8000  3.24343e-07  1.14655e+07
       1039.9000  3.24343e-07  1.14655e+07
       1040.0000  3.24343e-07  1.14655e+07
       1040.1000  3.24343e-07  1.14655e+07
       1040.2000  3.24343e-07  1.14655e+07
       1040.3000  3.24343e-07  1.14655e+07
       1040.4000  3.24343e-07  1.14655e+07
       1040.5000  3.05891e-07  1.08132e+07
       1040.6000  3.05891e-07  1.08132e+07
       1040.7000  3.05891e-07  1.08132e+07
       1040.8000  3.05891e-07  1.08132e+07
       1040.9000  3.05891e-07  1.08132e+07
       1041.0000  3.05891e-07  1.08132e+07
       1041.1000  3.05891e-07  1.08132e+07
       1041.2000  3.05891e-07  1.08132e+07
       1041.3000  3.05778e-07  1.08092e+07
       1041.4000  3.05778e-07  1.08092e+07
       1041.5000  2.87290e-07  1.01557e+07
       1041.6000  2.87290e-07  1.01557e+07
       1041.7000  2.87290e-07  1.01557e+07
       1041.8000  2.87290e-07  1.01528e+07
       1041.9000  2.87290e-07  1.01528e+07
       1042.0000  2.87290e-07  1.01528e+07
       1042.1000  2.87290e-07  1.01557e+07
       1042.2000  2.87290e-07  1.01557e+07
       1042.3000  2.87290e-07  1.01586e+07
       1042.4000  2.87290e-07  1.01586e+07
       1042.5000  2.68722e-07  9.50202e+06
       1042.6000  2.68722e-07  9.50202e+06
       1042.7000  2.68722e-07  9.50202e+06
       1042.8000  2.68722e-07  9.49933e+06
       1042.9000  2.68722e-07  9.49933e+06
       1043.0000  2.68722e-07  9.49933e+06
       1043.1000  2.68722e-07  9.49664e+06
       1043.2000  2.68722e-07  9.49395e+06
       1043.3000  2.68722e-07  9.49395e+06
       1043.4000  2.68722e-07  9.49127e+06
       1043.5000  2.50293e-07  8.83783e+06
       1043.6000  2.50293e-07  8.83533e+06
       1043.7000  2.50293e-07  8.83283e+06
       1043.8000  2.51072e-07  8.85532e+06
       1043.9000  2.51072e-07  8.85281e+06
       1044.0000  2.51072e-07  8.84779e+06
       1044.1000  2.51072e-07  8.83775e+06
       1044.2000  2.51072e-07  8.82519e+06
       1044.3000  2.51072e-07  8.81515e+06
       1044.4000  2.51072e-07  8.80511e+06
       1044.5000  2.32470e-07  8.14341e+06
       1044.6000  2.32470e-07  8.13644e+06
       1044.7000  2.32470e-07  8.12714e+06
       1044.8000  2.32470e-07  8.12016e+06
       1044.9000  2.32470e-07  8.11319e+06
       1045.0000  2.32470e-07  8.10621e+06
       1045.1000  2.32470e-07  8.10156e+06
       1045.2000  2.32470e-07  8.09459e+06
       1045.3000  2.32470e-07  8.08994e+06
       1045.4000  2.32470e-07  8.08529e+06
       1045.5000  2.13883e-07  7.43671e+06
       1045.6000  2.13883e-07  7.43243e+06
       1045.7000  2.13883e-07  7.43030e+06
       1045.8000  2.13883e-07  7.42816e+06
       1045.9000  2.13883e-07  7.42602e+06
       1046.0000  2.13883e-07  7.42388e+06
       1046.1000  2.13883e-07  7.42388e+06
       1046.2000  2.13883e-07  7.42174e+06
       1046.3000  2.14414e-07  7.44016e+06
       1046.4000  2.14414e-07  7.44016e+06
       1046.5000  1.95787e-07  6.79578e+06
       1046.6000  1.95787e-07  6.79578e+06
       1046.7000  1.95787e-07  6.79774e+06
       1046.8000  1.95787e-07  6.79969e+06
       1046.9000  1.95787e-07  6.80165e+06
       1047.0000  1.95787e-07  6.80557e+06
       1047.1000  1.95787e-07  6.80752e+06
       1047.2000  1.95787e-07  6.81144e+06
       1047.3000  1.95787e-07  6.81536e+06
       1047.4000  1.95787e-07  6.81927e+06
       1047.5000  1.77159e-07  6.17577e+06
       1047.6000  1.77159e-07  6.17931e+06
       1047.7000  1.77159e-07  6.18462e+06
       1047.8000  1.77159e-07  6.18994e+06
       1047.9000  1.77159e-07  6.19525e+06
       1048.0000  1.77159e-07  6.20234e+06
       1048.1000  1.77159e-07  6.20234e+06
       1048.2000  1.77159e-07  6.20234e+06
       1048.3000  1.77159e-07  6.20234e+06
       1048.4000  1.77159e-07  6.20057e+06
       1048.5000  1.58538e-07  5.54885e+06
       1048.6000  1.58538e-07  5.54885e+06
       1048.7000  1.58538e-07  5.54885e+06
       1048.8000  1.58501e-07  5.54754e+06
       1048.9000  1.58501e-07  5.54754e+06
       1049.0000  1.58501e-07  5.54595e+06
       1049.1000  1.58501e-07  5.54595e+06
       1049.2000  1.58501e-07  5.54595e+06
       1049.3000  1.58501e-07  5.54437e+06
       1049.4000  1.58501e-07  5.54437e+06
       1049.5000  1.39884e-07  4.89314e+06
       1049.6000  1.39884e-07  4.89174e+06
       1049.7000  1.39884e-07  4.89174e+06
       1049.8000  1.39884e-07  4.89174e+06
       1049.9000  1.39884e-07  4.89035e+06
       1050.0000  1.39884e-07  4.89035e+06
       1050.1000  1.39884e-07  4.88895e+06
       1050.2000  1.39884e-07  4.88895e+06
       1050.3000  1.39884e-07  4.88755e+06
       1050.4000  1.39884e-07  4.88615e+06
       1050.5000  1.21219e-07  4.23418e+06
       1050.6000  1.21219e-07  4.23297e+06
       1050.7000  1.21219e-07  4.23297e+06
       1050.8000  1.21219e-07  4.23176e+06
       1050.9000  1.21219e-07  4.23055e+06
       1051.0000  1.21219e-07  4.23055e+06
       1051.1000  1.21219e-07  4.22934e+06
       1051.2000  1.21219e-07  4.22934e+06
       1051.3000  1.20768e-07  4.21239e+06
       1051.4000  1.20768e-07  4.21118e+06
       1051.5000  1.02199e-07  3.56368e+06
       1051.6000  1.02199e-07  3.56265e+06
       1051.7000  1.02199e-07  3.56163e+06
       1051.8000  1.02199e-07  3.56163e+06
       1051.9000  1.02199e-07  3.56061e+06
       1052.0000  1.02199e-07  3.56061e+06
       1052.1000  1.02199e-07  3.55959e+06
       1052.2000  1.02199e-07  3.55857e+06
       1052.3000  1.02199e-07  3.55857e+06
       1052.4000  1.02199e-07  3.55754e+06
       1052.5000  8.36362e-08  2.91054e+06
       1052.6000  8.36362e-08  2.91054e+06
       1052.7000  8.36362e-08  2.90970e+06
       1052.8000  8.36362e-08  2.90887e+06
       1052.9000  8.36362e-08  2.90887e+06
       1053.0000  8.36362e-08  2.90803e+06
       1053.1000  8.36362e-08  2.90803e+06
       1053.2000  8.36362e-08  2.90720e+06
       1053.3000  8.36362e-08  2.90636e+06
       1053.4000  8.36362e-08  2.90636e+06
       1053.5000  6.50544e-08  2.25999e+06
       1053.6000  6.50544e-08  2.25934e+06
       1053.7000  6.50544e-08  2.25934e+06
       1053.8000  6.46137e-08  2.24339e+06
       1053.9000  6.46137e-08  2.24274e+06
       1054.0000  6.46137e-08  2.24274e+06
       1054.1000  6.46137e-08  2.24403e+06
       1054.2000  6.46137e-08  2.24468e+06
       1054.3000  6.46137e-08  2.24597e+06
       1054.4000  6.46137e-08  2.24726e+06
       1054.5000  4.61498e-08  1.60555e+06
       1054.6000  4.61498e-08  1.60601e+06
       1054.7000  4.61498e-08  1.60647e+06
       1054.8000  4.61498e-08  1.60694e+06
       1054.9000  4.61498e-08  1.60740e+06
       1055.0000  4.61498e-08  1.60786e+06
       1055.1000  4.61498e-08  1.60786e+06
       1055.2000  4.61498e-08  1.60786e+06
       1055.3000  4.61498e-08  1.60832e+06
       1055.4000  4.61498e-08  1.60832e+06
       1055.5000  2.76998e-08      965063.
       1055.6000  2.76998e-08      965063.
       1055.7000  2.76998e-08      965063.
       1055.8000  2.76998e-08      964786.
       1055.9000  2.76998e-08      964509.
       1056.0000  2.76998e-08      964232.
       1056.1000  2.76998e-08      963401.
       1056.2000  2.76998e-08      962570.
       1056.3000  2.74190e-08      951989.
       1056.4000  2.74190e-08      950892.
       1056.5000  9.13827e-09      316641.
       1056.6000  9.13827e-09      316458.
       1056.7000  9.13827e-09      316184.
       1056.8000  9.13827e-09      315910.
       1056.9000  9.13827e-09      315636.
       1057.0000  9.13827e-09      315453.
