PDS_VERSION_ID         = PDS3
RECORD_TYPE            = STREAM
OBJECT                 = TEXT
  PUBLICATION_DATE     = 2014-04-25
  INTERCHANGE_FORMAT   = ASCII
  NOTE                 = "System transmission vs. wavelength."
END_OBJECT             = TEXT
END
    
The systrans directory contains the non-wavelength-integrated system 
transmission values (QE*optics*filter1*filter2) for each filter combination. 
The naming convention for these files is as follows:

<camera><filter 1><filter 2>_systrans.tab

where <camera> is "issna" or "isswa," and <filter 1> and <filter 2> represent
the filter names. For polarized filter combinations, values are given for the
parallel orientation of the filter (full transmission), with values for the 
perpendicular (blocking) orientation provided in files with subscript 
"_b_systrans.tab". 

Columns in systrans files are as follows:

 1st column: Wavelength (nm)  
 2nd column: Transmitted Flux
 3rd column: Transmitted Flux * Solar Flux (phot per cm^2-s-angstrom at 1 AU)

The solar spectrum used for this calculation is provided in solarflux.tab.

\begindata
       661.00000  6.56428e-06  3.42721e+08
       661.10000  6.56428e-06  3.42524e+08
       661.20000  6.56428e-06  3.42262e+08
       661.30000  6.54799e-06  3.41216e+08
       661.40000  6.54799e-06  3.41019e+08
       661.50000  6.54232e-06  3.40528e+08
       661.60000  6.54232e-06  3.40397e+08
       661.70000  6.54232e-06  3.40200e+08
       661.80000  6.54232e-06  3.40070e+08
       661.90000  6.54232e-06  3.39939e+08
       662.00000  6.54232e-06  3.39808e+08
       662.10000  6.54232e-06  3.39677e+08
       662.20000  6.54232e-06  3.39546e+08
       662.30000  6.54232e-06  3.39481e+08
       662.40000  6.54232e-06  3.39415e+08
       662.50000  1.08967e-05  5.65103e+08
       662.60000  1.08967e-05  5.65103e+08
       662.70000  1.08967e-05  5.64994e+08
       662.80000  1.08967e-05  5.64885e+08
       662.90000  1.08967e-05  5.64885e+08
       663.00000  1.08967e-05  5.64885e+08
       663.10000  1.08967e-05  5.65321e+08
       663.20000  1.08967e-05  5.65648e+08
       663.30000  1.08967e-05  5.66084e+08
       663.40000  1.08967e-05  5.66411e+08
       663.50000  8.71063e-06  4.53040e+08
       663.60000  8.71063e-06  4.53301e+08
       663.70000  8.71063e-06  4.53475e+08
       663.80000  8.69205e-06  4.52769e+08
       663.90000  8.69205e-06  4.52943e+08
       664.00000  8.69205e-06  4.53030e+08
       664.10000  8.69205e-06  4.53204e+08
       664.20000  8.69205e-06  4.53291e+08
       664.30000  8.69205e-06  4.53377e+08
       664.40000  8.69205e-06  4.53464e+08
       664.50000  8.69021e-06  4.53368e+08
       664.60000  8.69021e-06  4.53368e+08
       664.70000  8.69021e-06  4.53368e+08
       664.80000  8.69021e-06  4.53368e+08
       664.90000  8.69021e-06  4.53368e+08
       665.00000  8.69021e-06  4.53281e+08
       665.10000  8.69021e-06  4.53194e+08
       665.20000  8.69021e-06  4.53107e+08
       665.30000  8.69021e-06  4.52934e+08
       665.40000  8.69021e-06  4.52760e+08
       665.50000  4.33819e-06  2.25933e+08
       665.60000  4.33819e-06  2.25846e+08
       665.70000  4.33819e-06  2.25716e+08
       665.80000  4.33819e-06  2.25629e+08
       665.90000  4.33819e-06  2.25499e+08
       666.00000  4.33819e-06  2.25325e+08
       666.10000  4.33819e-06  2.25195e+08
       666.20000  4.33819e-06  2.25022e+08
       666.30000  4.32729e-06  2.24283e+08
       666.40000  4.32729e-06  2.24110e+08
       666.50000  6.51928e-07  3.37308e+07
       666.60000  6.51928e-07  3.36982e+07
       666.70000  6.51928e-07  3.36656e+07
       666.80000  6.51928e-07  3.36330e+07
       666.90000  6.51928e-07  3.36004e+07
       667.00000  6.51928e-07  3.35613e+07
       667.10000  6.51928e-07  3.36004e+07
       667.20000  6.51928e-07  3.36330e+07
       667.30000  6.51928e-07  3.36656e+07
       667.40000  6.51928e-07  3.36982e+07
       667.50000  6.48089e-06  3.35321e+08
       667.60000  6.48089e-06  3.35581e+08
       667.70000  6.48089e-06  3.35840e+08
       667.80000  6.48089e-06  3.36034e+08
       667.90000  6.48089e-06  3.36229e+08
       668.00000  6.48089e-06  3.36423e+08
       668.10000  6.48089e-06  3.36618e+08
       668.20000  6.48089e-06  3.36747e+08
       668.30000  6.48089e-06  3.36877e+08
       668.40000  6.48089e-06  3.36942e+08
       668.50000  5.32735e-07  2.77022e+07
       668.60000  5.32735e-07  2.77076e+07
       668.70000  5.32735e-07  2.77076e+07
       668.80000  5.31864e-07  2.76622e+07
       668.90000  5.31864e-07  2.76622e+07
       669.00000  5.31864e-07  2.76569e+07
       669.10000  5.31864e-07  2.76197e+07
       669.20000  5.31864e-07  2.75825e+07
       669.30000  5.31864e-07  2.75506e+07
       669.40000  5.31864e-07  2.75186e+07
       669.50000  1.77206e-06  9.15803e+07
       669.60000  1.77206e-06  9.14740e+07
       669.70000  1.77206e-06  9.13854e+07
       669.80000  1.77206e-06  9.12968e+07
       669.90000  1.77206e-06  9.12082e+07
       670.00000  1.77206e-06  9.11373e+07
       670.10000  1.77206e-06  9.10664e+07
       670.20000  1.77206e-06  9.09955e+07
       670.30000  1.77206e-06  9.09246e+07
       670.40000  1.77206e-06  9.08715e+07
       670.50000  2.15330e-06  1.10357e+08
       670.60000  2.15330e-06  1.10292e+08
       670.70000  2.15330e-06  1.10249e+08
       670.80000  2.15330e-06  1.10206e+08
       670.90000  2.15330e-06  1.10163e+08
       671.00000  2.15330e-06  1.10141e+08
       671.10000  2.15330e-06  1.10098e+08
       671.20000  2.15330e-06  1.10098e+08
       671.30000  2.15338e-06  1.10081e+08
       671.40000  2.15338e-06  1.10081e+08
       671.50000  6.45833e-06  3.30150e+08
       671.60000  6.45833e-06  3.30150e+08
       671.70000  6.45833e-06  3.30150e+08
       671.80000  6.45833e-06  3.30215e+08
       671.90000  6.45833e-06  3.30279e+08
       672.00000  6.45833e-06  3.30408e+08
       672.10000  6.45833e-06  3.30538e+08
       672.20000  6.45833e-06  3.30667e+08
       672.30000  6.45833e-06  3.30796e+08
       672.40000  6.45833e-06  3.30990e+08
       672.50000  1.90362e-06  9.76175e+07
       672.60000  1.90362e-06  9.76746e+07
       672.70000  1.90362e-06  9.77317e+07
       672.80000  1.90362e-06  9.78079e+07
       672.90000  1.90362e-06  9.78840e+07
       673.00000  1.90362e-06  9.79792e+07
       673.10000  1.90362e-06  9.79411e+07
       673.20000  1.90362e-06  9.79030e+07
       673.30000  1.90362e-06  9.78650e+07
       673.40000  1.90362e-06  9.78459e+07
       673.50000  3.67529e-07  1.88836e+07
       673.60000  3.67529e-07  1.88799e+07
       673.70000  3.67529e-07  1.88763e+07
       673.80000  3.67675e-07  1.88765e+07
       673.90000  3.67675e-07  1.88728e+07
       674.00000  3.67675e-07  1.88691e+07
       674.10000  3.67675e-07  1.88654e+07
       674.20000  3.67675e-07  1.88618e+07
       674.30000  3.67675e-07  1.88581e+07
       674.40000  3.67675e-07  1.88544e+07
       674.50000  6.44868e-06  3.30624e+08
       674.60000  6.44868e-06  3.30624e+08
       674.70000  6.44868e-06  3.30559e+08
       674.80000  6.44868e-06  3.30559e+08
       674.90000  6.44868e-06  3.30495e+08
       675.00000  6.44868e-06  3.30495e+08
       675.10000  6.44868e-06  3.30559e+08
       675.20000  6.44868e-06  3.30624e+08
       675.30000  6.44868e-06  3.30688e+08
       675.40000  6.44868e-06  3.30753e+08
       675.50000  6.44279e-06  3.30451e+08
       675.60000  6.44279e-06  3.30515e+08
       675.70000  6.44279e-06  3.30580e+08
       675.80000  6.44279e-06  3.30580e+08
       675.90000  6.44279e-06  3.30644e+08
       676.00000  6.44279e-06  3.30644e+08
       676.10000  6.44279e-06  3.30708e+08
       676.20000  6.44279e-06  3.30708e+08
       676.30000  6.43622e-06  3.30371e+08
       676.40000  6.43622e-06  3.30371e+08
       676.50000  8.58019e-06  4.40507e+08
       676.60000  8.58019e-06  4.40507e+08
       676.70000  8.58019e-06  4.40507e+08
       676.80000  8.58019e-06  4.40421e+08
       676.90000  8.58019e-06  4.40421e+08
       677.00000  8.58019e-06  4.40421e+08
       677.10000  8.58019e-06  4.40421e+08
       677.20000  8.58019e-06  4.40335e+08
       677.30000  8.58019e-06  4.40335e+08
       677.40000  8.58019e-06  4.40249e+08
       677.50000  6.42743e-06  3.29792e+08
       677.60000  6.42743e-06  3.29727e+08
       677.70000  6.42743e-06  3.29727e+08
       677.80000  6.42743e-06  3.29663e+08
       677.90000  6.42743e-06  3.29599e+08
       678.00000  6.42743e-06  3.29534e+08
       678.10000  6.42743e-06  3.29470e+08
       678.20000  6.42743e-06  3.29406e+08
       678.30000  6.42743e-06  3.29342e+08
       678.40000  6.42743e-06  3.29277e+08
       678.50000  9.25514e-08  4.73956e+06
       678.60000  9.25514e-08  4.73863e+06
       678.70000  9.25514e-08  4.73771e+06
       678.80000  9.25444e-08  4.73550e+06
       678.90000  9.25444e-08  4.73457e+06
       679.00000  9.25444e-08  4.73272e+06
       679.10000  9.25444e-08  4.73272e+06
       679.20000  9.25444e-08  4.73365e+06
       679.30000  9.25444e-08  4.73365e+06
       679.40000  9.25444e-08  4.73365e+06
       679.50000  4.27739e-06  2.18789e+08
       679.60000  4.27739e-06  2.18789e+08
       679.70000  4.27739e-06  2.18789e+08
       679.80000  4.27739e-06  2.18789e+08
       679.90000  4.27739e-06  2.18789e+08
       680.00000  4.27739e-06  2.18746e+08
       680.10000  4.27739e-06  2.18746e+08
       680.20000  4.27739e-06  2.18746e+08
       680.30000  4.27739e-06  2.18703e+08
       680.40000  4.27739e-06  2.18703e+08
       680.50000  4.27997e-06  2.18792e+08
       680.60000  4.27997e-06  2.18792e+08
       680.70000  4.27997e-06  2.18749e+08
       680.80000  4.27997e-06  2.18706e+08
       680.90000  4.27997e-06  2.18664e+08
       681.00000  4.27997e-06  2.18664e+08
       681.10000  4.27997e-06  2.18621e+08
       681.20000  4.27997e-06  2.18578e+08
       681.30000  4.27956e-06  2.18557e+08
       681.40000  4.27956e-06  2.18514e+08
       681.50000  1.06922e-05  5.45839e+08
       681.60000  1.06922e-05  5.45732e+08
       681.70000  1.06922e-05  5.45625e+08
       681.80000  1.06922e-05  5.45412e+08
       681.90000  1.06922e-05  5.45305e+08
       682.00000  1.06922e-05  5.45198e+08
       682.10000  1.06922e-05  5.44984e+08
       682.20000  1.06922e-05  5.44770e+08
       682.30000  1.06922e-05  5.44663e+08
       682.40000  1.06922e-05  5.44449e+08
       682.50000  4.28022e-06  2.17863e+08
       682.60000  4.28022e-06  2.17778e+08
       682.70000  4.28022e-06  2.17692e+08
       682.80000  4.28022e-06  2.17606e+08
       682.90000  4.28022e-06  2.17478e+08
       683.00000  4.28022e-06  2.17392e+08
       683.10000  4.28022e-06  2.17307e+08
       683.20000  4.28022e-06  2.17178e+08
       683.30000  4.28022e-06  2.17050e+08
       683.40000  4.28022e-06  2.16922e+08
       683.50000  4.27751e-06  2.16699e+08
       683.60000  4.27751e-06  2.16570e+08
       683.70000  4.27751e-06  2.16442e+08
       683.80000  4.27423e-06  2.16105e+08
       683.90000  4.27423e-06  2.15977e+08
       684.00000  4.27423e-06  2.15849e+08
       684.10000  4.27423e-06  2.15678e+08
       684.20000  4.27423e-06  2.15549e+08
       684.30000  4.27423e-06  2.15378e+08
       684.40000  4.27423e-06  2.15250e+08
       684.50000  8.55681e-06  4.30579e+08
       684.60000  8.55681e-06  4.30236e+08
       684.70000  8.55681e-06  4.29894e+08
       684.80000  8.55681e-06  4.29552e+08
       684.90000  8.55681e-06  4.29124e+08
       685.00000  8.55681e-06  4.28782e+08
       685.10000  8.55681e-06  4.29124e+08
       685.20000  8.55681e-06  4.29552e+08
       685.30000  8.55681e-06  4.29894e+08
       685.40000  8.55681e-06  4.30151e+08
       685.50000  8.55589e-06  4.30447e+08
       685.60000  8.55589e-06  4.30789e+08
       685.70000  8.55589e-06  4.31046e+08
       685.80000  8.55589e-06  4.31302e+08
       685.90000  8.55589e-06  4.31559e+08
       686.00000  8.55589e-06  4.31816e+08
       686.10000  8.55589e-06  4.32072e+08
       686.20000  8.55589e-06  4.32244e+08
       686.30000  8.54690e-06  4.32046e+08
       686.40000  8.54690e-06  4.32217e+08
       686.50000  4.27259e-06  2.16150e+08
       686.60000  4.27259e-06  2.16236e+08
       686.70000  4.27259e-06  2.16321e+08
       686.80000  4.27259e-06  2.16364e+08
       686.90000  4.27259e-06  2.16449e+08
       687.00000  4.27259e-06  2.16492e+08
       687.10000  4.27259e-06  2.16535e+08
       687.20000  4.27259e-06  2.16535e+08
       687.30000  4.27259e-06  2.16535e+08
       687.40000  4.27259e-06  2.16535e+08
       687.50000  2.05450e-06  1.04122e+08
       687.60000  2.05450e-06  1.04122e+08
       687.70000  2.05450e-06  1.04122e+08
       687.80000  2.05450e-06  1.04122e+08
       687.90000  2.05450e-06  1.04122e+08
       688.00000  2.05450e-06  1.04101e+08
       688.10000  2.05450e-06  1.04101e+08
       688.20000  2.05450e-06  1.04101e+08
       688.30000  2.05450e-06  1.04081e+08
       688.40000  2.05450e-06  1.04081e+08
       688.50000  1.06855e-05  5.41219e+08
       688.60000  1.06855e-05  5.41112e+08
       688.70000  1.06855e-05  5.41112e+08
       688.80000  1.06718e-05  5.40315e+08
       688.90000  1.06718e-05  5.40208e+08
       689.00000  1.06718e-05  5.40102e+08
       689.10000  1.06718e-05  5.39995e+08
       689.20000  1.06718e-05  5.39888e+08
       689.30000  1.06718e-05  5.39781e+08
       689.40000  1.06718e-05  5.39675e+08
       689.50000  4.26782e-06  2.15781e+08
       689.60000  4.26782e-06  2.15738e+08
       689.70000  4.26782e-06  2.15653e+08
       689.80000  4.26782e-06  2.15610e+08
       689.90000  4.26782e-06  2.15568e+08
       690.00000  4.26782e-06  2.15482e+08
       690.10000  4.26782e-06  2.15397e+08
       690.20000  4.26782e-06  2.15354e+08
       690.30000  4.26782e-06  2.15269e+08
       690.40000  4.26782e-06  2.15184e+08
       690.50000  6.40435e-06  3.22843e+08
       690.60000  6.40435e-06  3.22715e+08
       690.70000  6.40435e-06  3.22587e+08
       690.80000  6.40435e-06  3.22459e+08
       690.90000  6.40435e-06  3.22331e+08
       691.00000  6.40435e-06  3.22203e+08
       691.10000  6.40435e-06  3.22331e+08
       691.20000  6.40435e-06  3.22395e+08
       691.30000  6.39823e-06  3.22215e+08
       691.40000  6.39823e-06  3.22279e+08
       691.50000  6.40237e-06  3.22551e+08
       691.60000  6.40237e-06  3.22679e+08
       691.70000  6.40237e-06  3.22743e+08
       691.80000  6.40237e-06  3.22807e+08
       691.90000  6.40237e-06  3.22872e+08
       692.00000  6.40237e-06  3.22872e+08
       692.10000  6.40237e-06  3.22936e+08
       692.20000  6.40237e-06  3.23000e+08
       692.30000  6.40237e-06  3.23000e+08
       692.40000  6.40237e-06  3.23000e+08
       692.50000  6.40269e-06  3.23080e+08
       692.60000  6.40269e-06  3.23080e+08
       692.70000  6.40269e-06  3.23080e+08
       692.80000  6.40269e-06  3.23080e+08
       692.90000  6.40269e-06  3.23080e+08
       693.00000  6.40269e-06  3.23016e+08
       693.10000  6.40269e-06  3.23016e+08
       693.20000  6.40269e-06  3.22952e+08
       693.30000  6.40269e-06  3.22888e+08
       693.40000  6.40269e-06  3.22824e+08
       693.50000  6.40422e-06  3.22837e+08
       693.60000  6.40422e-06  3.22773e+08
       693.70000  6.40422e-06  3.22709e+08
       693.80000  6.37881e-06  3.21365e+08
       693.90000  6.37881e-06  3.21237e+08
       694.00000  6.37881e-06  3.21173e+08
       694.10000  6.37881e-06  3.21109e+08
       694.20000  6.37881e-06  3.20982e+08
       694.30000  6.37881e-06  3.20918e+08
       694.40000  6.37881e-06  3.20791e+08
       694.50000  4.25128e-06  2.13712e+08
       694.60000  4.25128e-06  2.13669e+08
       694.70000  4.25128e-06  2.13584e+08
       694.80000  4.25128e-06  2.13499e+08
       694.90000  4.25128e-06  2.13414e+08
       695.00000  4.25128e-06  2.13329e+08
       695.10000  4.25128e-06  2.13244e+08
       695.20000  4.25128e-06  2.13159e+08
       695.30000  4.25128e-06  2.13032e+08
       695.40000  4.25128e-06  2.12946e+08
       695.50000  8.50808e-06  4.26000e+08
       695.60000  8.50808e-06  4.25744e+08
       695.70000  8.50808e-06  4.25574e+08
       695.80000  8.50808e-06  4.25319e+08
       695.90000  8.50808e-06  4.25064e+08
       696.00000  8.50808e-06  4.24894e+08
       696.10000  8.50808e-06  4.24638e+08
       696.20000  8.50808e-06  4.24383e+08
       696.30000  8.49973e-06  4.23711e+08
       696.40000  8.49973e-06  4.23456e+08
       696.50000  4.24936e-06  2.11576e+08
       696.60000  4.24936e-06  2.11448e+08
       696.70000  4.24936e-06  2.11278e+08
       696.80000  4.24936e-06  2.11151e+08
       696.90000  4.24936e-06  2.11023e+08
       697.00000  4.24936e-06  2.10853e+08
       697.10000  4.24936e-06  2.11151e+08
       697.20000  4.24936e-06  2.11363e+08
       697.30000  4.24936e-06  2.11618e+08
       697.40000  4.24936e-06  2.11831e+08
       697.50000  1.27494e-05  6.36194e+08
       697.60000  1.27494e-05  6.36704e+08
       697.70000  1.27494e-05  6.37214e+08
       697.80000  1.27494e-05  6.37597e+08
       697.90000  1.27494e-05  6.37979e+08
       698.00000  1.27494e-05  6.38234e+08
       698.10000  1.27494e-05  6.38489e+08
       698.20000  1.27494e-05  6.38744e+08
       698.30000  1.27494e-05  6.38872e+08
       698.40000  1.27494e-05  6.38999e+08
       698.50000  1.27484e-05  6.39078e+08
       698.60000  1.27484e-05  6.39078e+08
       698.70000  1.27484e-05  6.38950e+08
       698.80000  1.27266e-05  6.37732e+08
       698.90000  1.27266e-05  6.37605e+08
       699.00000  1.27266e-05  6.37350e+08
       699.10000  1.27266e-05  6.36205e+08
       699.20000  1.27266e-05  6.34932e+08
       699.30000  1.27266e-05  6.33914e+08
       699.40000  1.27266e-05  6.32769e+08
       699.50000  4.24377e-06  2.10661e+08
       699.60000  4.24377e-06  2.10321e+08
       699.70000  4.24377e-06  2.10024e+08
       699.80000  4.24377e-06  2.09727e+08
       699.90000  4.24377e-06  2.09430e+08
       700.00000  4.24377e-06  2.09175e+08
       700.10000  4.24377e-06  2.08921e+08
       700.20000  4.24377e-06  2.08666e+08
       700.30000  4.24377e-06  2.08454e+08
       700.40000  4.24377e-06  2.08242e+08
       700.50000  6.36932e-06  3.12224e+08
       700.60000  6.36932e-06  3.11969e+08
       700.70000  6.36932e-06  3.11714e+08
       700.80000  6.36932e-06  3.11523e+08
       700.90000  6.36932e-06  3.11332e+08
       701.00000  6.36932e-06  3.11141e+08
       701.10000  6.36932e-06  3.11077e+08
       701.20000  6.36932e-06  3.11014e+08
       701.30000  6.36497e-06  3.10738e+08
       701.40000  6.36497e-06  3.10738e+08
       701.50000  6.36408e-06  3.10694e+08
       701.60000  6.36408e-06  3.10694e+08
       701.70000  6.36408e-06  3.10694e+08
       701.80000  6.36408e-06  3.10758e+08
       701.90000  6.36408e-06  3.10758e+08
       702.00000  6.36408e-06  3.10822e+08
       702.10000  6.36408e-06  3.10949e+08
       702.20000  6.36408e-06  3.11013e+08
       702.30000  6.36408e-06  3.11140e+08
       702.40000  6.36408e-06  3.11203e+08
       702.50000  8.48806e-06  4.15236e+08
       702.60000  8.48806e-06  4.15491e+08
       702.70000  8.48806e-06  4.15660e+08
       702.80000  8.48806e-06  4.15915e+08
       702.90000  8.48806e-06  4.16170e+08
       703.00000  8.48806e-06  4.16424e+08
       703.10000  8.48806e-06  4.17188e+08
       703.20000  8.48806e-06  4.17952e+08
       703.30000  8.48806e-06  4.18631e+08
       703.40000  8.48806e-06  4.19310e+08
       703.50000  8.49108e-06  4.20054e+08
       703.60000  8.49108e-06  4.20733e+08
       703.70000  8.49108e-06  4.21242e+08
       703.80000  8.46822e-06  4.20701e+08
       703.90000  8.46822e-06  4.21209e+08
       704.00000  8.46822e-06  4.21633e+08
       704.10000  8.46822e-06  4.22141e+08
       704.20000  8.46822e-06  4.22564e+08
       704.30000  8.46822e-06  4.22903e+08
       704.40000  8.46822e-06  4.23242e+08
       704.50000  1.12711e-06  5.63781e+07
       704.60000  1.12711e-06  5.64232e+07
       704.70000  1.12711e-06  5.64570e+07
       704.80000  1.12711e-06  5.64795e+07
       704.90000  1.12711e-06  5.65134e+07
       705.00000  1.12711e-06  5.65359e+07
       705.10000  1.12711e-06  5.65472e+07
       705.20000  1.12711e-06  5.65584e+07
       705.30000  1.12711e-06  5.65697e+07
       705.40000  1.12711e-06  5.65810e+07
       705.50000  6.35179e-06  3.18860e+08
       705.60000  6.35179e-06  3.18860e+08
       705.70000  6.35179e-06  3.18797e+08
       705.80000  6.35179e-06  3.18733e+08
       705.90000  6.35179e-06  3.18669e+08
       706.00000  6.35179e-06  3.18542e+08
       706.10000  6.35179e-06  3.18415e+08
       706.20000  6.35179e-06  3.18225e+08
       706.30000  6.35657e-06  3.18273e+08
       706.40000  6.35657e-06  3.18083e+08
       706.50000  1.06013e-05  5.30064e+08
       706.60000  1.06013e-05  5.29640e+08
       706.70000  1.06013e-05  5.29216e+08
       706.80000  1.06013e-05  5.28686e+08
       706.90000  1.06013e-05  5.28155e+08
       707.00000  1.06013e-05  5.27625e+08
       707.10000  1.06013e-05  5.27201e+08
       707.20000  1.06013e-05  5.26883e+08
       707.30000  1.06013e-05  5.26459e+08
       707.40000  1.06013e-05  5.26141e+08
       707.50000  6.36081e-06  3.15496e+08
       707.60000  6.36081e-06  3.15305e+08
       707.70000  6.36081e-06  3.15178e+08
       707.80000  6.36081e-06  3.14987e+08
       707.90000  6.36081e-06  3.14860e+08
       708.00000  6.36081e-06  3.14733e+08
       708.10000  6.36081e-06  3.14606e+08
       708.20000  6.36081e-06  3.14478e+08
       708.30000  6.36081e-06  3.14351e+08
       708.40000  6.36081e-06  3.14224e+08
       708.50000  2.12022e-06  1.04718e+08
       708.60000  2.12022e-06  1.04675e+08
       708.70000  2.12022e-06  1.04654e+08
       708.80000  2.11300e-06  1.04277e+08
       708.90000  2.11300e-06  1.04255e+08
       709.00000  2.11300e-06  1.04255e+08
       709.10000  2.11300e-06  1.04298e+08
       709.20000  2.11300e-06  1.04340e+08
       709.30000  2.11300e-06  1.04361e+08
       709.40000  2.11300e-06  1.04403e+08
       709.50000  4.22536e-06  2.08817e+08
       709.60000  4.22536e-06  2.08902e+08
       709.70000  4.22536e-06  2.08944e+08
       709.80000  4.22536e-06  2.08986e+08
       709.90000  4.22536e-06  2.09029e+08
       710.00000  4.22536e-06  2.09071e+08
       710.10000  4.22536e-06  2.09113e+08
       710.20000  4.22536e-06  2.09155e+08
       710.30000  4.22536e-06  2.09155e+08
       710.40000  4.22536e-06  2.09198e+08
       710.50000  6.34276e-06  3.14030e+08
       710.60000  6.34276e-06  3.14030e+08
       710.70000  6.34276e-06  3.14030e+08
       710.80000  6.34276e-06  3.14030e+08
       710.90000  6.34276e-06  3.14030e+08
       711.00000  6.34276e-06  3.14030e+08
       711.10000  6.34276e-06  3.14030e+08
       711.20000  6.34276e-06  3.13967e+08
       711.30000  6.34413e-06  3.14034e+08
       711.40000  6.34413e-06  3.13971e+08
       711.50000  1.05701e-05  5.23007e+08
       711.60000  1.05701e-05  5.22901e+08
       711.70000  1.05701e-05  5.22795e+08
       711.80000  1.05701e-05  5.22690e+08
       711.90000  1.05701e-05  5.22584e+08
       712.00000  1.05701e-05  5.22373e+08
       712.10000  1.05701e-05  5.22267e+08
       712.20000  1.05701e-05  5.22055e+08
       712.30000  1.05701e-05  5.21950e+08
       712.40000  1.05701e-05  5.21738e+08
       712.50000  6.34509e-06  3.13067e+08
       712.60000  6.34509e-06  3.12940e+08
       712.70000  6.34509e-06  3.12749e+08
       712.80000  6.34509e-06  3.12622e+08
       712.90000  6.34509e-06  3.12496e+08
       713.00000  6.34509e-06  3.12305e+08
       713.10000  6.34509e-06  3.12305e+08
       713.20000  6.34509e-06  3.12305e+08
       713.30000  6.34509e-06  3.12305e+08
       713.40000  6.34509e-06  3.12242e+08
       713.50000  8.45738e-06  4.16188e+08
       713.60000  8.45738e-06  4.16188e+08
       713.70000  8.45738e-06  4.16103e+08
       713.80000  8.45541e-06  4.16006e+08
       713.90000  8.45541e-06  4.15921e+08
       714.00000  8.45541e-06  4.15921e+08
       714.10000  8.45541e-06  4.15837e+08
       714.20000  8.45541e-06  4.15752e+08
       714.30000  8.45541e-06  4.15752e+08
       714.40000  8.45541e-06  4.15668e+08
       714.50000  4.22813e-06  2.07813e+08
       714.60000  4.22813e-06  2.07770e+08
       714.70000  4.22813e-06  2.07770e+08
       714.80000  4.22813e-06  2.07728e+08
       714.90000  4.22813e-06  2.07686e+08
       715.00000  4.22813e-06  2.07644e+08
       715.10000  4.22813e-06  2.07601e+08
       715.20000  4.22813e-06  2.07601e+08
       715.30000  4.22813e-06  2.07601e+08
       715.40000  4.22813e-06  2.07559e+08
       715.50000  6.34632e-06  3.11477e+08
       715.60000  6.34632e-06  3.11414e+08
       715.70000  6.34632e-06  3.11350e+08
       715.80000  6.34632e-06  3.11287e+08
       715.90000  6.34632e-06  3.11223e+08
       716.00000  6.34632e-06  3.11097e+08
       716.10000  6.34632e-06  3.11033e+08
       716.20000  6.34632e-06  3.10906e+08
       716.30000  6.33717e-06  3.10331e+08
       716.40000  6.33717e-06  3.10204e+08
       716.50000  8.44917e-06  4.13418e+08
       716.60000  8.44917e-06  4.13249e+08
       716.70000  8.44917e-06  4.13080e+08
       716.80000  8.44917e-06  4.12827e+08
       716.90000  8.44917e-06  4.12658e+08
       717.00000  8.44917e-06  4.12404e+08
       717.10000  8.44917e-06  4.12151e+08
       717.20000  8.44917e-06  4.11897e+08
       717.30000  8.44917e-06  4.11644e+08
       717.40000  8.44917e-06  4.11390e+08
       717.50000  6.33652e-06  3.08335e+08
       717.60000  6.33652e-06  3.08082e+08
       717.70000  6.33652e-06  3.07892e+08
       717.80000  6.33652e-06  3.07638e+08
       717.90000  6.33652e-06  3.07385e+08
       718.00000  6.33652e-06  3.07131e+08
       718.10000  6.33652e-06  3.06878e+08
       718.20000  6.33652e-06  3.06624e+08
       718.30000  6.33652e-06  3.06371e+08
       718.40000  6.33652e-06  3.06054e+08
       718.50000  8.45240e-06  4.07913e+08
       718.60000  8.45240e-06  4.07490e+08
       718.70000  8.45240e-06  4.07068e+08
       718.80000  8.41768e-06  4.04975e+08
       718.90000  8.41768e-06  4.04554e+08
       719.00000  8.41768e-06  4.04133e+08
       719.10000  8.41768e-06  4.04133e+08
       719.20000  8.41768e-06  4.04133e+08
       719.30000  8.41768e-06  4.04133e+08
       719.40000  8.41768e-06  4.04217e+08
       719.50000  4.20869e-06  2.02101e+08
       719.60000  4.20869e-06  2.02143e+08
       719.70000  4.20869e-06  2.02143e+08
       719.80000  4.20869e-06  2.02186e+08
       719.90000  4.20869e-06  2.02228e+08
       720.00000  4.20869e-06  2.02312e+08
       720.10000  4.20869e-06  2.02354e+08
       720.20000  4.20869e-06  2.02396e+08
       720.30000  4.20869e-06  2.02480e+08
       720.40000  4.20869e-06  2.02522e+08
       720.50000  1.05230e-05  5.06578e+08
       720.60000  1.05230e-05  5.06789e+08
       720.70000  1.05230e-05  5.06999e+08
       720.80000  1.05230e-05  5.07210e+08
       720.90000  1.05230e-05  5.07525e+08
       721.00000  1.05230e-05  5.07736e+08
       721.10000  1.05230e-05  5.08262e+08
       721.20000  1.05230e-05  5.08788e+08
       721.30000  1.05016e-05  5.08277e+08
       721.40000  1.05016e-05  5.08698e+08
       721.50000  1.05082e-05  5.09543e+08
       721.60000  1.05082e-05  5.09963e+08
       721.70000  1.05082e-05  5.10383e+08
       721.80000  1.05082e-05  5.10909e+08
       721.90000  1.05082e-05  5.11329e+08
       722.00000  1.05082e-05  5.11644e+08
       722.10000  1.05082e-05  5.12064e+08
       722.20000  1.05082e-05  5.12485e+08
       722.30000  1.05082e-05  5.12800e+08
       722.40000  1.05082e-05  5.13115e+08
       722.50000  8.40528e-06  4.10682e+08
       722.60000  8.40528e-06  4.11018e+08
       722.70000  8.40528e-06  4.11187e+08
       722.80000  8.40528e-06  4.11439e+08
       722.90000  8.40528e-06  4.11691e+08
       723.00000  8.40528e-06  4.11859e+08
       723.10000  8.40528e-06  4.12111e+08
       723.20000  8.40528e-06  4.12279e+08
       723.30000  8.40528e-06  4.12447e+08
       723.40000  8.40528e-06  4.12615e+08
       723.50000  4.20292e-06  2.06405e+08
       723.60000  4.20292e-06  2.06447e+08
       723.70000  4.20292e-06  2.06531e+08
       723.80000  4.19002e-06  2.05940e+08
       723.90000  4.19002e-06  2.05982e+08
       724.00000  4.19002e-06  2.06023e+08
       724.10000  4.19002e-06  2.06065e+08
       724.20000  4.19002e-06  2.06107e+08
       724.30000  4.19002e-06  2.06149e+08
       724.40000  4.19002e-06  2.06191e+08
       724.50000  8.38310e-06  4.12533e+08
       724.60000  8.38310e-06  4.12533e+08
       724.70000  8.38310e-06  4.12533e+08
       724.80000  8.38310e-06  4.12533e+08
       724.90000  8.38310e-06  4.12533e+08
       725.00000  8.38310e-06  4.12533e+08
       725.10000  8.38310e-06  4.12700e+08
       725.20000  8.38310e-06  4.12868e+08
       725.30000  8.38310e-06  4.12952e+08
       725.40000  8.38310e-06  4.13119e+08
       725.50000  6.28909e-06  3.09989e+08
       725.60000  6.28909e-06  3.10052e+08
       725.70000  6.28909e-06  3.10052e+08
       725.80000  6.28909e-06  3.10115e+08
       725.90000  6.28909e-06  3.10115e+08
       726.00000  6.28909e-06  3.10115e+08
       726.10000  6.28909e-06  3.10115e+08
       726.20000  6.28909e-06  3.10115e+08
       726.30000  6.27272e-06  3.09245e+08
       726.40000  6.27272e-06  3.09183e+08
       726.50000  6.27356e-06  3.09161e+08
       726.60000  6.27356e-06  3.09098e+08
       726.70000  6.27356e-06  3.09035e+08
       726.80000  6.27356e-06  3.08910e+08
       726.90000  6.27356e-06  3.08784e+08
       727.00000  6.27356e-06  3.08659e+08
       727.10000  6.27356e-06  3.08220e+08
       727.20000  6.27356e-06  3.07781e+08
       727.30000  6.27356e-06  3.07342e+08
       727.40000  6.27356e-06  3.06965e+08
       727.50000  6.27287e-06  3.06555e+08
       727.60000  6.27287e-06  3.06179e+08
       727.70000  6.27287e-06  3.05865e+08
       727.80000  6.27287e-06  3.05551e+08
       727.90000  6.27287e-06  3.05238e+08
       728.00000  6.27287e-06  3.04987e+08
       728.10000  6.27287e-06  3.04736e+08
       728.20000  6.27287e-06  3.04485e+08
       728.30000  6.27287e-06  3.04234e+08
       728.40000  6.27287e-06  3.04046e+08
       728.50000  1.04572e-05  5.06545e+08
       728.60000  1.04572e-05  5.06336e+08
       728.70000  1.04572e-05  5.06022e+08
       728.80000  1.04594e-05  5.06024e+08
       728.90000  1.04594e-05  5.05815e+08
       729.00000  1.04594e-05  5.05710e+08
       729.10000  1.04594e-05  5.05606e+08
       729.20000  1.04594e-05  5.05501e+08
       729.30000  1.04594e-05  5.05501e+08
       729.40000  1.04594e-05  5.05396e+08
       729.50000  6.27433e-06  3.03238e+08
       729.60000  6.27433e-06  3.03238e+08
       729.70000  6.27433e-06  3.03301e+08
       729.80000  6.27433e-06  3.03364e+08
       729.90000  6.27433e-06  3.03489e+08
       730.00000  6.27433e-06  3.03615e+08
       730.10000  6.27433e-06  3.03740e+08
       730.20000  6.27433e-06  3.03866e+08
       730.30000  6.27433e-06  3.04054e+08
       730.40000  6.27433e-06  3.04242e+08
       730.50000  4.18437e-06  2.03026e+08
       730.60000  4.18437e-06  2.03193e+08
       730.70000  4.18437e-06  2.03360e+08
       730.80000  4.18437e-06  2.03528e+08
       730.90000  4.18437e-06  2.03737e+08
       731.00000  4.18437e-06  2.03946e+08
       731.10000  4.18437e-06  2.03904e+08
       731.20000  4.18437e-06  2.03862e+08
       731.30000  4.18129e-06  2.03671e+08
       731.40000  4.18129e-06  2.03671e+08
       731.50000  6.27362e-06  3.05526e+08
       731.60000  6.27362e-06  3.05463e+08
       731.70000  6.27362e-06  3.05400e+08
       731.80000  6.27362e-06  3.05400e+08
       731.90000  6.27362e-06  3.05337e+08
       732.00000  6.27362e-06  3.05275e+08
       732.10000  6.27362e-06  3.05212e+08
       732.20000  6.27362e-06  3.05149e+08
       732.30000  6.27362e-06  3.05149e+08
       732.40000  6.27362e-06  3.05086e+08
       732.50000  6.27459e-06  3.05070e+08
       732.60000  6.27459e-06  3.05008e+08
       732.70000  6.27459e-06  3.04945e+08
       732.80000  6.27459e-06  3.04882e+08
       732.90000  6.27459e-06  3.04819e+08
       733.00000  6.27459e-06  3.04757e+08
       733.10000  6.27459e-06  3.04694e+08
       733.20000  6.27459e-06  3.04568e+08
       733.30000  6.27459e-06  3.04506e+08
       733.40000  6.27459e-06  3.04380e+08
       733.50000  8.36775e-06  4.05836e+08
       733.60000  8.36775e-06  4.05752e+08
       733.70000  8.36775e-06  4.05585e+08
       733.80000  8.35393e-06  4.04832e+08
       733.90000  8.35393e-06  4.04748e+08
       734.00000  8.35393e-06  4.04665e+08
       734.10000  8.35393e-06  4.04581e+08
       734.20000  8.35393e-06  4.04498e+08
       734.30000  8.35393e-06  4.04414e+08
       734.40000  8.35393e-06  4.04414e+08
       734.50000  1.79346e-06  8.68035e+07
       734.60000  1.79346e-06  8.67855e+07
       734.70000  1.79346e-06  8.67855e+07
       734.80000  1.79346e-06  8.67676e+07
       734.90000  1.79346e-06  8.67676e+07
       735.00000  1.79346e-06  8.67497e+07
       735.10000  1.79346e-06  8.67497e+07
       735.20000  1.79346e-06  8.67497e+07
       735.30000  1.79346e-06  8.67497e+07
       735.40000  1.79346e-06  8.67317e+07
       735.50000  1.36743e-06  6.61291e+07
       735.60000  1.36743e-06  6.61291e+07
       735.70000  1.36743e-06  6.61291e+07
       735.80000  1.36743e-06  6.61428e+07
       735.90000  1.36743e-06  6.61428e+07
       736.00000  1.36743e-06  6.61428e+07
       736.10000  1.36743e-06  6.61428e+07
       736.20000  1.36743e-06  6.61564e+07
       736.30000  1.36482e-06  6.60301e+07
       736.40000  1.36482e-06  6.60438e+07
       736.50000  4.16980e-06  2.01776e+08
       736.60000  4.16980e-06  2.01818e+08
       736.70000  4.16980e-06  2.01860e+08
       736.80000  4.16980e-06  2.01860e+08
       736.90000  4.16980e-06  2.01902e+08
       737.00000  4.16980e-06  2.01943e+08
       737.10000  4.16980e-06  2.01735e+08
       737.20000  4.16980e-06  2.01485e+08
       737.30000  4.16980e-06  2.01276e+08
       737.40000  4.16980e-06  2.01068e+08
       737.50000  1.04311e-05  5.02364e+08
       737.60000  1.04311e-05  5.01842e+08
       737.70000  1.04311e-05  5.01321e+08
       737.80000  1.04311e-05  5.00799e+08
       737.90000  1.04311e-05  5.00382e+08
       738.00000  1.04311e-05  4.99860e+08
       738.10000  1.04311e-05  4.99339e+08
       738.20000  1.04311e-05  4.98817e+08
       738.30000  1.04311e-05  4.98400e+08
       738.40000  1.04311e-05  4.97983e+08
       738.50000  4.17248e-06  1.98986e+08
       738.60000  4.17248e-06  1.98819e+08
       738.70000  4.17248e-06  1.98652e+08
       738.80000  4.15495e-06  1.97651e+08
       738.90000  4.15495e-06  1.97485e+08
       739.00000  4.15495e-06  1.97319e+08
       741.00000  2.07768e-06  9.73807e+07
       741.10000  2.07768e-06  9.74222e+07
       741.20000  2.07768e-06  9.74638e+07
       741.30000  2.07626e-06  9.74390e+07
       741.40000  2.07626e-06  9.75013e+07
       741.50000  2.03567e-06  9.56559e+07
       741.60000  2.03567e-06  9.57373e+07
       741.70000  2.03567e-06  9.58391e+07
       741.80000  2.03567e-06  9.59206e+07
       741.90000  2.03567e-06  9.60427e+07
       742.00000  2.03567e-06  9.61445e+07
       742.10000  2.03567e-06  9.62666e+07
       742.20000  2.03567e-06  9.64091e+07
       742.30000  2.03567e-06  9.65516e+07
       742.40000  2.03567e-06  9.66941e+07
       742.50000  6.23221e-06  2.96528e+08
       742.60000  6.23221e-06  2.97027e+08
       742.70000  6.23221e-06  2.97588e+08
       742.80000  6.23221e-06  2.98149e+08
       742.90000  6.23221e-06  2.98772e+08
       743.00000  6.23221e-06  2.99395e+08
       743.10000  6.23221e-06  2.99271e+08
       743.20000  6.23221e-06  2.99208e+08
       743.30000  6.23221e-06  2.99146e+08
       743.40000  6.23221e-06  2.99021e+08
       743.50000  2.07779e-06  9.96714e+07
       743.60000  2.07779e-06  9.96506e+07
       743.70000  2.07779e-06  9.96298e+07
       743.80000  2.07686e-06  9.95646e+07
       743.90000  2.07686e-06  9.95438e+07
       744.00000  2.07686e-06  9.95230e+07
       744.10000  2.07686e-06  9.95230e+07
       744.20000  2.07686e-06  9.95023e+07
       744.30000  2.07686e-06  9.95023e+07
       744.40000  2.07686e-06  9.95023e+07
       744.50000  2.07757e-06  9.95156e+07
       744.60000  2.07757e-06  9.95156e+07
       744.70000  2.07757e-06  9.95156e+07
       744.80000  2.07757e-06  9.95156e+07
       744.90000  2.07757e-06  9.95364e+07
       745.00000  2.07757e-06  9.95364e+07
       745.10000  2.07757e-06  9.95987e+07
       745.20000  2.07757e-06  9.96610e+07
       745.30000  2.07757e-06  9.97026e+07
       745.40000  2.07757e-06  9.97649e+07
       745.50000  4.15550e-06  1.99630e+08
       745.60000  4.15550e-06  1.99713e+08
       745.70000  4.15550e-06  1.99796e+08
       745.80000  4.15550e-06  1.99879e+08
       745.90000  4.15550e-06  1.99921e+08
       746.00000  4.15550e-06  2.00004e+08
       746.10000  4.15550e-06  2.00046e+08
       746.20000  4.15550e-06  2.00087e+08
       746.30000  4.13655e-06  1.99216e+08
       746.40000  4.13655e-06  1.99257e+08
       746.50000  1.03444e-05  4.98392e+08
       746.60000  1.03444e-05  4.98392e+08
       746.70000  1.03444e-05  4.98495e+08
       746.80000  1.03444e-05  4.98495e+08
       746.90000  1.03444e-05  4.98495e+08
       747.00000  1.03444e-05  4.98495e+08
       747.10000  1.03444e-05  4.98185e+08
       747.20000  1.03444e-05  4.97978e+08
       747.30000  1.03444e-05  4.97771e+08
       747.40000  1.03444e-05  4.97564e+08
       747.50000  2.06895e-06  9.94751e+07
       747.60000  2.06895e-06  9.94337e+07
       747.70000  2.06895e-06  9.93924e+07
       747.80000  2.06895e-06  9.93510e+07
       747.90000  2.06895e-06  9.93096e+07
       748.00000  2.06895e-06  9.92682e+07
       750.00000  4.12392e-06  1.96793e+08
       750.10000  4.12392e-06  1.96752e+08
       750.20000  4.12392e-06  1.96711e+08
       750.30000  4.12392e-06  1.96670e+08
       750.40000  4.12392e-06  1.96670e+08
       750.50000  8.25023e-06  3.93371e+08
       750.60000  8.25023e-06  3.93289e+08
       750.70000  8.25023e-06  3.93289e+08
       750.80000  8.25023e-06  3.93206e+08
       750.90000  8.25023e-06  3.93206e+08
       751.00000  8.25023e-06  3.93124e+08
       751.10000  8.25023e-06  3.93124e+08
       751.20000  8.25023e-06  3.93124e+08
       751.30000  8.23177e-06  3.92162e+08
       751.40000  8.23177e-06  3.92162e+08
       751.50000  2.04747e-06  9.75413e+07
       751.60000  2.04747e-06  9.75413e+07
       751.70000  2.04747e-06  9.75413e+07
       751.80000  2.04747e-06  9.75413e+07
       751.90000  2.04747e-06  9.75413e+07
       752.00000  2.04747e-06  9.75413e+07
       752.10000  2.04747e-06  9.75413e+07
       752.20000  2.04747e-06  9.75413e+07
       752.30000  2.04747e-06  9.75413e+07
       752.40000  2.04747e-06  9.75413e+07
       752.50000  6.11127e-06  2.91202e+08
       752.60000  6.11127e-06  2.91202e+08
       752.70000  6.11127e-06  2.91202e+08
       752.80000  6.11127e-06  2.91263e+08
       752.90000  6.11127e-06  2.91263e+08
       753.00000  6.11127e-06  2.91324e+08
       755.00000  6.04594e-06  2.88029e+08
       755.10000  6.04594e-06  2.87968e+08
       755.20000  6.04594e-06  2.87968e+08
       755.30000  6.04594e-06  2.87908e+08
       755.40000  6.04594e-06  2.87908e+08
       755.50000  8.02223e-06  3.81938e+08
       755.60000  8.02223e-06  3.81858e+08
       755.70000  8.02223e-06  3.81858e+08
       755.80000  8.02223e-06  3.81778e+08
       755.90000  8.02223e-06  3.81698e+08
       756.00000  8.02223e-06  3.81698e+08
       756.10000  8.02223e-06  3.81617e+08
       756.20000  8.02223e-06  3.81537e+08
       756.30000  8.00944e-06  3.80849e+08
       756.40000  8.00944e-06  3.80849e+08
       756.50000  3.98263e-06  1.89334e+08
       756.60000  3.98263e-06  1.89295e+08
       756.70000  3.98263e-06  1.89255e+08
       756.80000  3.98263e-06  1.89255e+08
       756.90000  3.98263e-06  1.89215e+08
       757.00000  3.98263e-06  1.89175e+08
       757.10000  3.98263e-06  1.89135e+08
       757.20000  3.98263e-06  1.89095e+08
       757.30000  3.98263e-06  1.89095e+08
       757.40000  3.98263e-06  1.89056e+08
       757.50000  1.63469e-07  7.75824e+06
       757.60000  1.63469e-07  7.75661e+06
       757.70000  1.63469e-07  7.75497e+06
       757.80000  1.63469e-07  7.75334e+06
       757.90000  1.63469e-07  7.75170e+06
       758.00000  1.63469e-07  7.75170e+06
       758.10000  1.63469e-07  7.75007e+06
       758.20000  1.63469e-07  7.74844e+06
       758.30000  1.63469e-07  7.74680e+06
       758.40000  1.63469e-07  7.74517e+06
       758.50000  9.85151e-06  4.66666e+08
       758.60000  9.85151e-06  4.66567e+08
       758.70000  9.85151e-06  4.66469e+08
       758.80000  9.82492e-06  4.65112e+08
       758.90000  9.82492e-06  4.65014e+08
       759.00000  9.82492e-06  4.64915e+08
       759.10000  9.82492e-06  4.64915e+08
       759.20000  9.82492e-06  4.64817e+08
       759.30000  9.82492e-06  4.64817e+08
       759.40000  9.82492e-06  4.64719e+08
       759.50000  3.90805e-06  1.84851e+08
       759.60000  3.90805e-06  1.84851e+08
       759.70000  3.90805e-06  1.84812e+08
       759.80000  3.90805e-06  1.84812e+08
       759.90000  3.90805e-06  1.84812e+08
       760.00000  3.90805e-06  1.84812e+08
       760.10000  3.90805e-06  1.84812e+08
       760.20000  3.90805e-06  1.84812e+08
       760.30000  3.90805e-06  1.84851e+08
       760.40000  3.90805e-06  1.84851e+08
       760.50000  9.66295e-07  4.57058e+07
       760.60000  9.66295e-07  4.57154e+07
       760.70000  9.66295e-07  4.57154e+07
       760.80000  9.66295e-07  4.57251e+07
       760.90000  9.66295e-07  4.57251e+07
       761.00000  9.66295e-07  4.57348e+07
       763.00000  7.67822e-06  3.65560e+08
       763.10000  7.67822e-06  3.65483e+08
       763.20000  7.67822e-06  3.65407e+08
       763.30000  7.67822e-06  3.65253e+08
       763.40000  7.67822e-06  3.65099e+08
       763.50000  5.72818e-06  2.72260e+08
       763.60000  5.72818e-06  2.72146e+08
       763.70000  5.72818e-06  2.72031e+08
       763.80000  5.71352e-06  2.71164e+08
       763.90000  5.71352e-06  2.70992e+08
       764.00000  5.71352e-06  2.70821e+08
       764.10000  5.71352e-06  2.70649e+08
       764.20000  5.71352e-06  2.70421e+08
       764.30000  5.71352e-06  2.70192e+08
       764.40000  5.71352e-06  2.69964e+08
       764.50000  3.78686e-06  1.78778e+08
       764.60000  3.78686e-06  1.78626e+08
       764.70000  3.78686e-06  1.78437e+08
       764.80000  3.78686e-06  1.78248e+08
       764.90000  3.78686e-06  1.78058e+08
       765.00000  3.78686e-06  1.77831e+08
       765.10000  3.78686e-06  1.77415e+08
       765.20000  3.78686e-06  1.76998e+08
       765.30000  3.78686e-06  1.76619e+08
       765.40000  3.78686e-06  1.76241e+08
       765.50000  1.88326e-06  8.74773e+07
       765.60000  1.88326e-06  8.73266e+07
       765.70000  1.88326e-06  8.71571e+07
       765.80000  1.88326e-06  8.70253e+07
       765.90000  1.88326e-06  8.68935e+07
       766.00000  1.88326e-06  8.67616e+07
       766.10000  1.88326e-06  8.66486e+07
       766.20000  1.88326e-06  8.65357e+07
       766.30000  1.88321e-06  8.64392e+07
       766.40000  1.88321e-06  8.63639e+07
       766.50000  5.61827e-06  2.57429e+08
       766.60000  5.61827e-06  2.57204e+08
       766.70000  5.61827e-06  2.57092e+08
       766.80000  5.61827e-06  2.56924e+08
       766.90000  5.61827e-06  2.56811e+08
       767.00000  5.61827e-06  2.56755e+08
       767.10000  5.61827e-06  2.57036e+08
       767.20000  5.61827e-06  2.57373e+08
       767.30000  5.61827e-06  2.57654e+08
       767.40000  5.61827e-06  2.57935e+08
       767.50000  5.58757e-06  2.56805e+08
       767.60000  5.58757e-06  2.57084e+08
       767.70000  5.58757e-06  2.57364e+08
       767.80000  5.58757e-06  2.57587e+08
       767.90000  5.58757e-06  2.57867e+08
       768.00000  5.58757e-06  2.58090e+08
       768.10000  5.58757e-06  2.58314e+08
       768.20000  5.58757e-06  2.58537e+08
       768.30000  5.58757e-06  2.58705e+08
       768.40000  5.58757e-06  2.58928e+08
       768.50000  7.41010e-06  3.43606e+08
       768.60000  7.41010e-06  3.43829e+08
       768.70000  7.41010e-06  3.44051e+08
       768.80000  7.40616e-06  3.44090e+08
       768.90000  7.40616e-06  3.44312e+08
       769.00000  7.40616e-06  3.44461e+08
       769.10000  7.40616e-06  3.44683e+08
       769.20000  7.40616e-06  3.44831e+08
       769.30000  7.40616e-06  3.44979e+08
       769.40000  7.40616e-06  3.45127e+08
       769.50000  3.68091e-06  1.71567e+08
       769.60000  3.68091e-06  1.71641e+08
       769.70000  3.68091e-06  1.71678e+08
       769.80000  3.68091e-06  1.71751e+08
       769.90000  3.68091e-06  1.71788e+08
       770.00000  3.68091e-06  1.71788e+08
       770.10000  3.68091e-06  1.71825e+08
       770.20000  3.68091e-06  1.71862e+08
       770.30000  3.68091e-06  1.71862e+08
       770.40000  3.68091e-06  1.71862e+08
       770.50000  5.49283e-06  2.56460e+08
       770.60000  5.49283e-06  2.56460e+08
       770.70000  5.49283e-06  2.56460e+08
       770.80000  5.49283e-06  2.56460e+08
       770.90000  5.49283e-06  2.56405e+08
       771.00000  5.49283e-06  2.56351e+08
       771.10000  5.49283e-06  2.56570e+08
       771.20000  5.49283e-06  2.56735e+08
       771.30000  5.47602e-06  2.56114e+08
       771.40000  5.47602e-06  2.56278e+08
       771.50000  1.08834e-05  5.09668e+08
       771.60000  1.08834e-05  5.09886e+08
       771.70000  1.08834e-05  5.10213e+08
       771.80000  1.08834e-05  5.10430e+08
       771.90000  1.08834e-05  5.10539e+08
       772.00000  1.08834e-05  5.10757e+08
       772.10000  1.08834e-05  5.10866e+08
       772.20000  1.08834e-05  5.10974e+08
       772.30000  1.08834e-05  5.11083e+08
       772.40000  1.08834e-05  5.11192e+08
       772.50000  3.60767e-06  1.69452e+08
       772.60000  3.60767e-06  1.69452e+08
       772.70000  3.60767e-06  1.69452e+08
       772.80000  3.60767e-06  1.69416e+08
       772.90000  3.60767e-06  1.69416e+08
       773.00000  3.60767e-06  1.69380e+08
       773.10000  3.60767e-06  1.69164e+08
       773.20000  3.60767e-06  1.68983e+08
       773.30000  3.60767e-06  1.68767e+08
       773.40000  3.60767e-06  1.68586e+08
       773.50000  7.17448e-06  3.34905e+08
       773.60000  7.17448e-06  3.34618e+08
       773.70000  7.17448e-06  3.34331e+08
       773.80000  7.14610e-06  3.32722e+08
       773.90000  7.14610e-06  3.32437e+08
       774.00000  7.14610e-06  3.32151e+08
       774.10000  7.14610e-06  3.31936e+08
       774.20000  7.14610e-06  3.31722e+08
       774.30000  7.14610e-06  3.31579e+08
       774.40000  7.14610e-06  3.31365e+08
       774.50000  1.77536e-06  8.22878e+07
       774.60000  1.77536e-06  8.22700e+07
       774.70000  1.77536e-06  8.22345e+07
       774.80000  1.77536e-06  8.22167e+07
       774.90000  1.77536e-06  8.21990e+07
       775.00000  1.77536e-06  8.21812e+07
       775.10000  1.77536e-06  8.21812e+07
       775.20000  1.77536e-06  8.21812e+07
       775.30000  1.77536e-06  8.21812e+07
       775.40000  1.77536e-06  8.21812e+07
       775.50000  7.06201e-06  3.26971e+08
       775.60000  7.06201e-06  3.27042e+08
       775.70000  7.06201e-06  3.27112e+08
       775.80000  7.06201e-06  3.27183e+08
       775.90000  7.06201e-06  3.27324e+08
       776.00000  7.06201e-06  3.27466e+08
       776.10000  7.06201e-06  3.27607e+08
       776.20000  7.06201e-06  3.27819e+08
       776.30000  7.04411e-06  3.27199e+08
       776.40000  7.04411e-06  3.27410e+08
       776.50000  8.75588e-06  4.07236e+08
       776.60000  8.75588e-06  4.07586e+08
       776.70000  8.75588e-06  4.07937e+08
       776.80000  8.75588e-06  4.08287e+08
       776.90000  8.75588e-06  4.08725e+08
       777.00000  8.75588e-06  4.09075e+08
       777.10000  8.75588e-06  4.08900e+08
       777.20000  8.75588e-06  4.08812e+08
       777.30000  8.75588e-06  4.08637e+08
       777.40000  8.75588e-06  4.08462e+08
       777.50000  3.48029e-06  1.62286e+08
       777.60000  3.48029e-06  1.62251e+08
       777.70000  3.48029e-06  1.62182e+08
       777.80000  3.48029e-06  1.62147e+08
       777.90000  3.48029e-06  1.62112e+08
       778.00000  3.48029e-06  1.62042e+08
       778.10000  3.48029e-06  1.62008e+08
       778.20000  3.48029e-06  1.61973e+08
       778.30000  3.48029e-06  1.61938e+08
       778.40000  3.48029e-06  1.61903e+08
       778.50000  6.92205e-06  3.22014e+08
       778.60000  6.92205e-06  3.21945e+08
       778.70000  6.92205e-06  3.21875e+08
       778.80000  6.90452e-06  3.21060e+08
       778.90000  6.90452e-06  3.21060e+08
       779.00000  6.90452e-06  3.20991e+08
       779.10000  6.90452e-06  3.21129e+08
       779.20000  6.90452e-06  3.21198e+08
       779.30000  6.90452e-06  3.21336e+08
       779.40000  6.90452e-06  3.21405e+08
       779.50000  6.86302e-06  3.19542e+08
       779.60000  6.86302e-06  3.19611e+08
       779.70000  6.86302e-06  3.19679e+08
       779.80000  6.86302e-06  3.19748e+08
       779.90000  6.86302e-06  3.19817e+08
       780.00000  6.86302e-06  3.19885e+08
       780.10000  6.86302e-06  3.19885e+08
       780.20000  6.86302e-06  3.19954e+08
       780.30000  6.86302e-06  3.19954e+08
       780.40000  6.86302e-06  3.19954e+08
       780.50000  1.02343e-05  4.77125e+08
       780.60000  1.02343e-05  4.77125e+08
       780.70000  1.02343e-05  4.77125e+08
       780.80000  1.02343e-05  4.77125e+08
       780.90000  1.02343e-05  4.77125e+08
       781.00000  1.02343e-05  4.77022e+08
       781.10000  1.02343e-05  4.77022e+08
       781.20000  1.02343e-05  4.76920e+08
       781.30000  1.01774e-05  4.74167e+08
       781.40000  1.01774e-05  4.74065e+08
       781.50000  5.05841e-06  2.35570e+08
       781.60000  5.05841e-06  2.35520e+08
       781.70000  5.05841e-06  2.35469e+08
       781.80000  5.05841e-06  2.35418e+08
       781.90000  5.05841e-06  2.35317e+08
       782.00000  5.05841e-06  2.35267e+08
       782.10000  5.05841e-06  2.35166e+08
       782.20000  5.05841e-06  2.35064e+08
       782.30000  5.05841e-06  2.35014e+08
       782.40000  5.05841e-06  2.34913e+08
       782.50000  5.02700e-06  2.33353e+08
       782.60000  5.02700e-06  2.33202e+08
       782.70000  5.02700e-06  2.33102e+08
       782.80000  5.02700e-06  2.33001e+08
       782.90000  5.02700e-06  2.32850e+08
       783.00000  5.02700e-06  2.32750e+08
       783.10000  5.02700e-06  2.32850e+08
       783.20000  5.02700e-06  2.32951e+08
       783.30000  5.02700e-06  2.33051e+08
       783.40000  5.02700e-06  2.33102e+08
       783.50000  3.33197e-06  1.54570e+08
       783.60000  3.33197e-06  1.54637e+08
       783.70000  3.33197e-06  1.54670e+08
       783.80000  3.31499e-06  1.53948e+08
       783.90000  3.31499e-06  1.54014e+08
       784.00000  3.31499e-06  1.54047e+08
       784.10000  3.31499e-06  1.54081e+08
       784.20000  3.31499e-06  1.54147e+08
       784.30000  3.31499e-06  1.54180e+08
       784.40000  3.31499e-06  1.54213e+08
       784.50000  6.58747e-06  3.06515e+08
       784.60000  6.58747e-06  3.06581e+08
       784.70000  6.58747e-06  3.06647e+08
       784.80000  6.58747e-06  3.06713e+08
       784.90000  6.58747e-06  3.06778e+08
       785.00000  6.58747e-06  3.06778e+08
       785.10000  6.58747e-06  3.06778e+08
       785.20000  6.58747e-06  3.06778e+08
       785.30000  6.58747e-06  3.06778e+08
       785.40000  6.58747e-06  3.06778e+08
       785.50000  4.91285e-06  2.28791e+08
       785.60000  4.91285e-06  2.28791e+08
       785.70000  4.91285e-06  2.28791e+08
       785.80000  4.91285e-06  2.28791e+08
       785.90000  4.91285e-06  2.28791e+08
       786.00000  4.91285e-06  2.28791e+08
       786.10000  4.91285e-06  2.28791e+08
       786.20000  4.91285e-06  2.28791e+08
       786.30000  4.90461e-06  2.28408e+08
       786.40000  4.90461e-06  2.28408e+08
       786.50000  4.87121e-06  2.26852e+08
       786.60000  4.87121e-06  2.26852e+08
       786.70000  4.87121e-06  2.26852e+08
       786.80000  4.87121e-06  2.26852e+08
       786.90000  4.87121e-06  2.26852e+08
       787.00000  4.87121e-06  2.26852e+08
       787.10000  4.87121e-06  2.26852e+08
       787.20000  4.87121e-06  2.26852e+08
       787.30000  4.87121e-06  2.26852e+08
       787.40000  4.87121e-06  2.26852e+08
       787.50000  3.22817e-06  1.50336e+08
       787.60000  3.22817e-06  1.50336e+08
       787.70000  3.22817e-06  1.50336e+08
       787.80000  3.22817e-06  1.50336e+08
       787.90000  3.22817e-06  1.50336e+08
       788.00000  3.22817e-06  1.50336e+08
       788.10000  3.22817e-06  1.50336e+08
       788.20000  3.22817e-06  1.50336e+08
       788.30000  3.22817e-06  1.50336e+08
       788.40000  3.22817e-06  1.50336e+08
       788.50000  3.20814e-06  1.49403e+08
       788.60000  3.20814e-06  1.49403e+08
       788.70000  3.20814e-06  1.49403e+08
       788.80000  3.20870e-06  1.49429e+08
       788.90000  3.20870e-06  1.49429e+08
       789.00000  3.20870e-06  1.49429e+08
       789.10000  3.20870e-06  1.49365e+08
       789.20000  3.20870e-06  1.49269e+08
       789.30000  3.20870e-06  1.49172e+08
       789.40000  3.20870e-06  1.49108e+08
       789.50000  7.97106e-06  3.70176e+08
       789.60000  7.97106e-06  3.69937e+08
       789.70000  7.97106e-06  3.69777e+08
       789.80000  7.97106e-06  3.69538e+08
       789.90000  7.97106e-06  3.69299e+08
       790.00000  7.97106e-06  3.69140e+08
       790.10000  7.97106e-06  3.68901e+08
       790.20000  7.97106e-06  3.68741e+08
       790.30000  7.97106e-06  3.68502e+08
       790.40000  7.97106e-06  3.68343e+08
       790.50000  6.33686e-06  2.92636e+08
       790.60000  6.33686e-06  2.92446e+08
       790.70000  6.33686e-06  2.92319e+08
       790.80000  6.33686e-06  2.92129e+08
       790.90000  6.33686e-06  2.92002e+08
       791.00000  6.33686e-06  2.91812e+08
       791.10000  6.33686e-06  2.91622e+08
       791.20000  6.33686e-06  2.91496e+08
       791.30000  6.31839e-06  2.90456e+08
       791.40000  6.31839e-06  2.90267e+08
       791.50000  3.14024e-06  1.44169e+08
       791.60000  3.14024e-06  1.44074e+08
       791.70000  3.14024e-06  1.44011e+08
       791.80000  3.14024e-06  1.43917e+08
       791.90000  3.14024e-06  1.43854e+08
       792.00000  3.14024e-06  1.43760e+08
       792.10000  3.14024e-06  1.43697e+08
       792.20000  3.14024e-06  1.43635e+08
       792.30000  3.14024e-06  1.43540e+08
       792.40000  3.14024e-06  1.43478e+08
       792.50000  6.23906e-06  2.84938e+08
       792.60000  6.23906e-06  2.84813e+08
       792.70000  6.23906e-06  2.84688e+08
       792.80000  6.23906e-06  2.84563e+08
       792.90000  6.23906e-06  2.84439e+08
       793.00000  6.23906e-06  2.84314e+08
       793.10000  6.23906e-06  2.84127e+08
       793.20000  6.23906e-06  2.83877e+08
       793.30000  6.23906e-06  2.83690e+08
       793.40000  6.23906e-06  2.83503e+08
       793.50000  6.19859e-06  2.81478e+08
       793.60000  6.19859e-06  2.81354e+08
       793.70000  6.19859e-06  2.81168e+08
       793.80000  6.18091e-06  2.80304e+08
       793.90000  6.18091e-06  2.80180e+08
       794.00000  6.18091e-06  2.80119e+08
       794.10000  6.18091e-06  2.79995e+08
       794.20000  6.18091e-06  2.79995e+08
       794.30000  6.18091e-06  2.79933e+08
       794.40000  6.18091e-06  2.79933e+08
       794.50000  7.67478e-06  3.47591e+08
       794.60000  7.67478e-06  3.47591e+08
       794.70000  7.67478e-06  3.47667e+08
       794.80000  7.67478e-06  3.47667e+08
       794.90000  7.67478e-06  3.47744e+08
       795.00000  7.67478e-06  3.47898e+08
       795.10000  7.67478e-06  3.48435e+08
       795.20000  7.67478e-06  3.48972e+08
       795.30000  7.67478e-06  3.49509e+08
       795.40000  7.67478e-06  3.50046e+08
       795.50000  1.40897e-06  6.43475e+07
       795.60000  1.40897e-06  6.44321e+07
       795.70000  1.40897e-06  6.45025e+07
       795.80000  1.40897e-06  6.45730e+07
       795.90000  1.40897e-06  6.46434e+07
       796.00000  1.40897e-06  6.46998e+07
       796.10000  1.40897e-06  6.47561e+07
       796.20000  1.40897e-06  6.48125e+07
       796.30000  1.40709e-06  6.47685e+07
       796.40000  1.40709e-06  6.48107e+07
       796.50000  3.02729e-06  1.39528e+08
       796.60000  3.02729e-06  1.39588e+08
       796.70000  3.02729e-06  1.39649e+08
       796.80000  3.02729e-06  1.39679e+08
       796.90000  3.02729e-06  1.39709e+08
       797.00000  3.02729e-06  1.39740e+08
       797.10000  3.02729e-06  1.39770e+08
       797.20000  3.02729e-06  1.39770e+08
       797.30000  3.02729e-06  1.39770e+08
       797.40000  3.02729e-06  1.39740e+08
       797.50000  4.51174e-06  2.08217e+08
       797.60000  4.51174e-06  2.08172e+08
       797.70000  4.51174e-06  2.08081e+08
       797.80000  4.51174e-06  2.07991e+08
       797.90000  4.51174e-06  2.07901e+08
       798.00000  4.51174e-06  2.07766e+08
       798.10000  4.51174e-06  2.07630e+08
       798.20000  4.51174e-06  2.07495e+08
       798.30000  4.51174e-06  2.07314e+08
       798.40000  4.51174e-06  2.07134e+08
       798.50000  2.98538e-06  1.36939e+08
       798.60000  2.98538e-06  1.36790e+08
       798.70000  2.98538e-06  1.36641e+08
       798.80000  2.97855e-06  1.36179e+08
       798.90000  2.97855e-06  1.36001e+08
       799.00000  2.97855e-06  1.35822e+08
       799.10000  2.97855e-06  1.35911e+08
       799.20000  2.97855e-06  1.36030e+08
       799.30000  2.97855e-06  1.36150e+08
       799.40000  2.97855e-06  1.36239e+08
       799.50000  0.000113893  5.21289e+09
       799.60000  0.000113893  5.21631e+09
       799.70000  0.000113893  5.21973e+09
       799.80000  0.000113893  5.22200e+09
       799.90000  0.000113893  5.22428e+09
       800.00000  0.000113893  5.22656e+09
       800.10000  0.000113893  5.22884e+09
       800.20000  0.000113893  5.23112e+09
       800.30000  0.000113893  5.23339e+09
       800.40000  0.000113893  5.23453e+09
       800.50000  0.000121940  5.60558e+09
       800.60000  0.000121940  5.60680e+09
       800.70000  0.000121940  5.60680e+09
       800.80000  0.000121940  5.60802e+09
       800.90000  0.000121940  5.60802e+09
       801.00000  0.000121940  5.60802e+09
       801.10000  0.000121940  5.60558e+09
       801.20000  0.000121940  5.60314e+09
       801.30000  0.000121582  5.58426e+09
       801.40000  0.000121582  5.58183e+09
       801.50000  9.02161e-05  4.14002e+09
       801.60000  9.02161e-05  4.13821e+09
       801.70000  9.02161e-05  4.13641e+09
       801.80000  9.02161e-05  4.13460e+09
       801.90000  9.02161e-05  4.13280e+09
       802.00000  9.02161e-05  4.13099e+09
       802.10000  9.02161e-05  4.12919e+09
       802.20000  9.02161e-05  4.12738e+09
       802.30000  9.02161e-05  4.12558e+09
       802.40000  9.02161e-05  4.12378e+09
       802.50000  8.96071e-05  4.09415e+09
       802.60000  8.96071e-05  4.09236e+09
       802.70000  8.96071e-05  4.09056e+09
       802.80000  8.96071e-05  4.08788e+09
       802.90000  8.96071e-05  4.08608e+09
       803.00000  8.96071e-05  4.08429e+09
       803.10000  8.96071e-05  4.08250e+09
       803.20000  8.96071e-05  4.08071e+09
       803.30000  8.96071e-05  4.07891e+09
       803.40000  8.96071e-05  4.07623e+09
       803.50000  0.000101892  4.63303e+09
       803.60000  0.000101892  4.63099e+09
       803.70000  0.000101892  4.62896e+09
       803.80000  0.000101575  4.61254e+09
       803.90000  0.000101575  4.60949e+09
       804.00000  0.000101575  4.60746e+09
       804.10000  0.000101575  4.60543e+09
       804.20000  0.000101575  4.60340e+09
       804.30000  0.000101575  4.60035e+09
       804.40000  0.000101575  4.59832e+09
       804.50000  8.67004e-05  3.92319e+09
       804.60000  8.67004e-05  3.92059e+09
       804.70000  8.67004e-05  3.91886e+09
       804.80000  8.67004e-05  3.91712e+09
       804.90000  8.67004e-05  3.91452e+09
       805.00000  8.67004e-05  3.91279e+09
       805.10000  8.67004e-05  3.91626e+09
       805.20000  8.67004e-05  3.92059e+09
       805.30000  8.67004e-05  3.92319e+09
       805.40000  8.67004e-05  3.92666e+09
       805.50000  0.000107261  4.86109e+09
       805.60000  0.000107261  4.86430e+09
       805.70000  0.000107261  4.86752e+09
       805.80000  0.000107261  4.86967e+09
       805.90000  0.000107261  4.87181e+09
       806.00000  0.000107261  4.87396e+09
       806.10000  0.000107261  4.87503e+09
       806.20000  0.000107261  4.87610e+09
       806.30000  0.000107052  4.86764e+09
       806.40000  0.000107052  4.86871e+09
       806.50000  0.000106306  4.83479e+09
       806.60000  0.000106306  4.83479e+09
       806.70000  0.000106306  4.83372e+09
       806.80000  0.000106306  4.83372e+09
       806.90000  0.000106306  4.83266e+09
       807.00000  0.000106306  4.83053e+09
       807.10000  0.000106306  4.82203e+09
       807.20000  0.000106306  4.81246e+09
       807.30000  0.000106306  4.80396e+09
       807.40000  0.000106306  4.79652e+09
       807.50000  0.000102764  4.62950e+09
       807.60000  0.000102764  4.62231e+09
       807.70000  0.000102764  4.61615e+09
       807.80000  0.000102764  4.61101e+09
       807.90000  0.000102764  4.60587e+09
       808.00000  0.000102764  4.60073e+09
       808.10000  0.000102764  4.59662e+09
       808.20000  0.000102764  4.59251e+09
       808.30000  0.000102764  4.58840e+09
       808.40000  0.000102764  4.58532e+09
       808.50000  9.51816e-05  4.24510e+09
       808.60000  9.51816e-05  4.24319e+09
       808.70000  9.51816e-05  4.24129e+09
       808.80000  9.50916e-05  4.23633e+09
       808.90000  9.50916e-05  4.23538e+09
       809.00000  9.50916e-05  4.23538e+09
       809.10000  9.50916e-05  4.23538e+09
       809.20000  9.50916e-05  4.23633e+09
       809.30000  9.50916e-05  4.23728e+09
       809.40000  9.50916e-05  4.23823e+09
       809.50000  9.98830e-05  4.45378e+09
       809.60000  9.98830e-05  4.45678e+09
       809.70000  9.98830e-05  4.45978e+09
       809.80000  9.98830e-05  4.46277e+09
       809.90000  9.98830e-05  4.46677e+09
       810.00000  9.98830e-05  4.47076e+09
       810.10000  9.98830e-05  4.47576e+09
       810.20000  9.98830e-05  4.48075e+09
       810.30000  9.98830e-05  4.48575e+09
       810.40000  9.98830e-05  4.49174e+09
       810.50000  9.37585e-05  4.22288e+09
       810.60000  9.37585e-05  4.22851e+09
       810.70000  9.37585e-05  4.23601e+09
       810.80000  9.37585e-05  4.24351e+09
       810.90000  9.37585e-05  4.25101e+09
       811.00000  9.37585e-05  4.25945e+09
       811.10000  9.37585e-05  4.26039e+09
       811.20000  9.37585e-05  4.26226e+09
       811.30000  9.36967e-05  4.26039e+09
       811.40000  9.36967e-05  4.26226e+09
       811.50000  7.41556e-05  3.37408e+09
       811.60000  7.41556e-05  3.37482e+09
       811.70000  7.41556e-05  3.37557e+09
       811.80000  7.41556e-05  3.37631e+09
       811.90000  7.41556e-05  3.37705e+09
       812.00000  7.41556e-05  3.37779e+09
       812.10000  7.41556e-05  3.37779e+09
       812.20000  7.41556e-05  3.37853e+09
       812.30000  7.41556e-05  3.37927e+09
       812.40000  7.41556e-05  3.37927e+09
       812.50000  8.69816e-05  3.96375e+09
       812.60000  8.69816e-05  3.96462e+09
       812.70000  8.69816e-05  3.96462e+09
       812.80000  8.69816e-05  3.96462e+09
       812.90000  8.69816e-05  3.96462e+09
       813.00000  8.69816e-05  3.96462e+09
       813.10000  8.69816e-05  3.96288e+09
       813.20000  8.69816e-05  3.96201e+09
       813.30000  8.69816e-05  3.96027e+09
       813.40000  8.69816e-05  3.95940e+09
       813.50000  9.56600e-05  4.35253e+09
       813.60000  9.56600e-05  4.35157e+09
       813.70000  9.56600e-05  4.35062e+09
       813.80000  9.56495e-05  4.34918e+09
       813.90000  9.56495e-05  4.34822e+09
       814.00000  9.56495e-05  4.34631e+09
       814.10000  9.56495e-05  4.34536e+09
       814.20000  9.56495e-05  4.34440e+09
       814.30000  9.56495e-05  4.34344e+09
       814.40000  9.56495e-05  4.34344e+09
       814.50000  9.22935e-05  4.19012e+09
       814.60000  9.22935e-05  4.18920e+09
       814.70000  9.22935e-05  4.18828e+09
       814.80000  9.22935e-05  4.18736e+09
       814.90000  9.22935e-05  4.18736e+09
       815.00000  9.22935e-05  4.18643e+09
       815.10000  9.22935e-05  4.19012e+09
       815.20000  9.22935e-05  4.19289e+09
       815.30000  9.22935e-05  4.19566e+09
       815.40000  9.22935e-05  4.19751e+09
       815.50000  0.000130905  5.95749e+09
       815.60000  0.000130905  5.95880e+09
       815.70000  0.000130905  5.96141e+09
       815.80000  0.000130905  5.96141e+09
       815.90000  0.000130905  5.96272e+09
       816.00000  0.000130905  5.96272e+09
       816.10000  0.000130905  5.96272e+09
       816.20000  0.000130905  5.96141e+09
       816.30000  0.000130901  5.95994e+09
       816.40000  0.000130901  5.95863e+09
       816.50000  9.74407e-05  4.43355e+09
       816.60000  9.74407e-05  4.43160e+09
       816.70000  9.74407e-05  4.42868e+09
       816.80000  9.74407e-05  4.42576e+09
       816.90000  9.74407e-05  4.42283e+09
       817.00000  9.74407e-05  4.41894e+09
       817.10000  9.74407e-05  4.40529e+09
       817.20000  9.74407e-05  4.39263e+09
       817.30000  9.74407e-05  4.38093e+09
       817.40000  9.74407e-05  4.36924e+09
       817.50000  9.28550e-05  4.15341e+09
       817.60000  9.28550e-05  4.14412e+09
       817.70000  9.28550e-05  4.13483e+09
       817.80000  9.28550e-05  4.12555e+09
       817.90000  9.28550e-05  4.11812e+09
       818.00000  9.28550e-05  4.10976e+09
       818.10000  9.28550e-05  4.10326e+09
       818.20000  9.28550e-05  4.09676e+09
       818.30000  9.28550e-05  4.09026e+09
       818.40000  9.28550e-05  4.08562e+09
       818.50000  0.000104969  4.61233e+09
       818.60000  0.000104969  4.60813e+09
       818.70000  0.000104969  4.60393e+09
       818.80000  0.000104953  4.59904e+09
       818.90000  0.000104953  4.59694e+09
       819.00000  0.000104953  4.59379e+09
       819.10000  0.000104953  4.59274e+09
       819.20000  0.000104953  4.59169e+09
       819.30000  0.000104953  4.59064e+09
       819.40000  0.000104953  4.59064e+09
       819.50000  9.14510e-05  4.00098e+09
       819.60000  9.14510e-05  4.00190e+09
       819.70000  9.14510e-05  4.00373e+09
       819.80000  9.14510e-05  4.00647e+09
       819.90000  9.14510e-05  4.00921e+09
       820.00000  9.14510e-05  4.01287e+09
       820.10000  9.14510e-05  4.01653e+09
       820.20000  9.14510e-05  4.02110e+09
       820.30000  9.14510e-05  4.02659e+09
       820.40000  9.14510e-05  4.03208e+09
       820.50000  8.69644e-05  3.84035e+09
       820.60000  8.69644e-05  3.84643e+09
       820.70000  8.69644e-05  3.85339e+09
       820.80000  8.69644e-05  3.86035e+09
       820.90000  8.69644e-05  3.86818e+09
       821.00000  8.69644e-05  3.87687e+09
       821.10000  8.69644e-05  3.87513e+09
       821.20000  8.69644e-05  3.87426e+09
       821.30000  8.72137e-05  3.88363e+09
       821.40000  8.72137e-05  3.88275e+09
       821.50000  8.77815e-05  3.90628e+09
       821.60000  8.77815e-05  3.90540e+09
       821.70000  8.77815e-05  3.90452e+09
       821.80000  8.77815e-05  3.90276e+09
       821.90000  8.77815e-05  3.90189e+09
       822.00000  8.77815e-05  3.90101e+09
       822.10000  8.77815e-05  3.90101e+09
       822.20000  8.77815e-05  3.90013e+09
       822.30000  8.77815e-05  3.89925e+09
       822.40000  8.77815e-05  3.89925e+09
       822.50000  9.20931e-05  4.08985e+09
       822.60000  9.20931e-05  4.08985e+09
       822.70000  9.20931e-05  4.08893e+09
       822.80000  9.20931e-05  4.08893e+09
       822.90000  9.20931e-05  4.08893e+09
       823.00000  9.20931e-05  4.08893e+09
       823.10000  9.20931e-05  4.08893e+09
       823.20000  9.20931e-05  4.08893e+09
       823.30000  9.20931e-05  4.08893e+09
       823.40000  9.20931e-05  4.08893e+09
       823.50000  6.91412e-05  3.07056e+09
       823.60000  6.91412e-05  3.07056e+09
       823.70000  6.91412e-05  3.07125e+09
       823.80000  6.93298e-05  3.07963e+09
       823.90000  6.93298e-05  3.08032e+09
       824.00000  6.93298e-05  3.08102e+09
       824.10000  6.93298e-05  3.08171e+09
       824.20000  6.93298e-05  3.08240e+09
       824.30000  6.93298e-05  3.08310e+09
       824.40000  6.93298e-05  3.08448e+09
       824.50000  9.95027e-05  4.42787e+09
       824.60000  9.95027e-05  4.42986e+09
       824.70000  9.95027e-05  4.43086e+09
       824.80000  9.95027e-05  4.43285e+09
       824.90000  9.95027e-05  4.43484e+09
       825.00000  9.95027e-05  4.43683e+09
       825.10000  9.95027e-05  4.43882e+09
       825.20000  9.95027e-05  4.44081e+09
       825.30000  9.95027e-05  4.44379e+09
       825.40000  9.95027e-05  4.44578e+09
       825.50000  6.69864e-05  2.99496e+09
       825.60000  6.69864e-05  2.99630e+09
       825.70000  6.69864e-05  2.99831e+09
       825.80000  6.69864e-05  3.00032e+09
       825.90000  6.69864e-05  3.00233e+09
       826.00000  6.69864e-05  3.00434e+09
       826.10000  6.69864e-05  3.00635e+09
       826.20000  6.69864e-05  3.00769e+09
       826.30000  6.70309e-05  3.01170e+09
       826.40000  6.70309e-05  3.01304e+09
       826.50000  7.62183e-05  3.42677e+09
       826.60000  7.62183e-05  3.42830e+09
       826.70000  7.62183e-05  3.42982e+09
       826.80000  7.62183e-05  3.43058e+09
       826.90000  7.62183e-05  3.43135e+09
       827.00000  7.62183e-05  3.43211e+09
       827.10000  7.62183e-05  3.43211e+09
       827.20000  7.62183e-05  3.43287e+09
       827.30000  7.62183e-05  3.43287e+09
       827.40000  7.62183e-05  3.43287e+09
       827.50000  5.63944e-05  2.54001e+09
       827.60000  5.63944e-05  2.54001e+09
       827.70000  5.63944e-05  2.53944e+09
       827.80000  5.63944e-05  2.53888e+09
       827.90000  5.63944e-05  2.53831e+09
       828.00000  5.63944e-05  2.53775e+09
       828.10000  5.63944e-05  2.53606e+09
       828.20000  5.63944e-05  2.53380e+09
       828.30000  5.63944e-05  2.53155e+09
       828.40000  5.63944e-05  2.52929e+09
       828.50000  8.09082e-05  3.62630e+09
       828.60000  8.09082e-05  3.62307e+09
       828.70000  8.09082e-05  3.62064e+09
       828.80000  8.08425e-05  3.61528e+09
       828.90000  8.08425e-05  3.61204e+09
       829.00000  8.08425e-05  3.60962e+09
       829.10000  8.08425e-05  3.60719e+09
       829.20000  8.08425e-05  3.60477e+09
       829.30000  8.08425e-05  3.60234e+09
       829.40000  8.08425e-05  3.59992e+09
       829.50000  8.84126e-05  3.93436e+09
       829.60000  8.84126e-05  3.93171e+09
       829.70000  8.84126e-05  3.92906e+09
       829.80000  8.84126e-05  3.92640e+09
       829.90000  8.84126e-05  3.92464e+09
       830.00000  8.84126e-05  3.92198e+09
       830.10000  8.84126e-05  3.92022e+09
       830.20000  8.84126e-05  3.91756e+09
       830.30000  8.84126e-05  3.91580e+09
       830.40000  8.84126e-05  3.91314e+09
       830.50000  8.77071e-05  3.88016e+09
       830.60000  8.77071e-05  3.87841e+09
       830.70000  8.77071e-05  3.87578e+09
       830.80000  8.77071e-05  3.87402e+09
       830.90000  8.77071e-05  3.87227e+09
       831.00000  8.77071e-05  3.87051e+09
       831.10000  8.77071e-05  3.86876e+09
       831.20000  8.77071e-05  3.86701e+09
       831.30000  8.79448e-05  3.87661e+09
       831.40000  8.79448e-05  3.87485e+09
       831.50000  0.000102334  4.50680e+09
       831.60000  0.000102334  4.50578e+09
       831.70000  0.000102334  4.50373e+09
       831.80000  0.000102334  4.50168e+09
       831.90000  0.000102334  4.50066e+09
       832.00000  0.000102334  4.49964e+09
       832.10000  0.000102334  4.49554e+09
       832.20000  0.000102334  4.49145e+09
       832.30000  0.000102334  4.48838e+09
       832.40000  0.000102334  4.48531e+09
       832.50000  8.87666e-05  3.88798e+09
       832.60000  8.87666e-05  3.88620e+09
       832.70000  8.87666e-05  3.88443e+09
       832.80000  8.87666e-05  3.88176e+09
       832.90000  8.87666e-05  3.88088e+09
       833.00000  8.87666e-05  3.87910e+09
       833.10000  8.87666e-05  3.87733e+09
       833.20000  8.87666e-05  3.87644e+09
       833.30000  8.87666e-05  3.87555e+09
       833.40000  8.87666e-05  3.87466e+09
       833.50000  8.00292e-05  3.49327e+09
       833.60000  8.00292e-05  3.49247e+09
       833.70000  8.00292e-05  3.49247e+09
       833.80000  8.01127e-05  3.49612e+09
       833.90000  8.01127e-05  3.49692e+09
       834.00000  8.01127e-05  3.49692e+09
       834.10000  8.01127e-05  3.50093e+09
       834.20000  8.01127e-05  3.50413e+09
       834.30000  8.01127e-05  3.50814e+09
       834.40000  8.01127e-05  3.51134e+09
       834.50000  8.16922e-05  3.58384e+09
       834.60000  8.16922e-05  3.58711e+09
       834.70000  8.16922e-05  3.58956e+09
       834.80000  8.16922e-05  3.59201e+09
       834.90000  8.16922e-05  3.59528e+09
       835.00000  8.16922e-05  3.59773e+09
       835.10000  8.16922e-05  3.59936e+09
       835.20000  8.16922e-05  3.60181e+09
       835.30000  8.16922e-05  3.60345e+09
       835.40000  8.16922e-05  3.60508e+09
       835.50000  8.09774e-05  3.57515e+09
       835.60000  8.09774e-05  3.57677e+09
       835.70000  8.09774e-05  3.57758e+09
       835.80000  8.09774e-05  3.57920e+09
       835.90000  8.09774e-05  3.58001e+09
       836.00000  8.09774e-05  3.58082e+09
       836.10000  8.09774e-05  3.57920e+09
       836.20000  8.09774e-05  3.57839e+09
       836.30000  8.09408e-05  3.57515e+09
       836.40000  8.09408e-05  3.57434e+09
       836.50000  8.35855e-05  3.69030e+09
       836.60000  8.35855e-05  3.68863e+09
       836.70000  8.35855e-05  3.68779e+09
       836.80000  8.35855e-05  3.68696e+09
       836.90000  8.35855e-05  3.68528e+09
       837.00000  8.35855e-05  3.68445e+09
       837.10000  8.35855e-05  3.68361e+09
       837.20000  8.35855e-05  3.68278e+09
       837.30000  8.35855e-05  3.68194e+09
       837.40000  8.35855e-05  3.68111e+09
       837.50000  7.84460e-05  3.45398e+09
       837.60000  7.84460e-05  3.45319e+09
       837.70000  7.84460e-05  3.45241e+09
       837.80000  7.84460e-05  3.45162e+09
       837.90000  7.84460e-05  3.45162e+09
       838.00000  7.84460e-05  3.45084e+09
       838.10000  7.84460e-05  3.45005e+09
       838.20000  7.84460e-05  3.45005e+09
       838.30000  7.84460e-05  3.45005e+09
       838.40000  7.84460e-05  3.45005e+09
       838.50000  6.45922e-05  2.84012e+09
       838.60000  6.45922e-05  2.84012e+09
       838.70000  6.45922e-05  2.84012e+09
       838.80000  6.43969e-05  2.83089e+09
       838.90000  6.43969e-05  2.83089e+09
       839.00000  6.43969e-05  2.83089e+09
       839.10000  6.43969e-05  2.83024e+09
       839.20000  6.43969e-05  2.83024e+09
       839.30000  6.43969e-05  2.83024e+09
       839.40000  6.43969e-05  2.82960e+09
       839.50000  8.43462e-05  3.70617e+09
       839.60000  8.43462e-05  3.70617e+09
       839.70000  8.43462e-05  3.70533e+09
       839.80000  8.43462e-05  3.70533e+09
       839.90000  8.43462e-05  3.70533e+09
       840.00000  8.43462e-05  3.70449e+09
       840.10000  8.43462e-05  3.70449e+09
       840.20000  8.43462e-05  3.70449e+09
       840.30000  8.43462e-05  3.70364e+09
       840.40000  8.43462e-05  3.70364e+09
       840.50000  7.39277e-05  3.24617e+09
       840.60000  7.39277e-05  3.24543e+09
       840.70000  7.39277e-05  3.24543e+09
       840.80000  7.39277e-05  3.24543e+09
       840.90000  7.39277e-05  3.24469e+09
       841.00000  7.39277e-05  3.24469e+09
       841.10000  7.39277e-05  3.24469e+09
       841.20000  7.39277e-05  3.24469e+09
       841.30000  7.39237e-05  3.24377e+09
       841.40000  7.39237e-05  3.24377e+09
       841.50000  9.87493e-05  4.33312e+09
       841.60000  9.87493e-05  4.33213e+09
       841.70000  9.87493e-05  4.33213e+09
       841.80000  9.87493e-05  4.33213e+09
       841.90000  9.87493e-05  4.33114e+09
       842.00000  9.87493e-05  4.33114e+09
       842.10000  9.87493e-05  4.32719e+09
       842.20000  9.87493e-05  4.32423e+09
       842.30000  9.87493e-05  4.32127e+09
       842.40000  9.87493e-05  4.31732e+09
       842.50000  7.05086e-05  3.08052e+09
       842.60000  7.05086e-05  3.07911e+09
       842.70000  7.05086e-05  3.07699e+09
       842.80000  7.05086e-05  3.07558e+09
       842.90000  7.05086e-05  3.07347e+09
       843.00000  7.05086e-05  3.07206e+09
       843.10000  7.05086e-05  3.07065e+09
       843.20000  7.05086e-05  3.06924e+09
       843.30000  7.05086e-05  3.06853e+09
       843.40000  7.05086e-05  3.06712e+09
       843.50000  8.23559e-05  3.58166e+09
       843.60000  8.23559e-05  3.58083e+09
       843.70000  8.23559e-05  3.58001e+09
       843.80000  8.24746e-05  3.58435e+09
       843.90000  8.24746e-05  3.58435e+09
       844.00000  8.24746e-05  3.58352e+09
       844.10000  8.24746e-05  3.58600e+09
       844.20000  8.24746e-05  3.58765e+09
       844.30000  8.24746e-05  3.58930e+09
       844.40000  8.24746e-05  3.59095e+09
       844.50000  7.44445e-05  3.24280e+09
       844.60000  7.44445e-05  3.24429e+09
       844.70000  7.44445e-05  3.24504e+09
       844.80000  7.44445e-05  3.24653e+09
       844.90000  7.44445e-05  3.24727e+09
       845.00000  7.44445e-05  3.24876e+09
       845.10000  7.44445e-05  3.24950e+09
       845.20000  7.44445e-05  3.25025e+09
       845.30000  7.44445e-05  3.25174e+09
       845.40000  7.44445e-05  3.25248e+09
       845.50000  9.62552e-05  4.20539e+09
       845.60000  9.62552e-05  4.20635e+09
       845.70000  9.62552e-05  4.20731e+09
       845.80000  9.62552e-05  4.20828e+09
       845.90000  9.62552e-05  4.20828e+09
       846.00000  9.62552e-05  4.20924e+09
       846.10000  9.62552e-05  4.20924e+09
       846.20000  9.62552e-05  4.20924e+09
       846.30000  9.65085e-05  4.22032e+09
       846.40000  9.65085e-05  4.22128e+09
       846.50000  8.95116e-05  3.91524e+09
       846.60000  8.95116e-05  3.91434e+09
       846.70000  8.95116e-05  3.91434e+09
       846.80000  8.95116e-05  3.91434e+09
       846.90000  8.95116e-05  3.91345e+09
       847.00000  8.95116e-05  3.91345e+09
       847.10000  8.95116e-05  3.91255e+09
       847.20000  8.95116e-05  3.91255e+09
       847.30000  8.95116e-05  3.91166e+09
       847.40000  8.95116e-05  3.91076e+09
       847.50000  8.86405e-05  3.87182e+09
       847.60000  8.86405e-05  3.87093e+09
       847.70000  8.86405e-05  3.87004e+09
       847.80000  8.86405e-05  3.86916e+09
       847.90000  8.86405e-05  3.86738e+09
       848.00000  8.86405e-05  3.86650e+09
       848.10000  8.86405e-05  3.84788e+09
       848.20000  8.86405e-05  3.83104e+09
       848.30000  8.86405e-05  3.81420e+09
       848.40000  8.86405e-05  3.79824e+09
       848.50000  9.77487e-05  4.17192e+09
       848.60000  9.77487e-05  4.15725e+09
       848.70000  9.77487e-05  4.14259e+09
       848.80000  9.81219e-05  4.14467e+09
       848.90000  9.81219e-05  4.13191e+09
       849.00000  9.81219e-05  4.12014e+09
       849.10000  9.81219e-05  4.10836e+09
       849.20000  9.81219e-05  4.09855e+09
       849.30000  9.81219e-05  4.08972e+09
       849.40000  9.81219e-05  4.08089e+09
       849.50000  9.51951e-05  3.95250e+09
       849.60000  9.51951e-05  3.94584e+09
       849.70000  9.51951e-05  3.94108e+09
       849.80000  9.51951e-05  3.93632e+09
       849.90000  9.51951e-05  3.93251e+09
       850.00000  9.51951e-05  3.92965e+09
       850.10000  9.51951e-05  3.95060e+09
       850.20000  9.51951e-05  3.97059e+09
       850.30000  9.51951e-05  3.98867e+09
       850.40000  9.51951e-05  4.00486e+09
       850.50000  0.000101134  4.27087e+09
       850.60000  0.000101134  4.28503e+09
       850.70000  0.000101134  4.29717e+09
       850.80000  0.000101134  4.30829e+09
       850.90000  0.000101134  4.31739e+09
       851.00000  0.000101134  4.32548e+09
       851.10000  0.000101134  4.33155e+09
       851.20000  0.000101134  4.33661e+09
       851.30000  0.000101241  4.34424e+09
       851.40000  0.000101241  4.34525e+09
       851.50000  0.000135265  5.80558e+09
       851.60000  0.000135265  5.80287e+09
       851.70000  0.000135265  5.79881e+09
       851.80000  0.000135265  5.79205e+09
       851.90000  0.000135265  5.78258e+09
       852.00000  0.000135265  5.77176e+09
       852.10000  0.000135265  5.75823e+09
       852.20000  0.000135265  5.74335e+09
       852.30000  0.000135265  5.72577e+09
       852.40000  0.000135265  5.70683e+09
       852.50000  0.000136135  5.72037e+09
       852.60000  0.000136135  5.69723e+09
       852.70000  0.000136135  5.67000e+09
       852.80000  0.000136135  5.64278e+09
       852.90000  0.000136135  5.61147e+09
       853.00000  0.000136135  5.57879e+09
       853.10000  0.000136135  5.54340e+09
       853.20000  0.000136135  5.50664e+09
       853.30000  0.000136135  5.46716e+09
       853.40000  0.000136135  5.42632e+09
       853.50000  0.000124546  4.92455e+09
       853.60000  0.000124546  4.88221e+09
       853.70000  0.000124546  4.83861e+09
       853.80000  0.000124712  4.79894e+09
       853.90000  0.000124712  4.75155e+09
       854.00000  0.000124712  4.70166e+09
       854.10000  0.000124712  4.73658e+09
       854.20000  0.000124712  4.77150e+09
       854.30000  0.000124712  4.80517e+09
       854.40000  0.000124712  4.83760e+09
       854.50000  0.000132304  5.16514e+09
       854.60000  0.000132304  5.19822e+09
       854.70000  0.000132304  5.22997e+09
       854.80000  0.000132304  5.26040e+09
       854.90000  0.000132304  5.29083e+09
       855.00000  0.000132304  5.31994e+09
       855.10000  0.000132304  5.34772e+09
       855.20000  0.000132304  5.37418e+09
       855.30000  0.000132304  5.40064e+09
       855.40000  0.000132304  5.42446e+09
       855.50000  0.000145444  5.99084e+09
       855.60000  0.000145444  6.01557e+09
       855.70000  0.000145444  6.04029e+09
       855.80000  0.000145444  6.06356e+09
       855.90000  0.000145444  6.08538e+09
       856.00000  0.000145444  6.10574e+09
       856.10000  0.000145444  6.12174e+09
       856.20000  0.000145444  6.13629e+09
       856.30000  0.000145607  6.15774e+09
       856.40000  0.000145607  6.17230e+09
       856.50000  0.000176386  7.49288e+09
       856.60000  0.000176386  7.50876e+09
       856.70000  0.000176386  7.52287e+09
       856.80000  0.000176386  7.53698e+09
       856.90000  0.000176386  7.54933e+09
       857.00000  0.000176386  7.56167e+09
       857.10000  0.000176386  7.57402e+09
       857.20000  0.000176386  7.58461e+09
       857.30000  0.000176386  7.59519e+09
       857.40000  0.000176386  7.60401e+09
       857.50000  0.000190806  8.23520e+09
       857.60000  0.000190806  8.24474e+09
       857.70000  0.000190806  8.25237e+09
       857.80000  0.000190806  8.26000e+09
       857.90000  0.000190806  8.26572e+09
       858.00000  0.000190806  8.27336e+09
       858.10000  0.000190806  8.27717e+09
       858.20000  0.000190806  8.28099e+09
       858.30000  0.000190806  8.28481e+09
       858.40000  0.000190806  8.28671e+09
       858.50000  0.000216949  9.42426e+09
       858.60000  0.000216949  9.42643e+09
       858.70000  0.000216949  9.42643e+09
       858.80000  0.000217605  9.45496e+09
       858.90000  0.000217605  9.45278e+09
       859.00000  0.000217605  9.45060e+09
       859.10000  0.000217605  9.44843e+09
       859.20000  0.000217605  9.44408e+09
       859.30000  0.000217605  9.43972e+09
       859.40000  0.000217605  9.43320e+09
       859.50000  0.000255295  1.10594e+10
       859.60000  0.000255295  1.10517e+10
       859.70000  0.000255295  1.10415e+10
       859.80000  0.000255295  1.10287e+10
       859.90000  0.000255295  1.10185e+10
       860.00000  0.000255295  1.10058e+10
       860.10000  0.000255295  1.10032e+10
       860.20000  0.000255295  1.10007e+10
       860.30000  0.000255295  1.10007e+10
       860.40000  0.000255295  1.10007e+10
       860.50000  0.000298799  1.28723e+10
       860.60000  0.000298799  1.28723e+10
       860.70000  0.000298799  1.28723e+10
       860.80000  0.000298799  1.28723e+10
       860.90000  0.000298799  1.28723e+10
       861.00000  0.000298799  1.28723e+10
       861.10000  0.000298799  1.28723e+10
       861.20000  0.000298799  1.28723e+10
       861.30000  0.000299781  1.29146e+10
       861.40000  0.000299781  1.29176e+10
       861.50000  0.000329109  1.41813e+10
       861.60000  0.000329109  1.41813e+10
       861.70000  0.000329109  1.41846e+10
       861.80000  0.000329109  1.41879e+10
       861.90000  0.000329109  1.41879e+10
       862.00000  0.000329109  1.41912e+10
       862.10000  0.000329109  1.42373e+10
       862.20000  0.000329109  1.42768e+10
       862.30000  0.000329109  1.43130e+10
       862.40000  0.000329109  1.43459e+10
       862.50000  0.000396492  1.73148e+10
       862.60000  0.000396492  1.73426e+10
       862.70000  0.000396492  1.73664e+10
       862.80000  0.000396492  1.73862e+10
       862.90000  0.000396492  1.73981e+10
       863.00000  0.000396492  1.74060e+10
       863.10000  0.000396492  1.74100e+10
       863.20000  0.000396492  1.74100e+10
       863.30000  0.000396492  1.74020e+10
       863.40000  0.000396492  1.73901e+10
       863.50000  0.000473516  2.07495e+10
       863.60000  0.000473516  2.07210e+10
       863.70000  0.000473516  2.06879e+10
       863.80000  0.000474840  2.07078e+10
       863.90000  0.000474840  2.06651e+10
       864.00000  0.000474840  2.06128e+10
       864.10000  0.000474840  2.05558e+10
       864.20000  0.000474840  2.04941e+10
       864.30000  0.000474840  2.04229e+10
       864.40000  0.000474840  2.03517e+10
       864.50000  0.000563771  2.40617e+10
       864.60000  0.000563771  2.39603e+10
       864.70000  0.000563771  2.38475e+10
       864.80000  0.000563771  2.37347e+10
       864.90000  0.000563771  2.36051e+10
       865.00000  0.000563771  2.34754e+10
       865.10000  0.000563771  2.33345e+10
       865.20000  0.000563771  2.31879e+10
       865.30000  0.000563771  2.30357e+10
       865.40000  0.000563771  2.28722e+10
       865.50000  0.000691820  2.78596e+10
       865.60000  0.000691820  2.76451e+10
       865.70000  0.000691820  2.74237e+10
       865.80000  0.000691820  2.71885e+10
       865.90000  0.000691820  2.69464e+10
       866.00000  0.000691820  2.66973e+10
       866.10000  0.000691820  2.67942e+10
       866.20000  0.000691820  2.68841e+10
       866.30000  0.000693865  2.70607e+10
       866.40000  0.000693865  2.71509e+10
       866.50000  0.000837366  3.28750e+10
       866.60000  0.000837366  3.29838e+10
       866.70000  0.000837366  3.30927e+10
       866.80000  0.000837366  3.32016e+10
       866.90000  0.000837366  3.33020e+10
       867.00000  0.000837366  3.34025e+10
       867.10000  0.000837366  3.35030e+10
       867.20000  0.000837366  3.36035e+10
       867.30000  0.000837366  3.37040e+10
       867.40000  0.000837366  3.37961e+10
       867.50000   0.00103228  4.17765e+10
       867.60000   0.00103228  4.18900e+10
       867.70000   0.00103228  4.20036e+10
       867.80000   0.00103228  4.21171e+10
       867.90000   0.00103228  4.22204e+10
       868.00000   0.00103228  4.23236e+10
       868.10000   0.00103228  4.24372e+10
       868.20000   0.00103228  4.25507e+10
       868.30000   0.00103228  4.26539e+10
       868.40000   0.00103228  4.27572e+10
       868.50000   0.00131264  5.45007e+10
       868.60000   0.00131264  5.46188e+10
       868.70000   0.00131264  5.47501e+10
       868.80000   0.00131593  5.49925e+10
       868.90000   0.00131593  5.51110e+10
       869.00000   0.00131593  5.52162e+10
       869.10000   0.00131593  5.53215e+10
       869.20000   0.00131593  5.54268e+10
       869.30000   0.00131593  5.55320e+10
       869.40000   0.00131593  5.56242e+10
       869.50000   0.00166047  7.03042e+10
       869.60000   0.00166047  7.04038e+10
       869.70000   0.00166047  7.05034e+10
       869.80000   0.00166047  7.06031e+10
       869.90000   0.00166047  7.07027e+10
       870.00000   0.00166047  7.08023e+10
       870.10000   0.00166047  7.08854e+10
       870.20000   0.00166047  7.09684e+10
       870.30000   0.00166047  7.10348e+10
       870.40000   0.00166047  7.11012e+10
       870.50000   0.00215962  9.25615e+10
       870.60000   0.00215962  9.26479e+10
       870.70000   0.00215962  9.27126e+10
       870.80000   0.00215962  9.27990e+10
       870.90000   0.00215962  9.28422e+10
       871.00000   0.00215962  9.29070e+10
       871.10000   0.00215962  9.29502e+10
       871.20000   0.00215962  9.29934e+10
       871.30000   0.00217218  9.35775e+10
       871.40000   0.00217218  9.35993e+10
       871.50000   0.00282897  1.21929e+11
       871.60000   0.00282897  1.21957e+11
       871.70000   0.00282897  1.21957e+11
       871.80000   0.00282897  1.21985e+11
       871.90000   0.00282897  1.21957e+11
       872.00000   0.00282897  1.21957e+11
       872.10000   0.00282897  1.21872e+11
       872.20000   0.00282897  1.21816e+11
       872.30000   0.00282897  1.21731e+11
       872.40000   0.00282897  1.21674e+11
       872.50000   0.00371141  1.59517e+11
       872.60000   0.00371141  1.59442e+11
       872.70000   0.00371141  1.59368e+11
       872.80000   0.00371141  1.59294e+11
       872.90000   0.00371141  1.59183e+11
       873.00000   0.00371141  1.59108e+11
       873.10000   0.00371141  1.59034e+11
       873.20000   0.00371141  1.58960e+11
       873.30000   0.00371141  1.58886e+11
       873.40000   0.00371141  1.58811e+11
       873.50000   0.00498102  2.13038e+11
       873.60000   0.00498102  2.12938e+11
       873.70000   0.00498102  2.12839e+11
       873.80000   0.00500732  2.13913e+11
       873.90000   0.00500732  2.13813e+11
       874.00000   0.00500732  2.13713e+11
       874.10000   0.00500732  2.13562e+11
       874.20000   0.00500732  2.13412e+11
       874.30000   0.00500732  2.13312e+11
       874.40000   0.00500732  2.13162e+11
       874.50000   0.00684894  2.91422e+11
       874.60000   0.00684894  2.91285e+11
       874.70000   0.00684894  2.91148e+11
       874.80000   0.00684894  2.91080e+11
       874.90000   0.00684894  2.90943e+11
       875.00000   0.00684894  2.90874e+11
       875.10000   0.00684894  2.90806e+11
       875.20000   0.00684894  2.90737e+11
       875.30000   0.00684894  2.90737e+11
       875.40000   0.00684894  2.90669e+11
       875.50000   0.00921255  3.90981e+11
       875.60000   0.00921255  3.90981e+11
       875.70000   0.00921255  3.90981e+11
       875.80000   0.00921255  3.91073e+11
       875.90000   0.00921255  3.91073e+11
       876.00000   0.00921255  3.91165e+11
       876.10000   0.00921255  3.91257e+11
       876.20000   0.00921255  3.91349e+11
       876.30000   0.00926109  3.93504e+11
       876.40000   0.00926109  3.93689e+11
       876.50000    0.0127176  5.40878e+11
       876.60000    0.0127176  5.41132e+11
       876.70000    0.0127176  5.41387e+11
       876.80000    0.0127176  5.41641e+11
       876.90000    0.0127176  5.42023e+11
       877.00000    0.0127176  5.42404e+11
       877.10000    0.0127176  5.42786e+11
       877.20000    0.0127176  5.43167e+11
       877.30000    0.0127176  5.43549e+11
       877.40000    0.0127176  5.44057e+11
       877.50000    0.0175812  7.52828e+11
       877.60000    0.0175812  7.53531e+11
       877.70000    0.0175812  7.54235e+11
       877.80000    0.0175812  7.54938e+11
       877.90000    0.0175812  7.55817e+11
       878.00000    0.0175812  7.56696e+11
       878.10000    0.0175812  7.55641e+11
       878.20000    0.0175812  7.54762e+11
       878.30000    0.0175812  7.53883e+11
       878.40000    0.0175812  7.53004e+11
       878.50000    0.0236394  1.01129e+12
       878.60000    0.0236394  1.01035e+12
       878.70000    0.0236394  1.00916e+12
       878.80000    0.0237454  1.01274e+12
       878.90000    0.0237454  1.01179e+12
       879.00000    0.0237454  1.01084e+12
       879.10000    0.0237454  1.00989e+12
       879.20000    0.0237454  1.00918e+12
       879.30000    0.0237454  1.00823e+12
       879.40000    0.0237454  1.00752e+12
       879.50000    0.0314849  1.33496e+12
       879.60000    0.0314849  1.33401e+12
       879.70000    0.0314849  1.33307e+12
       879.80000    0.0314849  1.33244e+12
       879.90000    0.0314849  1.33150e+12
       880.00000    0.0314849  1.33087e+12
       880.10000    0.0314849  1.33055e+12
       880.20000    0.0314849  1.32992e+12
       880.30000    0.0314849  1.32961e+12
       880.40000    0.0314849  1.32898e+12
       880.50000    0.0409391  1.72763e+12
       880.60000    0.0409391  1.72722e+12
       880.70000    0.0409391  1.72681e+12
       880.80000    0.0409391  1.72681e+12
       880.90000    0.0409391  1.72640e+12
       881.00000    0.0409391  1.72599e+12
       881.10000    0.0409391  1.72599e+12
       881.20000    0.0409391  1.72599e+12
       881.30000    0.0411845  1.73634e+12
       881.40000    0.0411845  1.73593e+12
       881.50000    0.0503447  2.12253e+12
       881.60000    0.0503447  2.12253e+12
       881.70000    0.0503447  2.12253e+12
       881.80000    0.0503447  2.12304e+12
       881.90000    0.0503447  2.12304e+12
       882.00000    0.0503447  2.12354e+12
       882.10000    0.0503447  2.12606e+12
       882.20000    0.0503447  2.12807e+12
       882.30000    0.0503447  2.13009e+12
       882.40000    0.0503447  2.13210e+12
       882.50000    0.0589795  2.50014e+12
       882.60000    0.0589795  2.50191e+12
       882.70000    0.0589795  2.50368e+12
       882.80000    0.0589795  2.50545e+12
       882.90000    0.0589795  2.50663e+12
       883.00000    0.0589795  2.50781e+12
       883.10000    0.0589795  2.50899e+12
       883.20000    0.0589795  2.51017e+12
       883.30000    0.0589795  2.51076e+12
       883.40000    0.0589795  2.51135e+12
       883.50000    0.0659699  2.80966e+12
       883.60000    0.0659699  2.80966e+12
       883.70000    0.0659699  2.80966e+12
       883.80000    0.0662102  2.81989e+12
       883.90000    0.0662102  2.81923e+12
       884.00000    0.0662102  2.81857e+12
       884.10000    0.0662102  2.81459e+12
       884.20000    0.0662102  2.81062e+12
       884.30000    0.0662102  2.80665e+12
       884.40000    0.0662102  2.80268e+12
       884.50000    0.0703765  2.97481e+12
       884.60000    0.0703765  2.97129e+12
       884.70000    0.0703765  2.96778e+12
       884.80000    0.0703765  2.96496e+12
       884.90000    0.0703765  2.96144e+12
       885.00000    0.0703765  2.95863e+12
       885.10000    0.0703765  2.95652e+12
       885.20000    0.0703765  2.95370e+12
       885.30000    0.0703765  2.95159e+12
       885.40000    0.0703765  2.94948e+12
       885.50000    0.0719591  3.01437e+12
       885.60000    0.0719591  3.01221e+12
       885.70000    0.0719591  3.01077e+12
       885.80000    0.0719591  3.01005e+12
       885.90000    0.0719591  3.00861e+12
       886.00000    0.0719591  3.00789e+12
       886.10000    0.0719591  3.00717e+12
       886.20000    0.0719591  3.00645e+12
       886.30000    0.0721415  3.01407e+12
       886.40000    0.0721415  3.01407e+12
       886.50000    0.0718093  3.00019e+12
       886.60000    0.0718093  3.00091e+12
       886.70000    0.0718093  3.00163e+12
       886.80000    0.0718093  3.00235e+12
       886.90000    0.0718093  3.00307e+12
       887.00000    0.0718093  3.00450e+12
       887.10000    0.0718093  3.00594e+12
       887.20000    0.0718093  3.00738e+12
       887.30000    0.0718093  3.00881e+12
       887.40000    0.0718093  3.01097e+12
       887.50000    0.0704764  2.95719e+12
       887.60000    0.0704764  2.96001e+12
       887.70000    0.0704764  2.96212e+12
       887.80000    0.0704764  2.96494e+12
       887.90000    0.0704764  2.96847e+12
       888.00000    0.0704764  2.97128e+12
       888.10000    0.0704764  2.97481e+12
       888.20000    0.0704764  2.97763e+12
       888.30000    0.0704764  2.98115e+12
       888.40000    0.0704764  2.98397e+12
       888.50000    0.0687289  2.91273e+12
       888.60000    0.0687289  2.91479e+12
       888.70000    0.0687289  2.91686e+12
       888.80000    0.0690197  2.93127e+12
       888.90000    0.0690197  2.93334e+12
       889.00000    0.0690197  2.93541e+12
       889.10000    0.0690197  2.93679e+12
       889.20000    0.0690197  2.93817e+12
       889.30000    0.0690197  2.93955e+12
       889.40000    0.0690197  2.94024e+12
       889.50000    0.0672407  2.86580e+12
       889.60000    0.0672407  2.86647e+12
       889.70000    0.0672407  2.86715e+12
       889.80000    0.0672407  2.86715e+12
       889.90000    0.0672407  2.86715e+12
       890.00000    0.0672407  2.86715e+12
       890.10000    0.0672407  2.86513e+12
       890.20000    0.0672407  2.86311e+12
       890.30000    0.0672407  2.86109e+12
       890.40000    0.0672407  2.85908e+12
       890.50000    0.0656724  2.79042e+12
       890.60000    0.0656724  2.78845e+12
       890.70000    0.0656724  2.78648e+12
       890.80000    0.0656724  2.78451e+12
       890.90000    0.0656724  2.78254e+12
       891.00000    0.0656724  2.78123e+12
       891.10000    0.0656724  2.77926e+12
       891.20000    0.0656724  2.77794e+12
       891.30000    0.0659912  2.78945e+12
       891.40000    0.0659912  2.78813e+12
       891.50000    0.0647065  2.73255e+12
       891.60000    0.0647065  2.73126e+12
       891.70000    0.0647065  2.72997e+12
       891.80000    0.0647065  2.72867e+12
       891.90000    0.0647065  2.72738e+12
       892.00000    0.0647065  2.72608e+12
       892.10000    0.0647065  2.72479e+12
       892.20000    0.0647065  2.72414e+12
       892.30000    0.0647065  2.72285e+12
       892.40000    0.0647065  2.72220e+12
       892.50000    0.0636370  2.67594e+12
       892.60000    0.0636370  2.67530e+12
       892.70000    0.0636370  2.67466e+12
       892.80000    0.0636370  2.67403e+12
       892.90000    0.0636370  2.67339e+12
       893.00000    0.0636370  2.67275e+12
       893.10000    0.0636370  2.67212e+12
       893.20000    0.0636370  2.67148e+12
       893.30000    0.0636370  2.67084e+12
       893.40000    0.0636370  2.67084e+12
       893.50000    0.0627887  2.63461e+12
       893.60000    0.0627887  2.63461e+12
       893.70000    0.0627887  2.63399e+12
       893.80000    0.0633357  2.65693e+12
       893.90000    0.0633357  2.65693e+12
       894.00000    0.0633357  2.65693e+12
       894.10000    0.0633357  2.65883e+12
       894.20000    0.0633357  2.66010e+12
       894.30000    0.0633357  2.66200e+12
       894.40000    0.0633357  2.66327e+12
       894.50000    0.0626274  2.63536e+12
       894.60000    0.0626274  2.63661e+12
       894.70000    0.0626274  2.63787e+12
       894.80000    0.0626274  2.63912e+12
       894.90000    0.0626274  2.64037e+12
       895.00000    0.0626274  2.64162e+12
       895.10000    0.0626274  2.64225e+12
       895.20000    0.0626274  2.64350e+12
       895.30000    0.0626274  2.64413e+12
       895.40000    0.0626274  2.64475e+12
       895.50000    0.0620841  2.62305e+12
       895.60000    0.0620841  2.62367e+12
       895.70000    0.0620841  2.62429e+12
       895.80000    0.0620841  2.62429e+12
       895.90000    0.0620841  2.62492e+12
       896.00000    0.0620841  2.62554e+12
       896.10000    0.0620841  2.62616e+12
       896.20000    0.0620841  2.62616e+12
       896.30000    0.0625081  2.64472e+12
       896.40000    0.0625081  2.64472e+12
       896.50000    0.0620453  2.62514e+12
       896.60000    0.0620453  2.62514e+12
       896.70000    0.0620453  2.62514e+12
       896.80000    0.0620453  2.62514e+12
       896.90000    0.0620453  2.62514e+12
       897.00000    0.0620453  2.62452e+12
       897.10000    0.0620453  2.62452e+12
       897.20000    0.0620453  2.62390e+12
       897.30000    0.0620453  2.62328e+12
       897.40000    0.0620453  2.62266e+12
       897.50000    0.0615876  2.60207e+12
       897.60000    0.0615876  2.60146e+12
       897.70000    0.0615876  2.60023e+12
       897.80000    0.0615876  2.59961e+12
       897.90000    0.0615876  2.59838e+12
       898.00000    0.0615876  2.59715e+12
       898.10000    0.0615876  2.59530e+12
       898.20000    0.0615876  2.59407e+12
       898.30000    0.0615876  2.59284e+12
       898.40000    0.0615876  2.59099e+12
       898.50000    0.0612328  2.57423e+12
       898.60000    0.0612328  2.57239e+12
       898.70000    0.0612328  2.57055e+12
       898.80000    0.0616711  2.58710e+12
       898.90000    0.0616711  2.58464e+12
       899.00000    0.0616711  2.58279e+12
       899.10000    0.0616711  2.58032e+12
       899.20000    0.0616711  2.57785e+12
       899.30000    0.0616711  2.57539e+12
       899.40000    0.0616711  2.57292e+12
       899.50000    0.0613489  2.55702e+12
       899.60000    0.0613489  2.55395e+12
       899.70000    0.0613489  2.55150e+12
       899.80000    0.0613489  2.54843e+12
       899.90000    0.0613489  2.54536e+12
       900.00000    0.0613489  2.54230e+12
       900.10000    0.0613489  2.53493e+12
       900.20000    0.0613489  2.52880e+12
       900.30000    0.0613489  2.52205e+12
       900.40000    0.0613489  2.51653e+12
       900.50000    0.0611162  2.50149e+12
       900.60000    0.0611162  2.49660e+12
       900.70000    0.0611162  2.49171e+12
       900.80000    0.0611162  2.48804e+12
       900.90000    0.0611162  2.48437e+12
       901.00000    0.0611162  2.48071e+12
       901.10000    0.0611162  2.47826e+12
       901.20000    0.0611162  2.47582e+12
       901.30000    0.0613651  2.48345e+12
       901.40000    0.0613651  2.48222e+12
       901.50000    0.0611639  2.47285e+12
       901.60000    0.0611639  2.47224e+12
       901.70000    0.0611639  2.47163e+12
       901.80000    0.0611639  2.47163e+12
       901.90000    0.0611639  2.47224e+12
       902.00000    0.0611639  2.47347e+12
       902.10000    0.0611639  2.48203e+12
       902.20000    0.0611639  2.48998e+12
       902.30000    0.0611639  2.49793e+12
       902.40000    0.0611639  2.50527e+12
       902.50000    0.0609588  2.50419e+12
       902.60000    0.0609588  2.51089e+12
       902.70000    0.0609588  2.51760e+12
       902.80000    0.0609588  2.52370e+12
       902.90000    0.0609588  2.52979e+12
       903.00000    0.0609588  2.53528e+12
       903.10000    0.0609588  2.54076e+12
       903.20000    0.0609588  2.54564e+12
       903.30000    0.0609588  2.54991e+12
       903.40000    0.0609588  2.55418e+12
       903.50000    0.0606531  2.54500e+12
       903.60000    0.0606531  2.54864e+12
       903.70000    0.0606531  2.55228e+12
       903.80000    0.0609744  2.56824e+12
       903.90000    0.0609744  2.57129e+12
       904.00000    0.0609744  2.57312e+12
       904.10000    0.0609744  2.57495e+12
       904.20000    0.0609744  2.57678e+12
       904.30000    0.0609744  2.57800e+12
       904.40000    0.0609744  2.57861e+12
       904.50000    0.0606664  2.56619e+12
       904.60000    0.0606664  2.56680e+12
       904.70000    0.0606664  2.56680e+12
       904.80000    0.0606664  2.56619e+12
       904.90000    0.0606664  2.56558e+12
       905.00000    0.0606664  2.56437e+12
       905.10000    0.0606664  2.56316e+12
       905.20000    0.0606664  2.56134e+12
       905.30000    0.0606664  2.55952e+12
       905.40000    0.0606664  2.55709e+12
       905.50000    0.0602932  2.53834e+12
       905.60000    0.0602932  2.53533e+12
       905.70000    0.0602932  2.53231e+12
       905.80000    0.0602932  2.52870e+12
       905.90000    0.0602932  2.52448e+12
       906.00000    0.0602932  2.52025e+12
       906.10000    0.0602932  2.51784e+12
       906.20000    0.0602932  2.51603e+12
       906.30000    0.0605714  2.52583e+12
       906.40000    0.0605714  2.52340e+12
       906.50000    0.0601302  2.50322e+12
       906.60000    0.0601302  2.50142e+12
       906.70000    0.0601302  2.49961e+12
       906.80000    0.0601302  2.49781e+12
       906.90000    0.0601302  2.49600e+12
       907.00000    0.0601302  2.49420e+12
       907.10000    0.0601302  2.49240e+12
       907.20000    0.0601302  2.49059e+12
       907.30000    0.0601302  2.48879e+12
       907.40000    0.0601302  2.48698e+12
       907.50000    0.0596401  2.46493e+12
       907.60000    0.0596401  2.46373e+12
       907.70000    0.0596401  2.46194e+12
       907.80000    0.0596401  2.46015e+12
       907.90000    0.0596401  2.45896e+12
       908.00000    0.0596401  2.45717e+12
       908.10000    0.0596401  2.45479e+12
       908.20000    0.0596401  2.45300e+12
       908.30000    0.0596401  2.45061e+12
       908.40000    0.0596401  2.44882e+12
       908.50000    0.0591128  2.42540e+12
       908.60000    0.0591128  2.42363e+12
       908.70000    0.0591128  2.42244e+12
       908.80000    0.0593161  2.42899e+12
       908.90000    0.0593161  2.42781e+12
       909.00000    0.0593161  2.42662e+12
       909.10000    0.0593161  2.42544e+12
       909.20000    0.0593161  2.42425e+12
       909.30000    0.0593161  2.42306e+12
       909.40000    0.0593161  2.42247e+12
       909.50000    0.0587565  2.39903e+12
       909.60000    0.0587565  2.39844e+12
       909.70000    0.0587565  2.39785e+12
       909.80000    0.0587565  2.39727e+12
       909.90000    0.0587565  2.39727e+12
       910.00000    0.0587565  2.39668e+12
       910.10000    0.0587565  2.39668e+12
       910.20000    0.0587565  2.39668e+12
       910.30000    0.0587565  2.39727e+12
       910.40000    0.0587565  2.39727e+12
       910.50000    0.0581595  2.37349e+12
       910.60000    0.0581595  2.37349e+12
       910.70000    0.0581595  2.37407e+12
       910.80000    0.0581595  2.37524e+12
       910.90000    0.0581595  2.37582e+12
       911.00000    0.0581595  2.37640e+12
       911.10000    0.0581595  2.37756e+12
       911.20000    0.0581595  2.37872e+12
       911.30000    0.0582134  2.38209e+12
       911.40000    0.0582134  2.38326e+12
       911.50000    0.0576243  2.36087e+12
       911.60000    0.0576243  2.36202e+12
       911.70000    0.0576243  2.36375e+12
       911.80000    0.0576243  2.36548e+12
       911.90000    0.0576243  2.36721e+12
       912.00000    0.0576243  2.36951e+12
       912.10000    0.0576243  2.37239e+12
       912.20000    0.0576243  2.37470e+12
       912.30000    0.0576243  2.37700e+12
       912.40000    0.0576243  2.37931e+12
       912.50000    0.0570115  2.35629e+12
       912.60000    0.0570115  2.35857e+12
       912.70000    0.0570115  2.36085e+12
       912.80000    0.0570115  2.36256e+12
       912.90000    0.0570115  2.36427e+12
       913.00000    0.0570115  2.36598e+12
       913.10000    0.0570115  2.36769e+12
       913.20000    0.0570115  2.36883e+12
       913.30000    0.0570115  2.37054e+12
       913.40000    0.0570115  2.37168e+12
       913.50000    0.0564001  2.34737e+12
       913.60000    0.0564001  2.34850e+12
       913.70000    0.0564001  2.34906e+12
       913.80000    0.0567009  2.36216e+12
       913.90000    0.0567009  2.36329e+12
       914.00000    0.0567009  2.36386e+12
       914.10000    0.0567009  2.36273e+12
       914.20000    0.0567009  2.36216e+12
       914.30000    0.0567009  2.36159e+12
       914.40000    0.0567009  2.36103e+12
       914.50000    0.0560662  2.33404e+12
       914.60000    0.0560662  2.33291e+12
       914.70000    0.0560662  2.33235e+12
       914.80000    0.0560662  2.33179e+12
       914.90000    0.0560662  2.33123e+12
       915.00000    0.0560662  2.33067e+12
       915.10000    0.0560662  2.33011e+12
       915.20000    0.0560662  2.32955e+12
       915.30000    0.0560662  2.32899e+12
       915.40000    0.0560662  2.32843e+12
       915.50000    0.0554436  2.30202e+12
       915.60000    0.0554436  2.30146e+12
       915.70000    0.0554436  2.30091e+12
       915.80000    0.0554436  2.30035e+12
       915.90000    0.0554436  2.29980e+12
       916.00000    0.0554436  2.29924e+12
       916.10000    0.0554436  2.29869e+12
       916.20000    0.0554436  2.29814e+12
       916.30000    0.0558391  2.31397e+12
       916.40000    0.0558391  2.31341e+12
       916.50000    0.0552083  2.28673e+12
       916.60000    0.0552083  2.28673e+12
       916.70000    0.0552083  2.28618e+12
       916.80000    0.0552083  2.28562e+12
       916.90000    0.0552083  2.28507e+12
       917.00000    0.0552083  2.28452e+12
       917.10000    0.0552083  2.28452e+12
       917.20000    0.0552083  2.28397e+12
       917.30000    0.0552083  2.28342e+12
       917.40000    0.0552083  2.28286e+12
       917.50000    0.0546055  2.25794e+12
       917.60000    0.0546055  2.25739e+12
       917.70000    0.0546055  2.25685e+12
       917.80000    0.0546055  2.25685e+12
       917.90000    0.0546055  2.25630e+12
       918.00000    0.0546055  2.25575e+12
       918.10000    0.0546055  2.25685e+12
       918.20000    0.0546055  2.25794e+12
       918.30000    0.0546055  2.25903e+12
       918.40000    0.0546055  2.25958e+12
       918.50000    0.0540213  2.23594e+12
       918.60000    0.0540213  2.23648e+12
       918.70000    0.0540213  2.23648e+12
       918.80000    0.0545240  2.25729e+12
       918.90000    0.0545240  2.25729e+12
       919.00000    0.0545240  2.25729e+12
       919.10000    0.0545240  2.25675e+12
       919.20000    0.0545240  2.25620e+12
       919.30000    0.0545240  2.25566e+12
       919.40000    0.0545240  2.25457e+12
       919.50000    0.0539375  2.22924e+12
       919.60000    0.0539375  2.22816e+12
       919.70000    0.0539375  2.22708e+12
       919.80000    0.0539375  2.22546e+12
       919.90000    0.0539375  2.22438e+12
       920.00000    0.0539375  2.22277e+12
       920.10000    0.0539375  2.21791e+12
       920.20000    0.0539375  2.21360e+12
       920.30000    0.0539375  2.20928e+12
       920.40000    0.0539375  2.20497e+12
       920.50000    0.0533733  2.17763e+12
       920.60000    0.0533733  2.17390e+12
       920.70000    0.0533733  2.17016e+12
       920.80000    0.0533733  2.16696e+12
       920.90000    0.0533733  2.16322e+12
       921.00000    0.0533733  2.16002e+12
       921.10000    0.0533733  2.15682e+12
       921.20000    0.0533733  2.15415e+12
       921.30000    0.0535940  2.15984e+12
       921.40000    0.0535940  2.15716e+12
       921.50000    0.0529783  2.12973e+12
       921.60000    0.0529783  2.12761e+12
       921.70000    0.0529783  2.12549e+12
       921.80000    0.0529783  2.12337e+12
       921.90000    0.0529783  2.12125e+12
       922.00000    0.0529783  2.11966e+12
       922.10000    0.0529783  2.11754e+12
       922.20000    0.0529783  2.11648e+12
       922.30000    0.0529783  2.11489e+12
       922.40000    0.0529783  2.11383e+12
       922.50000    0.0523914  2.08885e+12
       922.60000    0.0523914  2.08832e+12
       922.70000    0.0523914  2.08727e+12
       922.80000    0.0523914  2.08675e+12
       922.90000    0.0523914  2.08623e+12
       923.00000    0.0523914  2.08570e+12
       923.10000    0.0523914  2.08570e+12
       923.20000    0.0523914  2.08518e+12
       923.30000    0.0523914  2.08518e+12
       923.40000    0.0523914  2.08570e+12
       923.50000    0.0517767  2.06123e+12
       923.60000    0.0517767  2.06175e+12
       923.70000    0.0517767  2.06227e+12
       923.80000    0.0518941  2.06798e+12
       923.90000    0.0518941  2.06850e+12
       924.00000    0.0518941  2.06954e+12
       924.10000    0.0518941  2.06954e+12
       924.20000    0.0518941  2.06954e+12
       924.30000    0.0518941  2.06954e+12
       924.40000    0.0518941  2.06954e+12
       924.50000    0.0513076  2.04615e+12
       924.60000    0.0513076  2.04615e+12
       924.70000    0.0513076  2.04666e+12
       924.80000    0.0513076  2.04717e+12
       924.90000    0.0513076  2.04717e+12
       925.00000    0.0513076  2.04769e+12
       925.10000    0.0513076  2.04871e+12
       925.20000    0.0513076  2.04923e+12
       925.30000    0.0513076  2.04974e+12
       925.40000    0.0513076  2.05077e+12
       925.50000    0.0506735  2.02643e+12
       925.60000    0.0506735  2.02745e+12
       925.70000    0.0506735  2.02846e+12
       925.80000    0.0506735  2.02948e+12
       925.90000    0.0506735  2.03049e+12
       926.00000    0.0506735  2.03201e+12
       926.10000    0.0506735  2.03505e+12
       926.20000    0.0506735  2.03860e+12
       926.30000    0.0508837  2.05010e+12
       926.40000    0.0508837  2.05316e+12
       926.50000    0.0502294  2.02977e+12
       926.60000    0.0502294  2.03228e+12
       926.70000    0.0502294  2.03480e+12
       926.80000    0.0502294  2.03731e+12
       926.90000    0.0502294  2.03982e+12
       927.00000    0.0502294  2.04183e+12
       927.10000    0.0502294  2.04384e+12
       927.20000    0.0502294  2.04585e+12
       927.30000    0.0502294  2.04735e+12
       927.40000    0.0502294  2.04886e+12
       927.50000    0.0495743  2.02362e+12
       927.60000    0.0495743  2.02461e+12
       927.70000    0.0495743  2.02610e+12
       927.80000    0.0495743  2.02709e+12
       927.90000    0.0495743  2.02759e+12
       928.00000    0.0495743  2.02808e+12
       928.10000    0.0495743  2.02709e+12
       928.20000    0.0495743  2.02610e+12
       928.30000    0.0495743  2.02461e+12
       928.40000    0.0495743  2.02362e+12
       928.50000    0.0488548  1.99328e+12
       928.60000    0.0488548  1.99230e+12
       928.70000    0.0488548  1.99132e+12
       928.80000    0.0490818  1.99959e+12
       928.90000    0.0490818  1.99861e+12
       929.00000    0.0490818  1.99812e+12
       929.10000    0.0490818  1.99714e+12
       929.20000    0.0490818  1.99616e+12
       929.30000    0.0490818  1.99567e+12
       929.40000    0.0490818  1.99468e+12
       929.50000    0.0484057  1.96672e+12
       929.60000    0.0484057  1.96624e+12
       929.70000    0.0484057  1.96527e+12
       929.80000    0.0484057  1.96479e+12
       929.90000    0.0484057  1.96430e+12
       930.00000    0.0484057  1.96382e+12
       930.10000    0.0484057  1.96382e+12
       930.20000    0.0484057  1.96382e+12
       930.30000    0.0484057  1.96334e+12
       930.40000    0.0484057  1.96334e+12
       930.50000    0.0476878  1.93422e+12
       930.60000    0.0476878  1.93422e+12
       930.70000    0.0476878  1.93374e+12
       930.80000    0.0476878  1.93374e+12
       930.90000    0.0476878  1.93374e+12
       931.00000    0.0476878  1.93374e+12
       931.10000    0.0476878  1.93374e+12
       931.20000    0.0476878  1.93326e+12
       931.30000    0.0479027  1.94197e+12
       931.40000    0.0479027  1.94197e+12
       931.50000    0.0471784  1.91261e+12
       931.60000    0.0471784  1.91261e+12
       931.70000    0.0471784  1.91261e+12
       931.80000    0.0471784  1.91261e+12
       931.90000    0.0471784  1.91261e+12
       932.00000    0.0471784  1.91261e+12
       932.10000    0.0471784  1.91261e+12
       932.20000    0.0471784  1.91261e+12
       932.30000    0.0471784  1.91261e+12
       932.40000    0.0471784  1.91261e+12
       932.50000    0.0464233  1.88200e+12
       932.60000    0.0464233  1.88200e+12
       932.70000    0.0464233  1.88200e+12
       932.80000    0.0464233  1.88247e+12
       932.90000    0.0464233  1.88247e+12
       933.00000    0.0464233  1.88247e+12
       933.10000    0.0464233  1.88247e+12
       933.20000    0.0464233  1.88247e+12
       933.30000    0.0464233  1.88293e+12
       933.40000    0.0464233  1.88293e+12
       933.50000    0.0456803  1.85279e+12
       933.60000    0.0456803  1.85325e+12
       933.70000    0.0456803  1.85325e+12
       933.80000    0.0458526  1.86024e+12
       933.90000    0.0458526  1.86070e+12
       934.00000    0.0458526  1.86070e+12
       934.10000    0.0458526  1.85932e+12
       934.20000    0.0458526  1.85795e+12
       934.30000    0.0458526  1.85657e+12
       934.40000    0.0458526  1.85519e+12
       934.50000    0.0450533  1.82151e+12
       934.60000    0.0450533  1.82060e+12
       934.70000    0.0450533  1.81970e+12
       934.80000    0.0450533  1.81835e+12
       934.90000    0.0450533  1.81745e+12
       935.00000    0.0450533  1.81700e+12
       935.10000    0.0450533  1.81610e+12
       935.20000    0.0450533  1.81520e+12
       935.30000    0.0450533  1.81475e+12
       935.40000    0.0450533  1.81430e+12
       935.50000    0.0442645  1.78209e+12
       935.60000    0.0442645  1.78165e+12
       935.70000    0.0442645  1.78120e+12
       935.80000    0.0442645  1.78076e+12
       935.90000    0.0442645  1.78076e+12
       936.00000    0.0442645  1.78032e+12
       936.10000    0.0442645  1.78165e+12
       936.20000    0.0442645  1.78297e+12
       936.30000    0.0444185  1.79051e+12
       936.40000    0.0444185  1.79184e+12
       936.50000    0.0436551  1.76192e+12
       936.60000    0.0436551  1.76279e+12
       936.70000    0.0436551  1.76367e+12
       936.80000    0.0436551  1.76454e+12
       936.90000    0.0436551  1.76498e+12
       937.00000    0.0436551  1.76585e+12
       937.10000    0.0436551  1.76629e+12
       937.20000    0.0436551  1.76672e+12
       937.30000    0.0436551  1.76672e+12
       937.40000    0.0436551  1.76716e+12
       937.50000    0.0428324  1.73385e+12
       937.60000    0.0428324  1.73385e+12
       937.70000    0.0428324  1.73385e+12
       937.80000    0.0428324  1.73385e+12
       937.90000    0.0428324  1.73343e+12
       938.00000    0.0428324  1.73343e+12
       938.10000    0.0428324  1.73300e+12
       938.20000    0.0428324  1.73214e+12
       938.30000    0.0428324  1.73171e+12
       938.40000    0.0428324  1.73086e+12
       938.50000    0.0420617  1.69929e+12
       938.60000    0.0420617  1.69845e+12
       938.70000    0.0420617  1.69719e+12
       938.80000    0.0421797  1.70111e+12
       938.90000    0.0421797  1.69984e+12
       939.00000    0.0421797  1.69900e+12
       939.10000    0.0421797  1.69773e+12
       939.20000    0.0421797  1.69605e+12
       939.30000    0.0421797  1.69478e+12
       939.40000    0.0421797  1.69309e+12
       939.50000    0.0413762  1.65918e+12
       939.60000    0.0413762  1.65753e+12
       939.70000    0.0413762  1.65587e+12
       939.80000    0.0413762  1.65422e+12
       939.90000    0.0413762  1.65215e+12
       940.00000    0.0413762  1.65008e+12
       940.10000    0.0413762  1.64719e+12
       940.20000    0.0413762  1.64429e+12
       940.30000    0.0413762  1.64181e+12
       940.40000    0.0413762  1.63932e+12
       940.50000    0.0406057  1.60636e+12
       940.60000    0.0406057  1.60433e+12
       940.70000    0.0406057  1.60230e+12
       940.80000    0.0406057  1.60027e+12
       940.90000    0.0406057  1.59824e+12
       941.00000    0.0406057  1.59662e+12
       941.10000    0.0406057  1.59499e+12
       941.20000    0.0406057  1.59377e+12
       941.30000    0.0406580  1.59461e+12
       941.40000    0.0406580  1.59339e+12
       941.50000    0.0398796  1.56169e+12
       941.60000    0.0398796  1.56089e+12
       941.70000    0.0398796  1.56009e+12
       941.80000    0.0398796  1.55929e+12
       941.90000    0.0398796  1.55850e+12
       942.00000    0.0398796  1.55810e+12
       942.10000    0.0398796  1.55929e+12
       942.20000    0.0398796  1.56009e+12
       942.30000    0.0398796  1.56129e+12
       942.40000    0.0398796  1.56209e+12
       942.50000    0.0391300  1.53350e+12
       942.60000    0.0391300  1.53468e+12
       942.70000    0.0391300  1.53546e+12
       942.80000    0.0391300  1.53624e+12
       942.90000    0.0391300  1.53703e+12
       943.00000    0.0391300  1.53781e+12
       943.10000    0.0391300  1.53898e+12
       943.20000    0.0391300  1.53976e+12
       943.30000    0.0391300  1.54055e+12
       943.40000    0.0391300  1.54133e+12
       943.50000    0.0384298  1.51452e+12
       943.60000    0.0384298  1.51529e+12
       943.70000    0.0384298  1.51605e+12
       943.80000    0.0384238  1.51659e+12
       943.90000    0.0384238  1.51736e+12
       944.00000    0.0384238  1.51812e+12
       944.10000    0.0384238  1.51889e+12
       944.20000    0.0384238  1.51966e+12
       944.30000    0.0384238  1.52005e+12
       944.40000    0.0384238  1.52081e+12
       944.50000    0.0377162  1.49356e+12
       944.60000    0.0377162  1.49432e+12
       944.70000    0.0377162  1.49469e+12
       944.80000    0.0377162  1.49545e+12
       944.90000    0.0377162  1.49620e+12
       945.00000    0.0377162  1.49658e+12
       945.10000    0.0377162  1.49733e+12
       945.20000    0.0377162  1.49809e+12
       945.30000    0.0377162  1.49846e+12
       945.40000    0.0377162  1.49922e+12
       945.50000    0.0370484  1.47304e+12
       945.60000    0.0370484  1.47378e+12
       945.70000    0.0370484  1.47415e+12
       945.80000    0.0370484  1.47490e+12
       945.90000    0.0370484  1.47527e+12
       946.00000    0.0370484  1.47564e+12
       946.10000    0.0370484  1.47638e+12
       946.20000    0.0370484  1.47712e+12
       946.30000    0.0370594  1.47830e+12
       946.40000    0.0370594  1.47904e+12
       946.50000    0.0363911  1.45310e+12
       946.60000    0.0363911  1.45346e+12
       946.70000    0.0363911  1.45419e+12
       946.80000    0.0363911  1.45455e+12
       946.90000    0.0363911  1.45492e+12
       947.00000    0.0363911  1.45565e+12
       947.10000    0.0363911  1.45601e+12
       947.20000    0.0363911  1.45637e+12
       947.30000    0.0363911  1.45674e+12
       947.40000    0.0363911  1.45710e+12
       947.50000    0.0357241  1.43039e+12
       947.60000    0.0357241  1.43075e+12
       947.70000    0.0357241  1.43111e+12
       947.80000    0.0357241  1.43111e+12
       947.90000    0.0357241  1.43147e+12
       948.00000    0.0357241  1.43147e+12
       948.10000    0.0357241  1.43147e+12
       948.20000    0.0357241  1.43147e+12
       948.30000    0.0357241  1.43111e+12
       948.40000    0.0357241  1.43111e+12
       948.50000    0.0350741  1.40472e+12
       948.60000    0.0350741  1.40472e+12
       948.70000    0.0350741  1.40472e+12
       948.80000    0.0351830  1.40873e+12
       948.90000    0.0351830  1.40873e+12
       949.00000    0.0351830  1.40838e+12
       949.10000    0.0351830  1.40838e+12
       949.20000    0.0351830  1.40802e+12
       949.30000    0.0351830  1.40802e+12
       949.40000    0.0351830  1.40767e+12
       949.50000    0.0345304  1.38156e+12
       949.60000    0.0345304  1.38122e+12
       949.70000    0.0345304  1.38087e+12
       949.80000    0.0345304  1.38087e+12
       949.90000    0.0345304  1.38053e+12
       950.00000    0.0345304  1.38018e+12
       950.10000    0.0345304  1.38018e+12
       950.20000    0.0345304  1.37983e+12
       950.30000    0.0345304  1.37949e+12
       950.40000    0.0345304  1.37949e+12
       950.50000    0.0341611  1.36439e+12
       950.60000    0.0341611  1.36405e+12
       950.70000    0.0341611  1.36371e+12
       950.80000    0.0341611  1.36371e+12
       950.90000    0.0341611  1.36337e+12
       951.00000    0.0341611  1.36303e+12
       951.10000    0.0341611  1.36269e+12
       951.20000    0.0341611  1.36234e+12
       951.30000    0.0341285  1.36104e+12
       951.40000    0.0341285  1.36070e+12
       951.50000    0.0337512  1.34532e+12
       951.60000    0.0337512  1.34498e+12
       951.70000    0.0337512  1.34465e+12
       951.80000    0.0337512  1.34431e+12
       951.90000    0.0337512  1.34397e+12
       952.00000    0.0337512  1.34363e+12
       952.10000    0.0337512  1.34093e+12
       952.20000    0.0337512  1.33823e+12
       952.30000    0.0337512  1.33587e+12
       952.40000    0.0337512  1.33351e+12
       952.50000    0.0333941  1.31706e+12
       952.60000    0.0333941  1.31472e+12
       952.70000    0.0333941  1.31272e+12
       952.80000    0.0333941  1.31072e+12
       952.90000    0.0333941  1.30871e+12
       953.00000    0.0333941  1.30704e+12
       953.10000    0.0333941  1.30537e+12
       953.20000    0.0333941  1.30370e+12
       953.30000    0.0333941  1.30237e+12
       953.40000    0.0333941  1.30070e+12
       953.50000    0.0330473  1.28587e+12
       953.60000    0.0330473  1.28488e+12
       953.70000    0.0330473  1.28356e+12
       953.80000    0.0331178  1.28530e+12
       953.90000    0.0331178  1.28431e+12
       954.00000    0.0331178  1.28365e+12
       954.10000    0.0331178  1.28331e+12
       954.20000    0.0331178  1.28298e+12
       954.30000    0.0331178  1.28298e+12
       954.40000    0.0331178  1.28298e+12
       954.50000    0.0327549  1.26860e+12
       954.60000    0.0327549  1.26860e+12
       954.70000    0.0327549  1.26860e+12
       954.80000    0.0327549  1.26860e+12
       954.90000    0.0327549  1.26893e+12
       955.00000    0.0327549  1.26893e+12
       955.10000    0.0327549  1.26925e+12
       955.20000    0.0327549  1.26925e+12
       955.30000    0.0327549  1.26958e+12
       955.40000    0.0327549  1.26991e+12
       955.50000    0.0324052  1.25667e+12
       955.60000    0.0324052  1.25700e+12
       955.70000    0.0324052  1.25732e+12
       955.80000    0.0324052  1.25797e+12
       955.90000    0.0324052  1.25829e+12
       956.00000    0.0324052  1.25894e+12
       956.10000    0.0324052  1.25959e+12
       956.20000    0.0324052  1.25991e+12
       956.30000    0.0325152  1.26484e+12
       956.40000    0.0325152  1.26582e+12
       956.50000    0.0321533  1.25237e+12
       956.60000    0.0321533  1.25302e+12
       956.70000    0.0321533  1.25398e+12
       956.80000    0.0321533  1.25462e+12
       956.90000    0.0321533  1.25559e+12
       957.00000    0.0321533  1.25655e+12
       957.10000    0.0321533  1.25752e+12
       957.20000    0.0321533  1.25848e+12
       957.30000    0.0321533  1.25977e+12
       957.40000    0.0321533  1.26073e+12
       957.50000    0.0317892  1.24741e+12
       957.60000    0.0317892  1.24868e+12
       957.70000    0.0317892  1.24995e+12
       957.80000    0.0317892  1.25122e+12
       957.90000    0.0317892  1.25249e+12
       958.00000    0.0317892  1.25377e+12
       958.10000    0.0317892  1.25377e+12
       958.20000    0.0317892  1.25345e+12
       958.30000    0.0317892  1.25345e+12
       958.40000    0.0317892  1.25345e+12
       958.50000    0.0314338  1.23943e+12
       958.60000    0.0314338  1.23912e+12
       958.70000    0.0314338  1.23912e+12
       958.80000    0.0314663  1.24040e+12
       958.90000    0.0314663  1.24009e+12
       959.00000    0.0314663  1.24009e+12
       959.10000    0.0314663  1.23977e+12
       959.20000    0.0314663  1.23977e+12
       959.30000    0.0314663  1.23946e+12
       959.40000    0.0314663  1.23914e+12
       959.50000    0.0310888  1.22428e+12
       959.60000    0.0310888  1.22397e+12
       959.70000    0.0310888  1.22397e+12
       959.80000    0.0310888  1.22366e+12
       959.90000    0.0310888  1.22334e+12
       960.00000    0.0310888  1.22303e+12
       960.10000    0.0310888  1.22272e+12
       960.20000    0.0310888  1.22241e+12
       960.30000    0.0310888  1.22210e+12
       960.40000    0.0310888  1.22179e+12
       960.50000    0.0307036  1.20635e+12
       960.60000    0.0307036  1.20604e+12
       960.70000    0.0307036  1.20573e+12
       960.80000    0.0307036  1.20542e+12
       960.90000    0.0307036  1.20512e+12
       961.00000    0.0307036  1.20481e+12
       961.10000    0.0307036  1.20450e+12
       961.20000    0.0307036  1.20420e+12
       961.30000    0.0307639  1.20625e+12
       961.40000    0.0307639  1.20594e+12
       961.50000    0.0303744  1.19037e+12
       961.60000    0.0303744  1.18977e+12
       961.70000    0.0303744  1.18946e+12
       961.80000    0.0303744  1.18916e+12
       961.90000    0.0303744  1.18885e+12
       962.00000    0.0303744  1.18855e+12
       962.10000    0.0303744  1.18794e+12
       962.20000    0.0303744  1.18764e+12
       962.30000    0.0303744  1.18734e+12
       962.40000    0.0303744  1.18673e+12
       962.50000    0.0299566  1.17011e+12
       962.60000    0.0299566  1.16981e+12
       962.70000    0.0299566  1.16921e+12
       962.80000    0.0299566  1.16891e+12
       962.90000    0.0299566  1.16831e+12
       963.00000    0.0299566  1.16801e+12
       963.10000    0.0299566  1.16771e+12
       963.20000    0.0299566  1.16711e+12
       963.30000    0.0299566  1.16681e+12
       963.40000    0.0299566  1.16621e+12
       963.50000    0.0295440  1.14985e+12
       963.60000    0.0295440  1.14926e+12
       963.70000    0.0295440  1.14897e+12
       963.80000    0.0296064  1.15080e+12
       963.90000    0.0296064  1.15021e+12
       964.00000    0.0296064  1.14991e+12
       964.10000    0.0296064  1.14932e+12
       964.20000    0.0296064  1.14843e+12
       964.30000    0.0296064  1.14784e+12
       964.40000    0.0296064  1.14754e+12
       964.50000    0.0291675  1.12995e+12
       964.60000    0.0291675  1.12937e+12
       964.70000    0.0291675  1.12907e+12
       964.80000    0.0291675  1.12849e+12
       964.90000    0.0291675  1.12820e+12
       965.00000    0.0291675  1.12762e+12
       965.10000    0.0291675  1.12732e+12
       965.20000    0.0291675  1.12703e+12
       965.30000    0.0291675  1.12674e+12
       965.40000    0.0291675  1.12674e+12
       965.50000    0.0287555  1.11054e+12
       965.60000    0.0287555  1.11025e+12
       965.70000    0.0287555  1.11025e+12
       965.80000    0.0287555  1.10996e+12
       965.90000    0.0287555  1.10996e+12
       966.00000    0.0287555  1.10996e+12
       966.10000    0.0287555  1.11025e+12
       966.20000    0.0287555  1.11054e+12
       966.30000    0.0288498  1.11476e+12
       966.40000    0.0288498  1.11505e+12
       966.50000    0.0284010  1.09798e+12
       966.60000    0.0284010  1.09827e+12
       966.70000    0.0284010  1.09855e+12
       966.80000    0.0284010  1.09883e+12
       966.90000    0.0284010  1.09912e+12
       967.00000    0.0284010  1.09940e+12
       967.10000    0.0284010  1.09969e+12
       967.20000    0.0284010  1.09997e+12
       967.30000    0.0284010  1.10025e+12
       967.40000    0.0284010  1.10054e+12
       967.50000    0.0279512  1.08311e+12
       967.60000    0.0279512  1.08339e+12
       967.70000    0.0279512  1.08367e+12
       967.80000    0.0279512  1.08367e+12
       967.90000    0.0279512  1.08395e+12
       968.00000    0.0279512  1.08423e+12
       968.10000    0.0279512  1.08423e+12
       968.20000    0.0279512  1.08451e+12
       968.30000    0.0279512  1.08451e+12
       968.40000    0.0279512  1.08451e+12
       968.50000    0.0275211  1.06809e+12
       968.60000    0.0275211  1.06809e+12
       968.70000    0.0275211  1.06809e+12
       968.80000    0.0275861  1.07089e+12
       968.90000    0.0275861  1.07089e+12
       969.00000    0.0275861  1.07089e+12
       969.10000    0.0275861  1.07089e+12
       969.20000    0.0275861  1.07089e+12
       969.30000    0.0275861  1.07089e+12
       969.40000    0.0275861  1.07089e+12
       969.50000    0.0271567  1.05422e+12
       969.60000    0.0271567  1.05422e+12
       969.70000    0.0271567  1.05422e+12
       969.80000    0.0271567  1.05422e+12
       969.90000    0.0271567  1.05422e+12
       970.00000    0.0271567  1.05422e+12
       970.10000    0.0271567  1.05450e+12
       970.20000    0.0271567  1.05477e+12
       970.30000    0.0271567  1.05477e+12
       970.40000    0.0271567  1.05504e+12
       970.50000    0.0267317  1.03853e+12
       970.60000    0.0267317  1.03879e+12
       970.70000    0.0267317  1.03879e+12
       970.80000    0.0267317  1.03879e+12
       970.90000    0.0267317  1.03879e+12
       971.00000    0.0267317  1.03879e+12
       971.10000    0.0267317  1.03879e+12
       971.20000    0.0267317  1.03853e+12
       971.30000    0.0267750  1.04021e+12
       971.40000    0.0267750  1.03994e+12
       971.50000    0.0263375  1.02295e+12
       971.60000    0.0263375  1.02268e+12
       971.70000    0.0263375  1.02242e+12
       971.80000    0.0263375  1.02216e+12
       971.90000    0.0263375  1.02189e+12
       972.00000    0.0263375  1.02137e+12
       972.10000    0.0263375  1.02031e+12
       972.20000    0.0263375  1.01926e+12
       972.30000    0.0263375  1.01847e+12
       972.40000    0.0263375  1.01742e+12
       972.50000    0.0259134  1.00026e+12
       972.60000    0.0259134  9.99222e+11
       972.70000    0.0259134  9.98445e+11
       972.80000    0.0259134  9.97668e+11
       972.90000    0.0259134  9.96890e+11
       973.00000    0.0259134  9.96372e+11
       973.10000    0.0259134  9.95595e+11
       973.20000    0.0259134  9.95076e+11
       973.30000    0.0259134  9.94558e+11
       973.40000    0.0259134  9.94040e+11
       973.50000    0.0254723  9.76606e+11
       973.60000    0.0254723  9.76097e+11
       973.70000    0.0254723  9.75842e+11
       973.80000    0.0254860  9.75861e+11
       973.90000    0.0254860  9.75606e+11
       974.00000    0.0254860  9.75351e+11
       974.10000    0.0254860  9.75606e+11
       974.20000    0.0254860  9.76116e+11
       974.30000    0.0254860  9.76370e+11
       974.40000    0.0254860  9.76625e+11
       974.50000    0.0250275  9.59305e+11
       974.60000    0.0250275  9.59555e+11
       974.70000    0.0250275  9.59806e+11
       974.80000    0.0250275  9.60056e+11
       974.90000    0.0250275  9.60056e+11
       975.00000    0.0250275  9.60306e+11
       975.10000    0.0250275  9.60556e+11
       975.20000    0.0250275  9.60556e+11
       975.30000    0.0250275  9.60807e+11
       975.40000    0.0250275  9.60807e+11
       975.50000    0.0245492  9.42443e+11
       975.60000    0.0245492  9.42688e+11
       975.70000    0.0245492  9.42688e+11
       975.80000    0.0245492  9.42688e+11
       975.90000    0.0245492  9.42688e+11
       976.00000    0.0245492  9.42688e+11
       976.10000    0.0245492  9.42443e+11
       976.20000    0.0245492  9.42197e+11
       976.30000    0.0245327  9.41318e+11
       976.40000    0.0245327  9.41073e+11
       976.50000    0.0240448  9.22358e+11
       976.60000    0.0240448  9.22118e+11
       976.70000    0.0240448  9.21877e+11
       976.80000    0.0240448  9.21637e+11
       976.90000    0.0240448  9.21637e+11
       977.00000    0.0240448  9.21396e+11
       977.10000    0.0240448  9.21156e+11
       977.20000    0.0240448  9.20916e+11
       977.30000    0.0240448  9.20916e+11
       977.40000    0.0240448  9.20675e+11
       977.50000    0.0235458  9.01333e+11
       977.60000    0.0235458  9.01333e+11
       977.70000    0.0235458  9.01098e+11
       977.80000    0.0235458  9.00862e+11
       977.90000    0.0235458  9.00862e+11
       978.00000    0.0235458  9.00627e+11
       978.10000    0.0235458  9.00627e+11
       978.20000    0.0235458  9.00391e+11
       978.30000    0.0235458  9.00391e+11
       978.40000    0.0235458  9.00156e+11
       978.50000    0.0230063  8.79300e+11
       978.60000    0.0230063  8.79300e+11
       978.70000    0.0230063  8.79300e+11
       978.80000    0.0230025  8.78925e+11
       978.90000    0.0230025  8.78925e+11
       979.00000    0.0230025  8.78695e+11
       979.10000    0.0230025  8.78695e+11
       979.20000    0.0230025  8.78465e+11
       979.30000    0.0230025  8.78465e+11
       979.40000    0.0230025  8.78465e+11
       979.50000    0.0224568  8.57400e+11
       979.60000    0.0224568  8.57400e+11
       979.70000    0.0224568  8.57400e+11
       979.80000    0.0224568  8.57175e+11
       979.90000    0.0224568  8.57175e+11
       980.00000    0.0224568  8.57175e+11
       980.10000    0.0224568  8.57625e+11
       980.20000    0.0224568  8.57849e+11
       980.30000    0.0224568  8.58298e+11
       980.40000    0.0224568  8.58523e+11
       980.50000    0.0218978  8.37591e+11
       980.60000    0.0218978  8.37810e+11
       980.70000    0.0218978  8.38029e+11
       980.80000    0.0218978  8.38248e+11
       980.90000    0.0218978  8.38467e+11
       981.00000    0.0218978  8.38686e+11
       981.10000    0.0218978  8.38905e+11
       981.20000    0.0218978  8.39124e+11
       981.30000    0.0220153  8.43626e+11
       981.40000    0.0220153  8.43846e+11
       981.50000    0.0214584  8.22502e+11
       981.60000    0.0214584  8.22502e+11
       981.70000    0.0214584  8.22717e+11
       981.80000    0.0214584  8.22717e+11
       981.90000    0.0214584  8.22717e+11
       982.00000    0.0214584  8.22502e+11
       982.10000    0.0214584  8.22287e+11
       982.20000    0.0214584  8.21858e+11
       982.30000    0.0214584  8.21644e+11
       982.40000    0.0214584  8.21215e+11
       982.50000    0.0209086  7.99962e+11
       982.60000    0.0209086  7.99544e+11
       982.70000    0.0209086  7.99335e+11
       982.80000    0.0209086  7.99126e+11
       982.90000    0.0209086  7.98707e+11
       983.00000    0.0209086  7.98498e+11
       983.10000    0.0209086  7.98289e+11
       983.20000    0.0209086  7.98080e+11
       983.30000    0.0209086  7.97871e+11
       983.40000    0.0209086  7.97453e+11
       983.50000    0.0203570  7.76213e+11
       983.60000    0.0203570  7.76009e+11
       983.70000    0.0203570  7.75805e+11
       983.80000    0.0203729  7.76208e+11
       983.90000    0.0203729  7.76004e+11
       984.00000    0.0203729  7.75801e+11
       984.10000    0.0203729  7.75801e+11
       984.20000    0.0203729  7.75597e+11
       984.30000    0.0203729  7.75393e+11
       984.40000    0.0203729  7.75189e+11
       984.50000    0.0198546  7.55468e+11
       984.60000    0.0198546  7.55269e+11
       984.70000    0.0198546  7.55071e+11
       984.80000    0.0198546  7.55071e+11
       984.90000    0.0198546  7.54872e+11
       985.00000    0.0198546  7.54673e+11
       985.10000    0.0198546  7.54673e+11
       985.20000    0.0198546  7.54475e+11
       985.30000    0.0198546  7.54475e+11
       985.40000    0.0198546  7.54475e+11
       985.50000    0.0193469  7.34988e+11
       985.60000    0.0193469  7.34988e+11
       985.70000    0.0193469  7.34988e+11
       985.80000    0.0193469  7.34795e+11
       985.90000    0.0193469  7.34795e+11
       986.00000    0.0193469  7.34795e+11
       986.10000    0.0193469  7.34601e+11
       986.20000    0.0193469  7.34601e+11
       986.30000    0.0192360  7.30392e+11
       986.40000    0.0192360  7.30200e+11
       986.50000    0.0187512  7.11610e+11
       986.60000    0.0187512  7.11610e+11
       986.70000    0.0187512  7.11422e+11
       986.80000    0.0187512  7.11422e+11
       986.90000    0.0187512  7.11235e+11
       987.00000    0.0187512  7.11047e+11
       987.10000    0.0187512  7.10860e+11
       987.20000    0.0187512  7.10860e+11
       987.30000    0.0187512  7.10672e+11
       987.40000    0.0187512  7.10485e+11
       987.50000    0.0183038  6.93348e+11
       987.60000    0.0183038  6.93165e+11
       987.70000    0.0183038  6.92982e+11
       987.80000    0.0183038  6.92798e+11
       987.90000    0.0183038  6.92615e+11
       988.00000    0.0183038  6.92432e+11
       988.10000    0.0183038  6.91883e+11
       988.20000    0.0183038  6.91517e+11
       988.30000    0.0183038  6.90968e+11
       988.40000    0.0183038  6.90602e+11
       988.50000    0.0178616  6.73561e+11
       988.60000    0.0178616  6.73203e+11
       988.70000    0.0178616  6.72846e+11
       988.80000    0.0179109  6.74345e+11
       988.90000    0.0179109  6.73987e+11
       989.00000    0.0179109  6.73808e+11
       989.10000    0.0179109  6.73629e+11
       989.20000    0.0179109  6.73271e+11
       989.30000    0.0179109  6.73091e+11
       989.40000    0.0179109  6.72912e+11
       989.50000    0.0174970  6.57189e+11
       989.60000    0.0174970  6.57014e+11
       989.70000    0.0174970  6.57014e+11
       989.80000    0.0174970  6.56839e+11
       989.90000    0.0174970  6.56839e+11
       990.00000    0.0174970  6.56839e+11
       990.10000    0.0174970  6.56664e+11
       990.20000    0.0174970  6.56664e+11
       990.30000    0.0174970  6.56839e+11
       990.40000    0.0174970  6.56839e+11
       990.50000    0.0171076  6.42218e+11
       990.60000    0.0171076  6.42389e+11
       990.70000    0.0171076  6.42389e+11
       990.80000    0.0171076  6.42560e+11
       990.90000    0.0171076  6.42732e+11
       991.00000    0.0171076  6.42903e+11
       991.10000    0.0171076  6.43074e+11
       991.20000    0.0171076  6.43245e+11
       991.30000    0.0171438  6.44779e+11
       991.40000    0.0171438  6.45122e+11
       991.50000    0.0167675  6.31129e+11
       991.60000    0.0167675  6.31465e+11
       991.70000    0.0167675  6.31800e+11
       991.80000    0.0167675  6.32135e+11
       991.90000    0.0167675  6.32471e+11
       992.00000    0.0167675  6.32806e+11
       992.10000    0.0167675  6.32974e+11
       992.20000    0.0167675  6.32974e+11
       992.30000    0.0167675  6.32974e+11
       992.40000    0.0167675  6.32974e+11
       992.50000    0.0164020  6.19340e+11
       992.60000    0.0164020  6.19340e+11
       992.70000    0.0164020  6.19340e+11
       992.80000    0.0164020  6.19340e+11
       992.90000    0.0164020  6.19340e+11
       993.00000    0.0164020  6.19504e+11
       993.10000    0.0164020  6.19504e+11
       993.20000    0.0164020  6.19504e+11
       993.30000    0.0164020  6.19504e+11
       993.40000    0.0164020  6.19504e+11
       993.50000    0.0160515  6.06267e+11
       993.60000    0.0160515  6.06267e+11
       993.70000    0.0160515  6.06267e+11
       993.80000    0.0160605  6.06606e+11
       993.90000    0.0160605  6.06445e+11
       994.00000    0.0160605  6.06445e+11
       994.10000    0.0160605  6.06445e+11
       994.20000    0.0160605  6.06284e+11
       994.30000    0.0160605  6.06284e+11
       994.40000    0.0160605  6.06124e+11
       994.50000    0.0157232  5.93393e+11
       994.60000    0.0157232  5.93235e+11
       994.70000    0.0157232  5.93235e+11
       994.80000    0.0157232  5.93078e+11
       994.90000    0.0157232  5.93078e+11
       995.00000    0.0157232  5.92921e+11
       995.10000    0.0157232  5.92921e+11
       995.20000    0.0157232  5.92921e+11
       995.30000    0.0157232  5.92764e+11
       995.40000    0.0157232  5.92764e+11
       995.50000    0.0153878  5.80121e+11
       995.60000    0.0153878  5.79967e+11
       995.70000    0.0153878  5.79967e+11
       995.80000    0.0153878  5.79967e+11
       995.90000    0.0153878  5.79967e+11
       996.00000    0.0153878  5.79813e+11
       996.10000    0.0153878  5.79967e+11
       996.20000    0.0153878  5.79967e+11
       996.30000    0.0154058  5.80644e+11
       996.40000    0.0154058  5.80644e+11
       996.50000    0.0150781  5.68292e+11
       996.60000    0.0150781  5.68292e+11
       996.70000    0.0150781  5.68292e+11
       996.80000    0.0150781  5.68292e+11
       996.90000    0.0150781  5.68292e+11
       997.00000    0.0150781  5.68292e+11
       997.10000    0.0150781  5.68292e+11
       997.20000    0.0150781  5.68292e+11
       997.30000    0.0150781  5.68292e+11
       997.40000    0.0150781  5.68292e+11
       997.50000    0.0147587  5.56255e+11
       997.60000    0.0147587  5.56255e+11
       997.70000    0.0147587  5.56255e+11
       997.80000    0.0147587  5.56255e+11
       997.90000    0.0147587  5.56255e+11
       998.00000    0.0147587  5.56107e+11
       998.10000    0.0147587  5.56107e+11
       998.20000    0.0147587  5.55960e+11
       998.30000    0.0147587  5.55960e+11
       998.40000    0.0147587  5.55812e+11
       998.50000    0.0144166  5.42786e+11
       998.60000    0.0144166  5.42786e+11
       998.70000    0.0144166  5.42642e+11
       998.80000    0.0145349  5.47094e+11
       998.90000    0.0145349  5.47094e+11
       999.00000    0.0145349  5.46948e+11
       999.10000    0.0145349  5.46948e+11
       999.20000    0.0145349  5.46803e+11
       999.30000    0.0145349  5.46803e+11
       999.40000    0.0145349  5.46803e+11
       999.50000    0.0141985  5.34005e+11
       999.60000    0.0141985  5.34005e+11
       999.70000    0.0141985  5.34005e+11
       999.80000    0.0141985  5.34005e+11
       999.90000    0.0141985  5.34005e+11
       1000.0000    0.0141985  5.33863e+11
       1000.1000    0.0141985  5.33863e+11
       1000.2000    0.0141985  5.33863e+11
       1000.3000    0.0141985  5.33863e+11
       1000.4000    0.0141985  5.33863e+11
       1000.5000    0.0140213  5.27201e+11
       1000.6000    0.0140213  5.27201e+11
       1000.7000    0.0140213  5.27201e+11
       1000.8000    0.0140213  5.27201e+11
       1000.9000    0.0140213  5.27201e+11
       1001.0000    0.0140213  5.27201e+11
       1001.1000    0.0140213  5.27201e+11
       1001.2000    0.0140213  5.27341e+11
       1001.3000    0.0138570  5.21161e+11
       1001.4000    0.0138570  5.21161e+11
       1001.5000    0.0136566  5.13623e+11
       1001.6000    0.0136566  5.13623e+11
       1001.7000    0.0136566  5.13760e+11
       1001.8000    0.0136566  5.13760e+11
       1001.9000    0.0136566  5.13760e+11
       1002.0000    0.0136566  5.13896e+11
       1002.1000    0.0136566  5.13077e+11
       1002.2000    0.0136566  5.12257e+11
       1002.3000    0.0136566  5.11575e+11
       1002.4000    0.0136566  5.10755e+11
       1002.5000    0.0134413  5.02031e+11
       1002.6000    0.0134413  5.01225e+11
       1002.7000    0.0134413  5.00553e+11
       1002.8000    0.0134413  4.99881e+11
       1002.9000    0.0134413  4.99209e+11
       1003.0000    0.0134413  4.98536e+11
       1003.1000    0.0134413  4.97864e+11
       1003.2000    0.0134413  4.97192e+11
       1003.3000    0.0134413  4.96655e+11
       1003.4000    0.0134413  4.95983e+11
       1003.5000    0.0132143  4.87081e+11
       1003.6000    0.0132143  4.86552e+11
       1003.7000    0.0132143  4.85891e+11
       1003.8000    0.0132108  4.85233e+11
       1003.9000    0.0132108  4.84705e+11
       1004.0000    0.0132108  4.84176e+11
       1004.1000    0.0132108  4.83384e+11
       1004.2000    0.0132108  4.82459e+11
       1004.3000    0.0132108  4.81799e+11
       1004.4000    0.0132108  4.81006e+11
       1004.5000    0.0129691  4.71557e+11
       1004.6000    0.0129691  4.70908e+11
       1004.7000    0.0129691  4.70390e+11
       1004.8000    0.0129691  4.69871e+11
       1004.9000    0.0129691  4.69482e+11
       1005.0000    0.0129691  4.69093e+11
       1005.1000    0.0129691  4.68704e+11
       1005.2000    0.0129691  4.68444e+11
       1005.3000    0.0129691  4.68185e+11
       1005.4000    0.0129691  4.68055e+11
       1005.5000    0.0127143  4.58731e+11
       1005.6000    0.0127143  4.58604e+11
       1005.7000    0.0127143  4.58604e+11
       1005.8000    0.0127143  4.58731e+11
       1005.9000    0.0127143  4.58731e+11
       1006.0000    0.0127143  4.58858e+11
       1006.1000    0.0127143  4.59112e+11
       1006.2000    0.0127143  4.59366e+11
       1006.3000    0.0126879  4.58666e+11
       1006.4000    0.0126879  4.59046e+11
       1006.5000    0.0124223  4.49810e+11
       1006.6000    0.0124223  4.50307e+11
       1006.7000    0.0124223  4.50804e+11
       1006.8000    0.0124223  4.51301e+11
       1006.9000    0.0124223  4.51922e+11
       1007.0000    0.0124223  4.52543e+11
       1007.1000    0.0124223  4.53288e+11
       1007.2000    0.0124223  4.54034e+11
       1007.3000    0.0124223  4.54779e+11
       1007.4000    0.0124223  4.55649e+11
       1007.5000    0.0121622  4.46961e+11
       1007.6000    0.0121622  4.47934e+11
       1007.7000    0.0121622  4.48907e+11
       1007.8000    0.0121622  4.49880e+11
       1007.9000    0.0121622  4.50975e+11
       1008.0000    0.0121622  4.52069e+11
       1008.1000    0.0121622  4.52191e+11
       1008.2000    0.0121622  4.52191e+11
       1008.3000    0.0121622  4.52191e+11
       1008.4000    0.0121622  4.52191e+11
       1008.5000    0.0119013  4.42491e+11
       1008.6000    0.0119013  4.42491e+11
       1008.7000    0.0119013  4.42491e+11
       1008.8000    0.0118763  4.41563e+11
       1008.9000    0.0118763  4.41563e+11
       1009.0000    0.0118763  4.41444e+11
       1009.1000    0.0118763  4.41444e+11
       1009.2000    0.0118763  4.41444e+11
       1009.3000    0.0118763  4.41444e+11
       1009.4000    0.0118763  4.41325e+11
       1009.5000    0.0116220  4.31872e+11
       1009.6000    0.0116220  4.31872e+11
       1009.7000    0.0116220  4.31756e+11
       1009.8000    0.0116220  4.31756e+11
       1009.9000    0.0116220  4.31640e+11
       1010.0000    0.0116220  4.31640e+11
       1010.1000    0.0116220  4.31523e+11
       1010.2000    0.0116220  4.31407e+11
       1010.3000    0.0116220  4.31291e+11
       1010.4000    0.0116220  4.31175e+11
       1010.5000    0.0113834  4.22212e+11
       1010.6000    0.0113834  4.22098e+11
       1010.7000    0.0113834  4.21984e+11
       1010.8000    0.0113834  4.21871e+11
       1010.9000    0.0113834  4.21757e+11
       1011.0000    0.0113834  4.21643e+11
       1011.1000    0.0113834  4.21643e+11
       1011.2000    0.0113834  4.21529e+11
       1011.3000    0.0113530  4.20287e+11
       1011.4000    0.0113530  4.20173e+11
       1011.5000    0.0111125  4.11162e+11
       1011.6000    0.0111125  4.11051e+11
       1011.7000    0.0111125  4.10940e+11
       1011.8000    0.0111125  4.10829e+11
       1011.9000    0.0111125  4.10717e+11
       1012.0000    0.0111125  4.10606e+11
       1012.1000    0.0111125  4.10495e+11
       1012.2000    0.0111125  4.10384e+11
       1012.3000    0.0111125  4.10273e+11
       1012.4000    0.0111125  4.10162e+11
       1012.5000    0.0108741  4.01256e+11
       1012.6000    0.0108741  4.01147e+11
       1012.7000    0.0108741  4.01039e+11
       1012.8000    0.0108741  4.00930e+11
       1012.9000    0.0108741  4.00930e+11
       1013.0000    0.0108741  4.00821e+11
       1013.1000    0.0108741  4.00712e+11
       1013.2000    0.0108741  4.00604e+11
       1013.3000    0.0108741  4.00495e+11
       1013.4000    0.0108741  4.00386e+11
       1013.5000    0.0106324  3.91378e+11
       1013.6000    0.0106324  3.91272e+11
       1013.7000    0.0106324  3.91165e+11
       1013.8000    0.0106241  3.90755e+11
       1013.9000    0.0106241  3.90649e+11
       1014.0000    0.0106241  3.90543e+11
       1014.1000    0.0106241  3.90330e+11
       1014.2000    0.0106241  3.90118e+11
       1014.3000    0.0106241  3.89905e+11
       1014.4000    0.0106241  3.89693e+11
       1014.5000    0.0103620  3.79976e+11
       1014.6000    0.0103620  3.79768e+11
       1014.7000    0.0103620  3.79561e+11
       1014.8000    0.0103620  3.79457e+11
       1014.9000    0.0103620  3.79250e+11
       1015.0000    0.0103620  3.79147e+11
       1015.1000    0.0103620  3.78939e+11
       1015.2000    0.0103620  3.78836e+11
       1015.3000    0.0103620  3.78732e+11
       1015.4000    0.0103620  3.78525e+11
       1015.5000    0.0100539  3.67167e+11
       1015.6000    0.0100539  3.67067e+11
       1015.7000    0.0100539  3.66966e+11
       1015.8000    0.0100539  3.66866e+11
       1015.9000    0.0100539  3.66765e+11
       1016.0000    0.0100539  3.66665e+11
       1016.1000    0.0100539  3.66665e+11
       1016.2000    0.0100539  3.66665e+11
       1016.3000    0.0100701  3.67258e+11
       1016.4000    0.0100701  3.67157e+11
       1016.5000   0.00969884  3.53620e+11
       1016.6000   0.00969884  3.53620e+11
       1016.7000   0.00969884  3.53620e+11
       1016.8000   0.00969884  3.53523e+11
       1016.9000   0.00969884  3.53523e+11
       1017.0000   0.00969884  3.53426e+11
       1017.1000   0.00969884  3.53426e+11
       1017.2000   0.00969884  3.53329e+11
       1017.3000   0.00969884  3.53329e+11
       1017.4000   0.00969884  3.53232e+11
       1017.5000   0.00926000  3.37249e+11
       1017.6000   0.00926000  3.37157e+11
       1017.7000   0.00926000  3.37064e+11
       1017.8000   0.00926000  3.36971e+11
       1017.9000   0.00926000  3.36879e+11
       1018.0000   0.00926000  3.36879e+11
       1018.1000   0.00926000  3.36694e+11
       1018.2000   0.00926000  3.36508e+11
       1018.3000   0.00926000  3.36323e+11
       1018.4000   0.00926000  3.36138e+11
       1018.5000   0.00872634  3.16679e+11
       1018.6000   0.00872634  3.16504e+11
       1018.7000   0.00872634  3.16417e+11
       1018.8000   0.00872222  3.16093e+11
       1018.9000   0.00872222  3.16006e+11
       1019.0000   0.00872222  3.15832e+11
       1019.1000   0.00872222  3.15744e+11
       1019.2000   0.00872222  3.15657e+11
       1019.3000   0.00872222  3.15570e+11
       1019.4000   0.00872222  3.15396e+11
       1019.5000   0.00808032  2.92103e+11
       1019.6000   0.00808032  2.92023e+11
       1019.7000   0.00808032  2.91942e+11
       1019.8000   0.00808032  2.91942e+11
       1019.9000   0.00808032  2.91861e+11
       1020.0000   0.00808032  2.91780e+11
       1020.1000   0.00808032  2.91699e+11
       1020.2000   0.00808032  2.91619e+11
       1020.3000   0.00808032  2.91619e+11
       1020.4000   0.00808032  2.91538e+11
       1020.5000   0.00736899  2.65873e+11
       1020.6000   0.00736899  2.65799e+11
       1020.7000   0.00736899  2.65799e+11
       1020.8000   0.00736899  2.65726e+11
       1020.9000   0.00736899  2.65726e+11
       1021.0000   0.00736899  2.65726e+11
       1021.1000   0.00736899  2.65726e+11
       1021.2000   0.00736899  2.65726e+11
       1021.3000   0.00735333  2.65161e+11
       1021.4000   0.00735333  2.65161e+11
       1021.5000   0.00658839  2.37577e+11
       1021.6000   0.00658839  2.37577e+11
       1021.7000   0.00658839  2.37577e+11
       1021.8000   0.00658839  2.37643e+11
       1021.9000   0.00658839  2.37643e+11
       1022.0000   0.00658839  2.37709e+11
       1022.1000   0.00658839  2.37709e+11
       1022.2000   0.00658839  2.37775e+11
       1022.3000   0.00658839  2.37841e+11
       1022.4000   0.00658839  2.37841e+11
       1022.5000   0.00574677  2.07516e+11
       1022.6000   0.00574677  2.07573e+11
       1022.7000   0.00574677  2.07631e+11
       1022.8000   0.00574677  2.07688e+11
       1022.9000   0.00574677  2.07746e+11
       1023.0000   0.00574677  2.07803e+11
       1023.1000   0.00574677  2.07918e+11
       1023.2000   0.00574677  2.07976e+11
       1023.3000   0.00574677  2.08033e+11
       1023.4000   0.00574677  2.08148e+11
       1023.5000   0.00492944  1.78594e+11
       1023.6000   0.00492944  1.78692e+11
       1023.7000   0.00492944  1.78741e+11
       1023.8000   0.00491501  1.78317e+11
       1023.9000   0.00491501  1.78415e+11
       1024.0000   0.00491501  1.78513e+11
       1024.1000   0.00491501  1.78513e+11
       1024.2000   0.00491501  1.78464e+11
       1024.3000   0.00491501  1.78464e+11
       1024.4000   0.00491501  1.78464e+11
       1024.5000   0.00414114  1.50365e+11
       1024.6000   0.00414114  1.50324e+11
       1024.7000   0.00414114  1.50324e+11
       1024.8000   0.00414114  1.50324e+11
       1024.9000   0.00414114  1.50282e+11
       1025.0000   0.00414114  1.50282e+11
       1025.1000   0.00414114  1.50282e+11
       1025.2000   0.00414114  1.50241e+11
       1025.3000   0.00414114  1.50241e+11
       1025.4000   0.00414114  1.50241e+11
       1025.5000   0.00340867  1.23632e+11
       1025.6000   0.00340867  1.23632e+11
       1025.7000   0.00340867  1.23598e+11
       1025.8000   0.00340867  1.23598e+11
       1025.9000   0.00340867  1.23564e+11
       1026.0000   0.00340867  1.23564e+11
       1026.1000   0.00340867  1.23564e+11
       1026.2000   0.00340867  1.23530e+11
       1026.3000   0.00339650  1.23089e+11
       1026.4000   0.00339650  1.23055e+11
       1026.5000   0.00274398  9.94142e+10
       1026.6000   0.00274398  9.93868e+10
       1026.7000   0.00274398  9.93594e+10
       1026.8000   0.00274398  9.93594e+10
       1026.9000   0.00274398  9.93319e+10
       1027.0000   0.00274398  9.93319e+10
       1027.1000   0.00274398  9.93045e+10
       1027.2000   0.00274398  9.92770e+10
       1027.3000   0.00274398  9.92770e+10
       1027.4000   0.00274398  9.92496e+10
       1027.5000   0.00219949  7.95335e+10
       1027.6000   0.00219949  7.95335e+10
       1027.7000   0.00219949  7.95115e+10
       1027.8000   0.00219949  7.94895e+10
       1027.9000   0.00219949  7.94675e+10
       1028.0000   0.00219949  7.94455e+10
       1028.1000   0.00219949  7.94455e+10
       1028.2000   0.00219949  7.94235e+10
       1028.3000   0.00219949  7.94015e+10
       1028.4000   0.00219949  7.93795e+10
       1028.5000   0.00173348  6.25440e+10
       1028.6000   0.00173348  6.25267e+10
       1028.7000   0.00173348  6.25093e+10
       1028.8000   0.00173399  6.25103e+10
       1028.9000   0.00173399  6.24930e+10
       1029.0000   0.00173399  6.24756e+10
       1029.1000   0.00173399  6.24583e+10
       1029.2000   0.00173399  6.24409e+10
       1029.3000   0.00173399  6.24236e+10
       1029.4000   0.00173399  6.24063e+10
       1029.5000   0.00134998  4.85724e+10
       1029.6000   0.00134998  4.85589e+10
       1029.7000   0.00134998  4.85454e+10
       1029.8000   0.00134998  4.85319e+10
       1029.9000   0.00134998  4.85184e+10
       1030.0000   0.00134998  4.84914e+10
       1030.1000   0.00134998  4.85049e+10
       1030.2000   0.00134998  4.85049e+10
       1030.3000   0.00134998  4.85049e+10
       1030.4000   0.00134998  4.85049e+10
       1030.5000   0.00105096  3.77611e+10
       1030.6000   0.00105096  3.77611e+10
       1030.7000   0.00105096  3.77506e+10
       1030.8000   0.00105096  3.77506e+10
       1030.9000   0.00105096  3.77506e+10
       1031.0000   0.00105096  3.77401e+10
       1031.1000   0.00105096  3.77401e+10
       1031.2000   0.00105096  3.77296e+10
       1031.3000   0.00105127  3.77404e+10
       1031.4000   0.00105127  3.77299e+10
       1031.5000  0.000812754  2.91616e+10
       1031.6000  0.000812754  2.91535e+10
       1031.7000  0.000812754  2.91453e+10
       1031.8000  0.000812754  2.91372e+10
       1031.9000  0.000812754  2.91291e+10
       1032.0000  0.000812754  2.91210e+10
       1032.1000  0.000812754  2.90966e+10
       1032.2000  0.000812754  2.90641e+10
       1032.3000  0.000812754  2.90397e+10
       1032.4000  0.000812754  2.90234e+10
       1032.5000  0.000627263  2.23808e+10
       1032.6000  0.000627263  2.23619e+10
       1032.7000  0.000627263  2.23494e+10
       1032.8000  0.000627263  2.23306e+10
       1032.9000  0.000627263  2.23180e+10
       1033.0000  0.000627263  2.23055e+10
       1033.1000  0.000627263  2.22929e+10
       1033.2000  0.000627263  2.22867e+10
       1033.3000  0.000627263  2.22741e+10
       1033.4000  0.000627263  2.22678e+10
       1033.5000  0.000487152  1.72841e+10
       1033.6000  0.000487152  1.72793e+10
       1033.7000  0.000487152  1.72744e+10
       1033.8000  0.000487854  1.72944e+10
       1033.9000  0.000487854  1.72944e+10
       1034.0000  0.000487854  1.72895e+10
       1034.1000  0.000487854  1.72895e+10
       1034.2000  0.000487854  1.72847e+10
       1034.3000  0.000487854  1.72847e+10
       1034.4000  0.000487854  1.72847e+10
       1034.5000  0.000378013  1.33930e+10
       1034.6000  0.000378013  1.33968e+10
       1034.7000  0.000378013  1.33968e+10
       1034.8000  0.000378013  1.34006e+10
       1034.9000  0.000378013  1.34006e+10
       1035.0000  0.000378013  1.34044e+10
       1035.1000  0.000378013  1.34081e+10
       1035.2000  0.000378013  1.34119e+10
       1035.3000  0.000378013  1.34195e+10
       1035.4000  0.000378013  1.34233e+10
       1035.5000  0.000293054  1.04122e+10
       1035.6000  0.000293054  1.04181e+10
       1035.7000  0.000293054  1.04210e+10
       1035.8000  0.000293054  1.04269e+10
       1035.9000  0.000293054  1.04356e+10
       1036.0000  0.000293054  1.04415e+10
       1036.1000  0.000293054  1.04356e+10
       1036.2000  0.000293054  1.04298e+10
       1036.3000  0.000292569  1.04067e+10
       1036.4000  0.000292569  1.04008e+10
       1036.5000  0.000230425  8.18699e+09
       1036.6000  0.000230425  8.18238e+09
       1036.7000  0.000230425  8.18008e+09
       1036.8000  0.000230425  8.17547e+09
       1036.9000  0.000230425  8.17086e+09
       1037.0000  0.000230425  8.16856e+09
       1037.1000  0.000230425  8.16625e+09
       1037.2000  0.000230425  8.16164e+09
       1037.3000  0.000230425  8.15934e+09
       1037.4000  0.000230425  8.15704e+09
       1037.5000  0.000183158  6.48197e+09
       1037.6000  0.000183158  6.48013e+09
       1037.7000  0.000183158  6.47830e+09
       1037.8000  0.000183158  6.47647e+09
       1037.9000  0.000183158  6.47464e+09
       1038.0000  0.000183158  6.47281e+09
       1038.1000  0.000183158  6.47281e+09
       1038.2000  0.000183158  6.47281e+09
       1038.3000  0.000183158  6.47464e+09
       1038.4000  0.000183158  6.47464e+09
       1038.5000  0.000143591  5.07596e+09
       1038.6000  0.000143591  5.07596e+09
       1038.7000  0.000143591  5.07596e+09
       1038.8000  0.000143276  5.06481e+09
       1038.9000  0.000143276  5.06481e+09
       1039.0000  0.000143276  5.06481e+09
       1039.1000  0.000143276  5.06481e+09
       1039.2000  0.000143276  5.06481e+09
       1039.3000  0.000143276  5.06481e+09
       1039.4000  0.000143276  5.06481e+09
       1039.5000  0.000114801  4.05820e+09
       1039.6000  0.000114801  4.05820e+09
       1039.7000  0.000114801  4.05820e+09
       1039.8000  0.000114801  4.05820e+09
       1039.9000  0.000114801  4.05820e+09
       1040.0000  0.000114801  4.05820e+09
       1040.1000  0.000114801  4.05820e+09
       1040.2000  0.000114801  4.05820e+09
       1040.3000  0.000114801  4.05820e+09
       1040.4000  0.000114801  4.05820e+09
       1040.5000  9.45176e-05  3.34120e+09
       1040.6000  9.45176e-05  3.34120e+09
       1040.7000  9.45176e-05  3.34120e+09
       1040.8000  9.45176e-05  3.34120e+09
       1040.9000  9.45176e-05  3.34120e+09
       1041.0000  9.45176e-05  3.34120e+09
       1041.1000  9.45176e-05  3.34120e+09
       1041.2000  9.45176e-05  3.34120e+09
       1041.3000  9.44828e-05  3.33997e+09
       1041.4000  9.44828e-05  3.33997e+09
       1041.5000  7.56361e-05  2.67374e+09
       1041.6000  7.56361e-05  2.67374e+09
       1041.7000  7.56361e-05  2.67374e+09
       1041.8000  7.56361e-05  2.67298e+09
       1041.9000  7.56361e-05  2.67298e+09
       1042.0000  7.56361e-05  2.67298e+09
       1042.1000  7.56361e-05  2.67374e+09
       1042.2000  7.56361e-05  2.67374e+09
       1042.3000  7.56361e-05  2.67449e+09
       1042.4000  7.56361e-05  2.67449e+09
       1042.5000  6.26403e-05  2.21496e+09
       1042.6000  6.26403e-05  2.21496e+09
       1042.7000  6.26403e-05  2.21496e+09
       1042.8000  6.26403e-05  2.21433e+09
       1042.9000  6.26403e-05  2.21433e+09
       1043.0000  6.26403e-05  2.21433e+09
       1043.1000  6.26403e-05  2.21371e+09
       1043.2000  6.26403e-05  2.21308e+09
       1043.3000  6.26403e-05  2.21308e+09
       1043.4000  6.26403e-05  2.21245e+09
       1043.5000  5.22533e-05  1.84506e+09
       1043.6000  5.22533e-05  1.84454e+09
       1043.7000  5.22533e-05  1.84402e+09
       1043.8000  5.24160e-05  1.84871e+09
       1043.9000  5.24160e-05  1.84819e+09
       1044.0000  5.24160e-05  1.84714e+09
       1044.1000  5.24160e-05  1.84504e+09
       1044.2000  5.24160e-05  1.84242e+09
       1044.3000  5.24160e-05  1.84033e+09
       1044.4000  5.24160e-05  1.83823e+09
       1044.5000  4.33081e-05  1.51708e+09
       1044.6000  4.33081e-05  1.51578e+09
       1044.7000  4.33081e-05  1.51405e+09
       1044.8000  4.33081e-05  1.51275e+09
       1044.9000  4.33081e-05  1.51145e+09
       1045.0000  4.33081e-05  1.51015e+09
       1045.1000  4.33081e-05  1.50929e+09
       1045.2000  4.33081e-05  1.50799e+09
       1045.3000  4.33081e-05  1.50712e+09
       1045.4000  4.33081e-05  1.50626e+09
       1045.5000  3.55618e-05  1.23648e+09
       1045.6000  3.55618e-05  1.23577e+09
       1045.7000  3.55618e-05  1.23542e+09
       1045.8000  3.55618e-05  1.23506e+09
       1045.9000  3.55618e-05  1.23471e+09
       1046.0000  3.55618e-05  1.23435e+09
       1046.1000  3.55618e-05  1.23435e+09
       1046.2000  3.55618e-05  1.23399e+09
       1046.3000  3.56501e-05  1.23706e+09
       1046.4000  3.56501e-05  1.23706e+09
       1046.5000  2.95143e-05  1.02444e+09
       1046.6000  2.95143e-05  1.02444e+09
       1046.7000  2.95143e-05  1.02474e+09
       1046.8000  2.95143e-05  1.02503e+09
       1046.9000  2.95143e-05  1.02533e+09
       1047.0000  2.95143e-05  1.02592e+09
       1047.1000  2.95143e-05  1.02621e+09
       1047.2000  2.95143e-05  1.02680e+09
       1047.3000  2.95143e-05  1.02739e+09
       1047.4000  2.95143e-05  1.02798e+09
       1047.5000  2.42510e-05  8.45391e+08
       1047.6000  2.42510e-05  8.45876e+08
       1047.7000  2.42510e-05  8.46604e+08
       1047.8000  2.42510e-05  8.47331e+08
       1047.9000  2.42510e-05  8.48059e+08
       1048.0000  2.42510e-05  8.49029e+08
       1048.1000  2.42510e-05  8.49029e+08
       1048.2000  2.42510e-05  8.49029e+08
       1048.3000  2.42510e-05  8.49029e+08
       1048.4000  2.42510e-05  8.48786e+08
       1048.5000  1.92823e-05  6.74880e+08
       1048.6000  1.92823e-05  6.74880e+08
       1048.7000  1.92823e-05  6.74880e+08
       1048.8000  1.92777e-05  6.74720e+08
       1048.9000  1.92777e-05  6.74720e+08
       1049.0000  1.92777e-05  6.74527e+08
       1049.1000  1.92777e-05  6.74527e+08
       1049.2000  1.92777e-05  6.74527e+08
       1049.3000  1.92777e-05  6.74334e+08
       1049.4000  1.92777e-05  6.74334e+08
       1049.5000  1.51503e-05  5.29956e+08
       1049.6000  1.51503e-05  5.29804e+08
       1049.7000  1.51503e-05  5.29804e+08
       1049.8000  1.51503e-05  5.29804e+08
       1049.9000  1.51503e-05  5.29653e+08
       1050.0000  1.51503e-05  5.29653e+08
       1050.1000  1.51503e-05  5.29501e+08
       1050.2000  1.51503e-05  5.29501e+08
       1050.3000  1.51503e-05  5.29350e+08
       1050.4000  1.51503e-05  5.29198e+08
       1050.5000  1.18568e-05  4.14157e+08
       1050.6000  1.18568e-05  4.14039e+08
       1050.7000  1.18568e-05  4.14039e+08
       1050.8000  1.18568e-05  4.13920e+08
       1050.9000  1.18568e-05  4.13801e+08
       1051.0000  1.18568e-05  4.13801e+08
       1051.1000  1.18568e-05  4.13683e+08
       1051.2000  1.18568e-05  4.13683e+08
       1051.3000  1.18127e-05  4.12026e+08
       1051.4000  1.18127e-05  4.11908e+08
       1051.5000  8.84971e-06  3.08589e+08
       1051.6000  8.84971e-06  3.08501e+08
       1051.7000  8.84971e-06  3.08412e+08
       1051.8000  8.84971e-06  3.08412e+08
       1051.9000  8.84971e-06  3.08324e+08
       1052.0000  8.84971e-06  3.08324e+08
       1052.1000  8.84971e-06  3.08235e+08
       1052.2000  8.84971e-06  3.08147e+08
       1052.3000  8.84971e-06  3.08147e+08
       1052.4000  8.84971e-06  3.08058e+08
       1052.5000  6.36148e-06  2.21379e+08
       1052.6000  6.36148e-06  2.21379e+08
       1052.7000  6.36148e-06  2.21316e+08
       1052.8000  6.36148e-06  2.21252e+08
       1052.9000  6.36148e-06  2.21252e+08
       1053.0000  6.36148e-06  2.21189e+08
       1053.1000  6.36148e-06  2.21189e+08
       1053.2000  6.36148e-06  2.21125e+08
       1053.3000  6.36148e-06  2.21061e+08
       1053.4000  6.36148e-06  2.21061e+08
       1053.5000  4.53371e-06  1.57501e+08
       1053.6000  4.53371e-06  1.57456e+08
       1053.7000  4.53371e-06  1.57456e+08
       1053.8000  4.50300e-06  1.56344e+08
       1053.9000  4.50300e-06  1.56299e+08
       1054.0000  4.50300e-06  1.56299e+08
       1054.1000  4.50300e-06  1.56389e+08
       1054.2000  4.50300e-06  1.56434e+08
       1054.3000  4.50300e-06  1.56524e+08
       1054.4000  4.50300e-06  1.56614e+08
       1054.5000  2.83385e-06  9.85896e+07
       1054.6000  2.83385e-06  9.86180e+07
       1054.7000  2.83385e-06  9.86463e+07
       1054.8000  2.83385e-06  9.86747e+07
       1054.9000  2.83385e-06  9.87030e+07
       1055.0000  2.83385e-06  9.87313e+07
       1055.1000  2.83385e-06  9.87313e+07
       1055.2000  2.83385e-06  9.87313e+07
       1055.3000  2.83385e-06  9.87597e+07
       1055.4000  2.83385e-06  9.87597e+07
       1055.5000  1.48176e-06  5.16245e+07
       1055.6000  1.48176e-06  5.16245e+07
       1055.7000  1.48176e-06  5.16245e+07
       1055.8000  1.48176e-06  5.16097e+07
       1055.9000  1.48176e-06  5.15949e+07
       1056.0000  1.48176e-06  5.15800e+07
       1056.1000  1.48176e-06  5.15356e+07
       1056.2000  1.48176e-06  5.14911e+07
       1056.3000  1.46674e-06  5.09251e+07
       1056.4000  1.46674e-06  5.08665e+07
       1056.5000  4.06934e-07  1.41003e+07
       1056.6000  4.06934e-07  1.40921e+07
       1056.7000  4.06934e-07  1.40799e+07
       1056.8000  4.06934e-07  1.40677e+07
       1056.9000  4.06934e-07  1.40555e+07
       1057.0000  4.06934e-07  1.40474e+07
