PDS_VERSION_ID         = PDS3
RECORD_TYPE            = STREAM
OBJECT                 = TEXT
  PUBLICATION_DATE     = 2014-04-25
  INTERCHANGE_FORMAT   = ASCII
  NOTE                 = "System transmission vs. wavelength."
END_OBJECT             = TEXT
END
    
The systrans directory contains the non-wavelength-integrated system 
transmission values (QE*optics*filter1*filter2) for each filter combination. 
The naming convention for these files is as follows:

<camera><filter 1><filter 2>_systrans.tab

where <camera> is "issna" or "isswa," and <filter 1> and <filter 2> represent
the filter names. For polarized filter combinations, values are given for the
parallel orientation of the filter (full transmission), with values for the 
perpendicular (blocking) orientation provided in files with subscript 
"_b_systrans.tab". 

Columns in systrans files are as follows:

 1st column: Wavelength (nm)  
 2nd column: Transmitted Flux
 3rd column: Transmitted Flux * Solar Flux (phot per cm^2-s-angstrom at 1 AU)

The solar spectrum used for this calculation is provided in solarflux.tab.

\begindata
       200.00000  7.24299e-16  5.07806e-05
       200.10000  7.24299e-16  5.12949e-05
       200.20000  7.24299e-16  5.18236e-05
       200.30000  7.24299e-16  5.23668e-05
       200.40000  7.24299e-16  5.29246e-05
       200.50000  7.24299e-16  5.34895e-05
       200.60000  1.31027e-14  0.000980079
       200.70000  1.31027e-14  0.000992002
       200.80000  1.31027e-14   0.00100327
       200.90000  1.31027e-14   0.00101388
       201.00000  1.31027e-14   0.00102384
       201.10000  1.31027e-14   0.00103328
       201.20000  1.31027e-14   0.00104219
       201.30000  1.32838e-14   0.00106496
       201.40000  1.32838e-14   0.00107267
       201.50000  1.32838e-14   0.00107971
       201.60000  9.50105e-15  0.000771770
       201.70000  9.50105e-15  0.000772055
       201.80000  9.50105e-15  0.000773006
       201.90000  9.50105e-15  0.000774621
       202.00000  9.50105e-15  0.000776901
       202.10000  9.50105e-15  0.000779941
       202.20000  9.50105e-15  0.000783742
       202.30000  9.50105e-15  0.000788112
       202.40000  9.50105e-15  0.000793243
       202.50000  9.50105e-15  0.000799133
       202.60000  8.39028e-15  0.000711496
       202.70000  8.39028e-15  0.000717872
       202.80000  8.39028e-15  0.000724836
       202.90000  8.39028e-15  0.000732471
       203.00000  8.39028e-15  0.000740778
       203.10000  8.39028e-15  0.000749588
       203.20000  8.39028e-15  0.000759069
       203.30000  8.39028e-15  0.000769221
       203.40000  8.39028e-15  0.000779877
       203.50000  8.39028e-15  0.000791287
       203.60000  1.89798e-15  0.000181751
       203.70000  1.89798e-15  0.000184351
       203.80000  1.86188e-15  0.000183265
       203.90000  1.86188e-15  0.000185537
       204.00000  1.86188e-15  0.000187678
       204.10000  1.86188e-15  0.000189726
       204.20000  1.86188e-15  0.000191588
       204.30000  1.86188e-15  0.000193263
       204.40000  1.86188e-15  0.000194753
       204.50000  1.86188e-15  0.000196242
       204.60000  1.94754e-14   0.00205661
       204.70000  1.94754e-14   0.00206245
       204.80000  1.94754e-14   0.00206829
       204.90000  1.94754e-14   0.00207414
       205.00000  1.94754e-14   0.00207998
       205.10000  1.94754e-14   0.00208777
       205.20000  1.94754e-14   0.00209556
       205.30000  1.94754e-14   0.00210335
       205.40000  1.94754e-14   0.00211114
       205.50000  1.94754e-14   0.00212088
       205.60000  1.28977e-14   0.00141100
       205.70000  1.28977e-14   0.00141745
       205.80000  1.28977e-14   0.00142519
       205.90000  1.28977e-14   0.00143164
       206.00000  1.28977e-14   0.00143938
       206.10000  1.28977e-14   0.00144841
       206.20000  1.28977e-14   0.00145615
       206.30000  1.28640e-14   0.00146135
       206.40000  1.28640e-14   0.00147035
       206.50000  1.28640e-14   0.00147936
       206.60000  1.11557e-14   0.00129741
       206.70000  1.11557e-14   0.00131303
       206.80000  1.11557e-14   0.00132976
       206.90000  1.11557e-14   0.00134761
       207.00000  1.11557e-14   0.00136546
       207.10000  1.11557e-14   0.00138442
       207.20000  1.11557e-14   0.00140562
       207.30000  1.11557e-14   0.00142682
       207.40000  1.11557e-14   0.00144913
       207.50000  1.11557e-14   0.00147256
       207.60000  4.11226e-15  0.000545696
       207.70000  4.11226e-15  0.000550220
       207.80000  4.11226e-15  0.000556388
       207.90000  4.11226e-15  0.000564613
       208.00000  4.11226e-15  0.000574482
       208.10000  4.11226e-15  0.000585996
       208.20000  4.11226e-15  0.000599156
       208.30000  4.11226e-15  0.000613960
       208.40000  4.11226e-15  0.000630409
       208.50000  4.11226e-15  0.000648914
       208.60000  1.30463e-14   0.00212132
       208.70000  1.30463e-14   0.00219047
       208.80000  1.30675e-14   0.00226852
       208.90000  1.30675e-14   0.00234823
       209.00000  1.30675e-14   0.00243448
       209.10000  1.30675e-14   0.00252464
       209.20000  1.30675e-14   0.00262134
       209.30000  1.30675e-14   0.00272327
       209.40000  1.30675e-14   0.00283042
       209.50000  1.30675e-14   0.00294280
       209.60000  1.58583e-15  0.000368863
       209.70000  1.58583e-15  0.000380598
       209.80000  1.58583e-15  0.000392175
       209.90000  1.58583e-15  0.000403434
       210.00000  1.58583e-15  0.000414694
       210.10000  1.58583e-15  0.000425794
       210.20000  1.58583e-15  0.000436737
       210.30000  1.58583e-15  0.000447520
       210.40000  1.58583e-15  0.000458145
       210.50000  1.58583e-15  0.000468612
       210.60000  1.18995e-15  0.000363411
       210.70000  1.18995e-15  0.000374121
       210.80000  1.18995e-15  0.000383878
       210.90000  1.18995e-15  0.000392684
       211.00000  1.18995e-15  0.000400419
       211.10000  1.18995e-15  0.000407201
       211.20000  1.18995e-15  0.000413032
       211.30000  1.20627e-15  0.000423522
       211.40000  1.20627e-15  0.000427382
       211.50000  1.20627e-15  0.000430277
       211.60000  3.79978e-15   0.00133942
       211.70000  3.79978e-15   0.00132498
       211.80000  3.79978e-15   0.00131244
       211.90000  3.79978e-15   0.00130142
       212.00000  3.79978e-15   0.00129231
       212.10000  3.79978e-15   0.00128471
       212.20000  3.79978e-15   0.00127863
       212.30000  3.79978e-15   0.00127445
       212.40000  3.79978e-15   0.00127179
       212.50000  3.79978e-15   0.00127065
       212.60000  2.68869e-14   0.00898290
       212.70000  2.68869e-14   0.00899097
       212.80000  2.68869e-14   0.00900979
       212.90000  2.68869e-14   0.00904743
       213.00000  2.68869e-14   0.00909583
       213.10000  2.68869e-14   0.00916035
       213.20000  2.68869e-14   0.00924101
       213.30000  2.68869e-14   0.00933512
       213.40000  2.68869e-14   0.00944535
       213.50000  2.68869e-14   0.00956635
       213.60000  2.20633e-15  0.000796487
       213.70000  2.20633e-15  0.000809063
       213.80000  2.21714e-15  0.000826772
       213.90000  2.21714e-15  0.000841848
       214.00000  2.21714e-15  0.000858034
       214.10000  2.21714e-15  0.000875327
       214.20000  2.21714e-15  0.000893951
       214.30000  2.21714e-15  0.000913906
       214.40000  2.21714e-15  0.000934968
       214.50000  2.21714e-15  0.000957140
       214.60000  2.86101e-15   0.00122366
       214.70000  2.86101e-15   0.00121221
       214.80000  2.86101e-15   0.00120105
       214.90000  2.86101e-15   0.00118961
       215.00000  2.86101e-15   0.00117817
       215.10000  2.86101e-15   0.00116644
       215.20000  2.86101e-15   0.00115499
       215.30000  2.86101e-15   0.00114355
       215.40000  2.86101e-15   0.00113210
       215.50000  2.86101e-15   0.00112066
       215.60000  6.71443e-15   0.00258036
       215.70000  6.71443e-15   0.00253537
       215.80000  6.71443e-15   0.00249575
       215.90000  6.71443e-15   0.00246084
       216.00000  6.71443e-15   0.00243130
       216.10000  6.71443e-15   0.00240645
       216.20000  6.71443e-15   0.00238698
       216.30000  6.68437e-15   0.00236159
       216.40000  6.68437e-15   0.00235223
       216.50000  6.68437e-15   0.00234822
       216.60000  6.72759e-15   0.00236408
       216.70000  6.72759e-15   0.00236946
       216.80000  6.72759e-15   0.00238022
       216.90000  6.72759e-15   0.00239570
       217.00000  6.72759e-15   0.00241655
       217.10000  6.72759e-15   0.00244279
       217.20000  6.72759e-15   0.00247306
       217.30000  6.72759e-15   0.00250939
       217.40000  6.72759e-15   0.00255043
       217.50000  6.72759e-15   0.00259618
       217.60000  2.47480e-14   0.00988189
       217.70000  2.47480e-14    0.0101937
       217.80000  2.47480e-14    0.0104907
       217.90000  2.47480e-14    0.0107679
       218.00000  2.47480e-14    0.0110277
       218.10000  2.47480e-14    0.0112703
       218.20000  2.47480e-14    0.0114955
       218.30000  2.47480e-14    0.0117009
       218.40000  2.47480e-14    0.0118914
       218.50000  2.47480e-14    0.0120647
       218.60000  2.39202e-15   0.00117568
       218.70000  2.39202e-15   0.00118501
       218.80000  2.36940e-15   0.00118233
       218.90000  2.36940e-15   0.00119039
       219.00000  2.36940e-15   0.00119797
       219.10000  2.36940e-15   0.00120484
       219.20000  2.36940e-15   0.00121124
       219.30000  2.36940e-15   0.00121692
       219.40000  2.36940e-15   0.00122214
       219.50000  2.36940e-15   0.00122687
       219.60000  1.01554e-15  0.000527675
       219.70000  1.01554e-15  0.000529198
       219.80000  1.01554e-15  0.000530519
       219.90000  1.01554e-15  0.000531534
       220.00000  1.01554e-15  0.000532346
       220.10000  1.01554e-15  0.000532956
       220.20000  1.01554e-15  0.000533260
       220.30000  1.01554e-15  0.000533362
       220.40000  1.01554e-15  0.000533260
       220.50000  1.01554e-15  0.000532854
       220.60000  8.32543e-16  0.000422432
       220.70000  8.32543e-16  0.000409611
       220.80000  8.32543e-16  0.000398538
       220.90000  8.32543e-16  0.000389047
       221.00000  8.32543e-16  0.000381222
       221.10000  8.32543e-16  0.000375061
       221.20000  8.32543e-16  0.000370565
       221.30000  8.22081e-16  0.000363113
       221.40000  8.22081e-16  0.000361880
       221.50000  8.22081e-16  0.000362373
       221.60000  3.57074e-20  1.60862e-08
       221.70000  3.57074e-20  1.64504e-08
       221.80000  3.57074e-20  1.68253e-08
       221.90000  3.57074e-20  1.72145e-08
       222.00000  3.57074e-20  1.76180e-08
       222.10000  3.57074e-20  1.80322e-08
       222.20000  3.57074e-20  1.84643e-08
       222.30000  3.57074e-20  1.89071e-08
       222.40000  3.57074e-20  1.93641e-08
       222.50000  3.57074e-20  1.98319e-08
       222.60000  3.23336e-14    0.0183978
       222.70000  3.23336e-14    0.0188473
       222.80000  3.23336e-14    0.0193096
       222.90000  3.23336e-14    0.0197850
       223.00000  3.23336e-14    0.0202732
       223.10000  3.23336e-14    0.0207744
       223.20000  3.23336e-14    0.0212852
       223.30000  3.23336e-14    0.0218090
       223.40000  3.23336e-14    0.0223458
       223.50000  3.23336e-14    0.0228954
       223.60000  9.87616e-16  0.000696467
       223.70000  9.87616e-16  0.000693306
       223.80000  9.74682e-16  0.000680816
       223.90000  9.74682e-16  0.000677112
       224.00000  9.74682e-16  0.000673116
       224.10000  9.74682e-16  0.000668827
       224.20000  9.74682e-16  0.000664246
       224.30000  9.74682e-16  0.000659373
       224.40000  9.74682e-16  0.000654207
       224.50000  9.74682e-16  0.000648749
       224.60000  1.78454e-16  0.000118065
       224.70000  1.78454e-16  0.000117209
       224.80000  1.78454e-16  0.000116227
       224.90000  1.78454e-16  0.000115121
       225.00000  1.78454e-16  0.000113889
       225.10000  1.78454e-16  0.000112515
       225.20000  1.78454e-16  0.000111034
       225.30000  1.78454e-16  0.000109410
       225.40000  1.78454e-16  0.000107661
       225.50000  1.78454e-16  0.000105805
       225.60000  1.43344e-14   0.00833833
       225.70000  1.43344e-14   0.00816631
       225.80000  1.43344e-14   0.00798570
       225.90000  1.43344e-14   0.00779505
       226.00000  1.43344e-14   0.00759294
       226.10000  1.43344e-14   0.00738079
       226.20000  1.43344e-14   0.00715860
       226.30000  1.41738e-14   0.00684878
       226.40000  1.41738e-14   0.00660924
       226.50000  1.41738e-14   0.00635978
       226.60000  2.10677e-16  9.34352e-05
       226.70000  2.10677e-16  9.26346e-05
       226.80000  2.10677e-16  9.21079e-05
       226.90000  2.10677e-16  9.18551e-05
       227.00000  2.10677e-16  9.18762e-05
       227.10000  2.10677e-16  9.21922e-05
       227.20000  2.10677e-16  9.27821e-05
       227.30000  2.10677e-16  9.36458e-05
       227.40000  2.10677e-16  9.47835e-05
       227.50000  2.10677e-16  9.61950e-05
       227.60000  5.23523e-15   0.00250767
       227.70000  5.23523e-15   0.00261552
       227.80000  5.23523e-15   0.00271342
       227.90000  5.23523e-15   0.00280137
       228.00000  5.23523e-15   0.00287938
       228.10000  5.23523e-15   0.00294796
       228.20000  5.23523e-15   0.00300711
       228.30000  5.23523e-15   0.00305580
       228.40000  5.23523e-15   0.00309507
       228.50000  5.23523e-15   0.00312438
       228.60000  2.07260e-14    0.0124480
       228.70000  2.07260e-14    0.0124874
       228.80000  2.05463e-14    0.0123792
       228.90000  2.05463e-14    0.0123422
       229.00000  2.05463e-14    0.0122662
       229.10000  2.05463e-14    0.0121511
       229.20000  2.05463e-14    0.0119990
       229.30000  2.05463e-14    0.0118080
       229.40000  2.05463e-14    0.0115799
       229.50000  2.05463e-14    0.0113107
       229.60000  5.56172e-14    0.0310789
       229.70000  5.56172e-14    0.0315016
       229.80000  5.56172e-14    0.0318854
       229.90000  5.56172e-14    0.0322357
       230.00000  5.56172e-14    0.0325528
       230.10000  5.56172e-14    0.0328308
       230.20000  5.56172e-14    0.0330756
       230.30000  5.56172e-14    0.0332869
       230.40000  5.56172e-14    0.0334593
       230.50000  5.56172e-14    0.0335928
       230.60000  8.06499e-14    0.0484787
       230.70000  8.06499e-14    0.0482851
       230.80000  8.06499e-14    0.0481157
       230.90000  8.06499e-14    0.0479786
       231.00000  8.06499e-14    0.0478738
       231.10000  8.06499e-14    0.0478093
       231.20000  8.06499e-14    0.0477689
       231.30000  8.00915e-14    0.0474302
       231.40000  8.00915e-14    0.0474542
       231.50000  8.00915e-14    0.0475183
       231.60000  8.30149e-14    0.0493441
       231.70000  8.30149e-14    0.0494686
       231.80000  8.30149e-14    0.0496346
       231.90000  8.30149e-14    0.0498255
       232.00000  8.30149e-14    0.0500497
       232.10000  8.30149e-14    0.0503153
       232.20000  8.30149e-14    0.0506059
       232.30000  8.30149e-14    0.0509296
       232.40000  8.30149e-14    0.0512949
       232.50000  8.30149e-14    0.0516851
       232.60000  4.88190e-14    0.0298479
       232.70000  4.88190e-14    0.0293207
       232.80000  4.88190e-14    0.0288081
       232.90000  4.88190e-14    0.0283101
       233.00000  4.88190e-14    0.0278268
       233.10000  4.88190e-14    0.0273581
       233.20000  4.88190e-14    0.0269041
       233.30000  4.88190e-14    0.0264696
       233.40000  4.88190e-14    0.0260498
       233.50000  4.88190e-14    0.0256446
       233.60000  6.01456e-14    0.0306141
       233.70000  6.01456e-14    0.0297660
       233.80000  5.97882e-14    0.0288717
       233.90000  5.97882e-14    0.0282858
       234.00000  5.97882e-14    0.0278314
       234.10000  5.97882e-14    0.0275026
       234.20000  5.97882e-14    0.0272993
       234.30000  5.97882e-14    0.0272275
       234.40000  5.97882e-14    0.0272873
       234.50000  5.97882e-14    0.0274727
       234.60000  2.84766e-13     0.137400
       234.70000  2.84766e-13     0.143465
       234.80000  2.84766e-13     0.148990
       234.90000  2.84766e-13     0.154030
       235.00000  2.84766e-13     0.158529
       235.10000  2.84766e-13     0.162545
       235.20000  2.84766e-13     0.166019
       235.30000  2.84766e-13     0.168980
       235.40000  2.84766e-13     0.171429
       235.50000  2.84766e-13     0.173394
       235.60000  2.93294e-14    0.0177237
       235.70000  2.93294e-14    0.0176006
       235.80000  2.93294e-14    0.0174862
       235.90000  2.93294e-14    0.0173806
       236.00000  2.93294e-14    0.0172838
       236.10000  2.93294e-14    0.0171987
       236.20000  2.93294e-14    0.0171225
       236.30000  2.92701e-14    0.0170206
       236.40000  2.92701e-14    0.0169620
       236.50000  2.92701e-14    0.0169123
       236.60000  6.90088e-13     0.397767
       236.70000  6.90088e-13     0.397077
       236.80000  6.90088e-13     0.396524
       236.90000  6.90088e-13     0.396248
       237.00000  6.90088e-13     0.396179
       237.10000  6.90088e-13     0.396386
       237.20000  6.90088e-13     0.396731
       237.30000  6.90088e-13     0.397353
       237.40000  6.90088e-13     0.398112
       237.50000  6.90088e-13     0.399147
       237.60000  2.97752e-13     0.168617
       237.70000  2.97752e-13     0.165282
       237.80000  2.97752e-13     0.162275
       237.90000  2.97752e-13     0.159565
       238.00000  2.97752e-13     0.157183
       238.10000  2.97752e-13     0.155099
       238.20000  2.97752e-13     0.153312
       238.30000  2.97752e-13     0.151824
       238.40000  2.97752e-13     0.150662
       238.50000  2.97752e-13     0.149829
       238.60000  8.44170e-13     0.430189
       238.70000  8.44170e-13     0.435001
       238.80000  8.46663e-13     0.440350
       238.90000  8.46663e-13     0.443736
       239.00000  8.46663e-13     0.446530
       239.10000  8.46663e-13     0.448562
       239.20000  8.46663e-13     0.449917
       239.30000  8.46663e-13     0.450510
       239.40000  8.46663e-13     0.450510
       239.50000  8.46663e-13     0.449832
       239.60000  2.80983e-12      1.48809
       239.70000  2.80983e-12      1.48134
       239.80000  2.80983e-12      1.47207
       239.90000  2.80983e-12      1.46055
       240.00000  2.80983e-12      1.44706
       240.10000  2.80983e-12      1.43105
       240.20000  2.80983e-12      1.41250
       240.30000  2.80983e-12      1.39199
       240.40000  2.80983e-12      1.36923
       240.50000  2.80983e-12      1.34422
       240.60000  1.59373e-17  7.79333e-06
       240.70000  1.59373e-17  7.97820e-06
       240.80000  1.59373e-17  8.17582e-06
       240.90000  1.59373e-17  8.38938e-06
       241.00000  1.59373e-17  8.61569e-06
       241.10000  1.85935e-17  1.03324e-05
       241.20000  1.85935e-17  1.06299e-05
       241.30000  1.87345e-17  1.10271e-05
       241.40000  1.87345e-17  1.13606e-05
       241.50000  1.87345e-17  1.17109e-05
       241.60000  2.37752e-12      1.57249
       241.70000  2.37752e-12      1.65190
       241.80000  2.37752e-12      1.72465
       241.90000  2.37752e-12      1.79075
       242.00000  2.37752e-12      1.85018
       242.10000  3.05681e-12      2.44667
       242.20000  3.05681e-12      2.50566
       242.30000  3.05681e-12      2.55610
       242.40000  3.05681e-12      2.59798
       242.50000  3.05681e-12      2.63130
       242.60000  6.40428e-12      5.56468
       242.70000  7.11586e-12      6.21998
       242.80000  7.11586e-12      6.23705
       242.90000  7.11586e-12      6.23421
       243.00000  7.11586e-12      6.21144
       243.10000  7.11586e-12      6.16874
       243.20000  7.11586e-12      6.10541
       243.30000  7.11586e-12      6.02215
       243.40000  9.96221e-12      8.28656
       243.50000  9.96221e-12      8.11422
       243.60000  2.00752e-12      1.62890
       243.70000  2.00752e-12      1.62108
       243.80000  2.02812e-12      1.62838
       243.90000  2.02812e-12      1.61743
       244.00000  2.17299e-12      1.71970
       244.10000  2.17299e-12      1.70471
       244.20000  2.17299e-12      1.68819
       244.30000  2.17299e-12      1.66994
       244.40000  2.17299e-12      1.65016
       244.50000  2.17299e-12      1.62865
       244.60000  4.67526e-17  3.40639e-05
       244.70000  4.67526e-17  3.31569e-05
       244.80000  4.67526e-17  3.23200e-05
       244.90000  4.67526e-17  3.15580e-05
       245.00000  4.67526e-17  3.08660e-05
       245.10000  5.77532e-17  3.73663e-05
       245.20000  5.77532e-17  3.66906e-05
       245.30000  5.77532e-17  3.61073e-05
       245.40000  5.77532e-17  3.56164e-05
       245.50000  5.77532e-17  3.52063e-05
       245.60000  2.17719e-12      1.31546
       245.70000  2.38454e-12      1.43144
       245.80000  2.38454e-12      1.42571
       245.90000  2.38454e-12      1.42381
       246.00000  2.38454e-12      1.42548
       246.10000  2.38454e-12      1.43096
       246.20000  2.38454e-12      1.44002
       246.30000  2.40998e-12      1.46840
       246.40000  2.72433e-12      1.67873
       246.50000  2.72433e-12      1.70161
       246.60000  9.77037e-12      6.24913
       246.70000  9.77037e-12      6.37712
       246.80000  9.77037e-12      6.48752
       246.90000  9.77037e-12      6.57937
       247.00000  1.20251e-11      8.18787
       247.10000  1.20251e-11      8.25641
       247.20000  1.20251e-11      8.30211
       247.30000  1.20251e-11      8.32495
       247.40000  1.20251e-11      8.32616
       247.50000  1.20251e-11      8.30451
       247.60000  9.61227e-13     0.641138
       247.70000  9.61227e-13     0.620953
       247.80000  9.61227e-13     0.603266
       247.90000  9.61227e-13     0.587983
       248.00000  9.61227e-13     0.575198
       248.10000  9.89498e-13     0.581429
       248.20000  9.89498e-13     0.573315
       248.30000  9.89498e-13     0.567873
       248.40000  9.89498e-13     0.564806
       248.50000  9.89498e-13     0.564410
       248.60000  9.53039e-12      5.45615
       248.70000  1.08919e-11      6.28679
       248.80000  1.10081e-11      6.43316
       248.90000  1.10081e-11      6.54214
       249.00000  1.10081e-11      6.67864
       249.10000  1.10081e-11      6.84266
       249.20000  1.10081e-11      7.03641
       249.30000  1.10081e-11      7.25767
       249.40000  1.23842e-11      8.44600
       249.50000  1.23842e-11      8.75932
       249.60000  1.98787e-12      1.43584
       249.70000  1.98787e-12      1.46148
       249.80000  1.98787e-12      1.48255
       249.90000  1.98787e-12      1.49905
       250.00000  2.29709e-12      1.74625
       250.10000  2.29709e-12      1.75521
       250.20000  2.29709e-12      1.75888
       250.30000  2.29709e-12      1.75728
       250.40000  2.29709e-12      1.75061
       250.50000  2.29709e-12      1.73867
       250.60000  4.57695e-12      3.35948
       250.70000  4.57695e-12      3.26016
       250.80000  4.57695e-12      3.16588
       250.90000  4.57695e-12      3.07754
       251.00000  4.57695e-12      2.99470
       251.10000  5.47734e-12      3.49126
       251.20000  5.47734e-12      3.40526
       251.30000  5.53891e-12      3.36322
       251.40000  5.53891e-12      3.28956
       251.50000  5.53891e-12      3.22254
       251.60000  3.38089e-11      19.3015
       251.70000  3.98297e-11      22.3564
       251.80000  3.98297e-11      22.0179
       251.90000  3.98297e-11      21.7311
       252.00000  3.98297e-11      21.4881
       252.10000  3.98297e-11      21.2970
       252.20000  3.98297e-11      21.1536
       252.30000  3.98297e-11      21.0580
       252.40000  4.72399e-11      24.9190
       252.50000  4.72399e-11      24.9190
       252.60000  4.73689e-11      25.6502
       252.70000  4.73689e-11      26.3087
       252.80000  4.73689e-11      26.9481
       252.90000  4.73689e-11      27.5781
       253.00000  5.57281e-11      33.1749
       253.10000  5.57281e-11      33.8882
       253.20000  5.57281e-11      34.5904
       253.30000  5.57281e-11      35.2814
       253.40000  5.57281e-11      35.9558
       253.50000  5.57281e-11      36.6133
       253.60000  2.28528e-11      15.1011
       253.70000  2.28528e-11      15.2200
       253.80000  2.31106e-11      15.5465
       253.90000  2.31106e-11      15.7383
       254.00000  2.31106e-11      15.9625
       254.10000  2.65526e-11      18.6399
       254.20000  2.65526e-11      18.9798
       254.30000  2.65526e-11      19.3595
       254.40000  2.65526e-11      19.7790
       254.50000  2.65526e-11      20.2410
       254.60000  4.90831e-12      3.83388
       254.70000  5.63547e-12      4.51683
       254.80000  5.63547e-12      4.63968
       254.90000  5.63547e-12      4.77155
       255.00000  5.63547e-12      4.91188
       255.10000  5.63547e-12      5.06065
       255.20000  5.63547e-12      5.21788
       255.30000  5.63547e-12      5.38356
       255.40000  6.54442e-12      6.45476
       255.50000  6.54442e-12      6.66876
       255.60000  1.39814e-10      146.385
       255.70000  1.39814e-10      150.440
       255.80000  1.39814e-10      154.494
       255.90000  1.39814e-10      158.549
       256.00000  1.63116e-10      189.867
       256.10000  1.63116e-10      194.598
       256.20000  1.63116e-10      199.491
       256.30000  1.64956e-10      206.689
       256.40000  1.64956e-10      211.638
       256.50000  1.64956e-10      216.587
       256.60000  7.96353e-11      108.145
       256.70000  7.96353e-11      111.489
       256.80000  7.96353e-11      114.516
       256.90000  7.96353e-11      117.382
       257.00000  7.96353e-11      120.010
       257.10000  9.36727e-11      143.881
       257.20000  9.36727e-11      146.410
       257.30000  9.36727e-11      148.565
       257.40000  9.36727e-11      150.438
       257.50000  9.36727e-11      152.031
       257.60000  1.22028e-10      199.637
       257.70000  1.45589e-10      239.640
       257.80000  1.45589e-10      240.659
       257.90000  1.45589e-10      241.242
       258.00000  1.45589e-10      241.533
       258.10000  1.45589e-10      241.387
       258.20000  1.45589e-10      240.805
       258.30000  1.45589e-10      239.786
       258.40000  1.74778e-10      286.286
       258.50000  1.74778e-10      284.188
       258.60000  4.06904e-10      650.233
       258.70000  4.06904e-10      638.840
       258.80000  4.11049e-10      633.837
       258.90000  4.11049e-10      622.328
       259.00000  4.98717e-10      741.592
       259.10000  4.98717e-10      728.626
       259.20000  4.98717e-10      715.160
       259.30000  4.98717e-10      702.194
       259.40000  4.98717e-10      689.227
       259.50000  4.98717e-10      676.759
       259.60000  1.14238e-11      15.2165
       259.70000  1.14238e-11      14.9309
       259.80000  1.14238e-11      14.6453
       259.90000  1.14238e-11      14.3712
       260.00000  1.14238e-11      14.0970
       260.10000  1.40301e-11      16.9904
       260.20000  1.40301e-11      16.6677
       260.30000  1.40301e-11      16.3450
       260.40000  1.40301e-11      16.0223
       260.50000  1.40301e-11      15.7137
       260.60000  3.18329e-10      356.528
       260.70000  3.90209e-10      437.815
       260.80000  3.90209e-10      438.985
       260.90000  3.90209e-10      440.546
       261.00000  3.90209e-10      442.888
       261.10000  3.90209e-10      445.229
       261.20000  3.90209e-10      448.350
       261.30000  3.93890e-10      456.125
       261.40000  4.90040e-10      572.856
       261.50000  4.90040e-10      578.737
       261.60000  9.57969e-10      1120.82
       261.70000  9.57969e-10      1117.95
       261.80000  9.57969e-10      1119.87
       261.90000  9.57969e-10      1128.49
       262.00000  1.18296e-09      1412.46
       262.10000  1.18296e-09      1438.48
       262.20000  1.18296e-09      1471.61
       262.30000  1.18296e-09      1513.01
       262.40000  1.18296e-09      1561.51
       262.50000  1.18296e-09      1617.11
       262.60000  8.26146e-10      1173.95
       262.70000  8.26146e-10      1224.35
       262.80000  8.26146e-10      1279.70
       262.90000  8.26146e-10      1340.01
       263.00000  8.26146e-10      1406.10
       263.10000  1.03510e-09      1850.76
       263.20000  1.03510e-09      1945.99
       263.30000  1.03510e-09      2048.46
       263.40000  1.03510e-09      2158.19
       263.50000  1.03510e-09      2274.12
       263.60000  1.05224e-09      2480.12
       263.70000  1.34490e-09      3371.66
       263.80000  1.35572e-09      3587.24
       263.90000  1.35572e-09      3762.13
       264.00000  1.35572e-09      3922.10
       264.10000  1.35572e-09      4067.17
       264.20000  1.35572e-09      4197.32
       264.30000  1.35572e-09      4313.91
       264.40000  1.72608e-09      5621.83
       264.50000  1.72608e-09      5732.30
       264.60000  1.30777e-14    0.0435486
       264.70000  1.30777e-14    0.0436533
       264.80000  1.30777e-14    0.0437448
       264.90000  1.30777e-14    0.0438363
       265.00000  1.68631e-14    0.0566262
       265.10000  1.68631e-14    0.0566936
       265.20000  1.68631e-14    0.0567611
       265.30000  1.68631e-14    0.0568286
       265.40000  1.68631e-14    0.0568623
       265.50000  1.68631e-14    0.0568791
       265.60000  5.38244e-09      18160.4
       265.70000  5.38244e-09      18160.4
       265.80000  5.38244e-09      18155.0
       265.90000  5.38244e-09      18144.2
       266.00000  5.38244e-09      18128.1
       266.10000  6.94774e-09      23372.2
       266.20000  6.94774e-09      23344.4
       266.30000  6.99938e-09      23482.9
       266.40000  6.99938e-09      23440.9
       266.50000  6.99938e-09      23391.9
       266.60000  2.85933e-09      9578.76
       266.70000  3.73393e-09      12534.8
       266.80000  3.73393e-09      12557.2
       266.90000  3.73393e-09      12575.9
       267.00000  3.73393e-09      12590.8
       267.10000  3.73393e-09      12598.3
       267.20000  3.73393e-09      12605.7
       267.30000  3.73393e-09      12605.7
       267.40000  4.76858e-09      16094.0
       267.50000  4.76858e-09      16084.4
       267.60000  4.73128e-14     0.159160
       267.70000  4.73128e-14     0.158734
       267.80000  4.73128e-14     0.158309
       267.90000  4.73128e-14     0.157883
       268.00000  5.94162e-14     0.197797
       268.10000  5.94162e-14     0.197321
       268.20000  5.94162e-14     0.196846
       268.30000  5.94162e-14     0.196371
       268.40000  5.94162e-14     0.195955
       268.50000  5.94162e-14     0.195539
       268.60000  2.92131e-08      95409.9
       268.70000  2.92131e-08      94767.2
       268.80000  2.93162e-08      94632.6
       268.90000  2.93162e-08      94251.5
       269.00000  2.93162e-08      94046.3
       269.10000  3.41333e-08      109363.
       269.20000  3.41333e-08      109431.
       269.30000  3.41333e-08      109636.
       269.40000  3.41333e-08      109978.
       269.50000  3.41333e-08      110490.
       269.60000  4.35088e-10      1444.93
       269.70000  4.83661e-10      1641.55
       269.80000  4.83661e-10      1672.50
       269.90000  4.83661e-10      1699.10
       270.00000  4.83661e-10      1720.87
       270.10000  4.83661e-10      1737.79
       270.20000  4.83661e-10      1749.89
       270.30000  4.83661e-10      1757.14
       270.40000  5.14791e-10      1873.32
       270.50000  5.14791e-10      1871.27
       270.60000  2.59117e-09      9385.22
       270.70000  2.59117e-09      9325.63
       270.80000  2.59117e-09      9240.12
       270.90000  2.59117e-09      9128.70
       271.00000  2.64963e-09      9196.85
       271.10000  2.64963e-09      9032.58
       271.20000  2.64963e-09      8841.80
       271.30000  2.65860e-09      8653.75
       271.40000  2.65860e-09      8411.81
       271.50000  2.65860e-09      8143.29
       271.60000  2.12572e-08      64005.4
       271.70000  2.12572e-08      62985.1
       271.80000  2.12572e-08      62028.5
       271.90000  2.12572e-08      61156.9
       272.00000  2.12572e-08      60349.2
       272.10000  2.07157e-08      58107.5
       272.20000  2.07157e-08      57486.0
       272.30000  2.07157e-08      56926.7
       272.40000  2.07157e-08      56429.5
       272.50000  2.07157e-08      56035.9
       272.60000  6.78389e-09      18608.2
       272.70000  6.54953e-09      18168.4
       272.80000  6.54953e-09      18305.9
       272.90000  6.54953e-09      18391.1
       273.00000  6.54953e-09      18417.3
       273.10000  6.54953e-09      18384.5
       273.20000  6.54953e-09      18299.4
       273.30000  6.54953e-09      18155.3
       273.40000  6.29318e-09      17249.6
       273.50000  6.29318e-09      17004.2
       273.60000  1.56708e-08      41590.3
       273.70000  1.56708e-08      40697.1
       273.80000  1.56962e-08      39742.8
       273.90000  1.56962e-08      38581.2
       274.00000  1.51494e-08      35979.9
       274.10000  1.51494e-08      34586.1
       274.20000  1.51494e-08      33071.2
       274.30000  1.51494e-08      31419.9
       274.40000  1.51494e-08      29632.3
       274.50000  1.51494e-08      27723.4
       274.60000  2.01786e-08      37814.6
       274.70000  2.01786e-08      38763.0
       274.80000  2.01786e-08      39771.9
       274.90000  2.01786e-08      40881.7
       275.00000  2.01786e-08      42031.9
       275.10000  1.96922e-08      42239.7
       275.20000  1.96922e-08      43519.7
       275.30000  1.96922e-08      44858.8
       275.40000  1.96922e-08      46276.6
       275.50000  1.27591e-08      30940.9
       275.60000  1.27591e-08      32765.4
       275.70000  1.25601e-08      33924.8
       275.80000  1.25601e-08      35444.5
       275.90000  1.25601e-08      36838.7
       276.00000  1.25601e-08      38094.7
       276.10000  1.25601e-08      39225.1
       276.20000  1.25601e-08      40217.4
       276.30000  1.26288e-08      41296.3
       276.40000  1.25130e-08      41643.4
       276.50000  1.14546e-08      38659.1
       276.60000  1.14546e-08      39082.9
       276.70000  1.14546e-08      39380.8
       276.80000  1.14546e-08      39552.6
       276.90000  1.14546e-08      39609.9
       277.00000  1.14257e-08      39441.6
       277.10000  1.14257e-08      39247.3
       277.20000  1.14257e-08      38938.9
       277.30000  1.14257e-08      38504.7
       277.40000  1.14257e-08      37944.8
       277.50000  2.16988e-09      7078.16
       277.60000  2.16988e-09      6854.66
       277.70000  2.16988e-09      6631.16
       277.80000  2.16988e-09      6405.49
       277.90000  2.16988e-09      6182.00
       278.00000  2.16988e-09      5958.50
       278.10000  2.19254e-09      5794.89
       278.20000  2.19254e-09      5569.06
       278.30000  2.19254e-09      5343.23
       278.40000  2.19254e-09      5117.40
       278.50000  8.96737e-09      20006.2
       278.60000  8.96737e-09      18616.3
       278.70000  9.10230e-09      17585.7
       278.80000  9.15531e-09      16479.6
       278.90000  9.15531e-09      15380.9
       279.00000  9.15531e-09      14383.0
       279.10000  9.15531e-09      13494.9
       279.20000  9.15531e-09      12716.7
       279.30000  9.15531e-09      12039.2
       279.40000  9.34242e-09      11706.0
       279.50000  5.87132e-09      7057.33
       279.60000  5.87132e-09      6746.15
       279.70000  5.87132e-09      6517.17
       279.80000  5.87132e-09      6376.26
       279.90000  5.87132e-09      6323.41
       280.00000  6.01023e-09      6509.08
       280.10000  6.01023e-09      6635.30
       280.20000  6.01023e-09      6845.66
       280.30000  6.01023e-09      7152.18
       280.40000  6.01023e-09      7542.84
       280.50000  4.24967e-09      5673.31
       280.60000  4.24967e-09      6429.75
       280.70000  4.24967e-09      7173.45
       280.80000  4.24967e-09      7900.14
       280.90000  4.24967e-09      8609.83
       281.00000  4.24967e-09      9302.53
       281.10000  4.36943e-09      10263.8
       281.20000  4.36943e-09      10941.1
       281.30000  4.38689e-09      11651.6
       281.40000  4.38689e-09      12300.8
       281.50000  1.89874e-08      55974.8
       281.60000  1.89874e-08      58633.0
       281.70000  1.95462e-08      63036.6
       281.80000  1.95462e-08      65616.7
       281.90000  1.95462e-08      68138.2
       282.00000  1.95462e-08      70581.5
       282.10000  1.95462e-08      72946.6
       282.20000  1.95462e-08      75233.5
       282.30000  1.95462e-08      77442.2
       282.40000  2.01150e-08      81908.4
       282.50000  4.88718e-09      20413.8
       282.60000  4.88718e-09      20863.4
       282.70000  4.88718e-09      21244.6
       282.80000  4.88718e-09      21557.4
       282.90000  4.88718e-09      21801.7
       283.00000  5.02764e-09      22609.3
       283.10000  5.02764e-09      22719.9
       283.20000  5.02764e-09      22765.1
       283.30000  5.02764e-09      22735.0
       283.40000  5.02764e-09      22634.4
       283.50000  1.32591e-08      59255.0
       283.60000  1.32591e-08      57743.5
       283.70000  1.32591e-08      56245.2
       283.80000  1.32874e-08      54876.9
       283.90000  1.32874e-08      53388.7
       284.00000  1.32874e-08      51913.8
       284.10000  1.36375e-08      51795.2
       284.20000  1.36375e-08      50295.1
       284.30000  1.36375e-08      48822.2
       284.40000  1.36375e-08      47363.0
       284.50000  2.55030e-08      85843.2
       284.60000  2.55030e-08      83139.9
       284.70000  2.60677e-08      82243.8
       284.80000  2.60677e-08      79506.6
       284.90000  2.60677e-08      76821.7
       285.00000  2.60677e-08      74136.7
       285.10000  2.60677e-08      71477.8
       285.20000  2.60677e-08      68818.9
       285.30000  2.60677e-08      66212.1
       285.40000  2.66179e-08      64947.8
       285.50000  1.64345e-08      38473.2
       285.60000  1.64345e-08      43814.4
       285.70000  1.64345e-08      48810.5
       285.80000  1.64345e-08      53461.4
       285.90000  1.64345e-08      57767.3
       286.00000  1.67124e-08      62788.3
       286.10000  1.67124e-08      66465.0
       286.20000  1.67124e-08      69790.8
       286.30000  1.67390e-08      72898.5
       286.40000  1.67390e-08      75526.5
       286.50000  1.07004e-08      49735.5
       286.60000  1.07004e-08      50163.5
       286.70000  1.07004e-08      50538.0
       286.80000  1.07004e-08      50869.7
       286.90000  1.07004e-08      51169.3
       287.00000  1.07004e-08      51415.4
       287.10000  1.08108e-08      52151.3
       287.20000  1.08108e-08      52324.3
       287.30000  1.08108e-08      52443.2
       287.40000  1.08108e-08      52518.9
       287.50000  1.91764e-08      93216.5
       287.60000  1.91764e-08      93216.5
       287.70000  1.93060e-08      93749.7
       287.80000  1.93060e-08      93576.0
       287.90000  1.93060e-08      93325.0
       288.00000  1.93060e-08      93016.1
       288.10000  1.93060e-08      92610.7
       288.20000  1.93060e-08      92128.0
       288.30000  1.93060e-08      91568.2
       288.40000  1.93717e-08      91240.9
       288.50000  6.44594e-10      3012.83
       288.60000  6.44594e-10      3163.67
       288.70000  6.44594e-10      3312.57
       288.80000  6.44880e-10      3461.72
       288.90000  6.44880e-10      3606.81
       289.00000  6.45231e-10      3752.02
       289.10000  6.45231e-10      3893.32
       289.20000  6.45231e-10      4032.69
       289.30000  6.45231e-10      4170.77
       289.40000  6.45231e-10      4306.27
       289.50000  1.32482e-08      91147.6
       289.60000  1.32482e-08      94963.1
       289.70000  1.32482e-08      98500.4
       289.80000  1.32482e-08      101733.
       289.90000  1.32482e-08      104687.
       290.00000  1.32482e-08      107350.
       290.10000  1.31832e-08      109183.
       290.20000  1.31832e-08      111266.
       290.30000  1.31832e-08      113059.
       290.40000  1.31832e-08      114562.
       290.50000  1.22148e-13      1.07283
       290.60000  1.22148e-13      1.08138
       290.70000  1.21428e-13      1.08095
       290.80000  1.21428e-13      1.08435
       290.90000  1.21428e-13      1.08496
       291.00000  1.21428e-13      1.08302
       291.10000  1.21428e-13      1.07840
       291.20000  1.21428e-13      1.07124
       291.30000  1.21575e-13      1.06257
       291.40000  1.20561e-13      1.04128
       291.50000  7.08394e-09      60298.5
       291.60000  7.08394e-09      59370.5
       291.70000  7.08394e-09      58513.4
       291.80000  7.08394e-09      57734.1
       291.90000  7.08394e-09      57025.7
       292.00000  7.01495e-09      55846.0
       292.10000  7.01495e-09      55298.8
       292.20000  7.01495e-09      54821.8
       292.30000  7.01495e-09      54422.0
       292.40000  7.01495e-09      54092.3
       292.50000  9.60099e-09      73687.6
       292.60000  9.60099e-09      74167.6
       292.70000  9.60099e-09      74580.5
       292.80000  9.60099e-09      74945.3
       292.90000  9.60099e-09      75252.6
       293.00000  9.60099e-09      75492.6
       293.10000  9.49758e-09      74869.4
       293.20000  9.49758e-09      75002.4
       293.30000  9.49758e-09      75078.3
       293.40000  9.49758e-09      75087.8
       293.50000  1.04272e-08      82396.0
       293.60000  1.04272e-08      82291.7
       293.70000  1.03106e-08      81206.0
       293.80000  1.03031e-08      80920.7
       293.90000  1.03031e-08      80632.2
       294.00000  1.03031e-08      80292.2
       294.10000  1.03031e-08      79880.1
       294.20000  1.03031e-08      79406.2
       294.30000  1.03031e-08      78870.4
       294.40000  1.01885e-08      77412.4
       294.50000  1.26663e-08      95427.8
       294.60000  1.26663e-08      97036.4
       294.70000  1.26663e-08      98493.0
       294.80000  1.26663e-08      99772.3
       294.90000  1.26663e-08      100887.
       295.00000  1.25266e-08      100714.
       295.10000  1.25266e-08      101491.
       295.20000  1.25266e-08      102105.
       295.30000  1.25266e-08      102556.
       295.40000  1.25266e-08      102831.
       295.50000  4.66414e-09      38334.5
       295.60000  4.66414e-09      37914.8
       295.70000  4.66414e-09      37527.6
       295.80000  4.66414e-09      37163.8
       295.90000  4.66414e-09      36832.7
       296.00000  4.66414e-09      36524.9
       296.10000  4.61594e-09      35875.1
       296.20000  4.61594e-09      35630.4
       296.30000  4.60995e-09      35367.5
       296.40000  4.60995e-09      35183.1
       296.50000  1.64841e-09      12522.9
       296.60000  1.64841e-09      12476.8
       296.70000  1.63200e-09      12315.1
       296.80000  1.63200e-09      12289.0
       296.90000  1.63200e-09      12272.7
       297.00000  1.63200e-09      12266.1
       297.10000  1.63200e-09      12269.4
       297.20000  1.63200e-09      12282.5
       297.30000  1.63200e-09      12306.9
       297.40000  1.61688e-09      12225.3
       297.50000  2.00845e-08      152401.
       297.60000  2.00845e-08      150372.
       297.70000  2.00845e-08      148545.
       297.80000  2.00845e-08      146878.
       297.90000  2.00845e-08      145391.
       298.00000  1.99020e-08      142777.
       298.10000  1.99020e-08      141682.
       298.20000  1.99020e-08      140747.
       298.30000  1.99020e-08      139990.
       298.40000  1.99020e-08      139433.
       298.50000  5.11249e-09      35715.8
       298.60000  5.11249e-09      36160.6
       298.70000  5.11249e-09      36533.8
       298.80000  5.08347e-09      36641.6
       298.90000  5.08347e-09      36890.7
       299.00000  5.08347e-09      37073.7
       299.10000  5.04895e-09      36943.2
       299.20000  5.04895e-09      36998.7
       299.30000  5.04895e-09      36993.6
       299.40000  5.04895e-09      36928.0
       299.50000  3.31269e-09      24142.9
       299.60000  3.31269e-09      24017.0
       299.70000  3.29144e-09      23695.1
       299.80000  3.29144e-09      23487.7
       299.90000  3.29144e-09      23240.9
       300.00000  3.29144e-09      22951.2
       300.10000  3.29144e-09      22618.8
       300.20000  3.29144e-09      22246.8
       300.30000  3.29144e-09      21835.4
       300.40000  3.27458e-09      21271.7
       300.50000  1.37858e-08      87484.8
       300.60000  1.37858e-08      88270.6
       300.70000  1.37858e-08      89056.4
       300.80000  1.37858e-08      89828.4
       300.90000  1.37858e-08      90614.2
       301.00000  1.37073e-08      90865.5
       301.10000  1.37073e-08      91633.1
       301.20000  1.37073e-08      92387.0
       301.30000  1.36837e-08      92980.5
       301.40000  1.36837e-08      93733.1
       301.50000  1.55031e-08      107049.
       301.60000  1.55031e-08      106832.
       301.70000  1.55031e-08      106832.
       301.80000  1.55031e-08      107080.
       301.90000  1.55031e-08      107560.
       302.00000  1.55031e-08      108273.
       302.10000  1.54396e-08      108756.
       302.20000  1.54396e-08      109930.
       302.30000  1.54396e-08      111335.
       302.40000  1.54396e-08      112971.
       302.50000  6.97644e-09      51883.8
       302.60000  6.97644e-09      54018.6
       302.70000  6.95034e-09      55783.4
       302.80000  6.95034e-09      57597.5
       302.90000  6.95034e-09      59244.7
       303.00000  6.95034e-09      60739.0
       303.10000  6.95034e-09      62073.5
       303.20000  6.95034e-09      63248.1
       303.30000  6.95034e-09      64262.9
       303.40000  6.93460e-09      64970.2
       303.50000  7.72391e-09      73145.4
       303.60000  7.72391e-09      72898.3
       303.70000  7.72391e-09      72666.5
       303.80000  7.73207e-09      72526.8
       303.90000  7.73207e-09      72318.1
       304.00000  7.70899e-09      71901.7
       304.10000  7.70899e-09      71724.4
       304.20000  7.70899e-09      71547.1
       304.30000  7.70899e-09      71392.9
       304.40000  7.70899e-09      71246.5
       304.50000  5.24069e-10      4834.01
       304.60000  5.24069e-10      4825.63
       304.70000  5.24069e-10      4818.29
       304.80000  5.24069e-10      4811.48
       304.90000  5.24069e-10      4805.71
       305.00000  5.24069e-10      4800.47
       305.10000  5.22757e-10      4784.27
       305.20000  5.22757e-10      4781.13
       305.30000  5.22757e-10      4778.52
       305.40000  5.22757e-10      4776.95
       305.50000  1.94446e-08      177646.
       305.60000  1.94446e-08      175215.
       305.70000  1.94006e-08      172666.
       305.80000  1.94006e-08      170823.
       305.90000  1.94006e-08      169271.
       306.00000  1.94006e-08      168009.
       306.10000  1.94006e-08      167059.
       306.20000  1.94006e-08      166380.
       306.30000  1.93547e-08      165618.
       306.40000  1.92774e-08      164880.
       306.50000  3.86438e-09      33094.6
       306.60000  3.86438e-09      33627.8
       306.70000  3.86438e-09      34122.5
       306.80000  3.86438e-09      34582.3
       306.90000  3.86438e-09      35003.6
       307.00000  3.85157e-09      35268.8
       307.10000  3.85157e-09      35615.5
       307.20000  3.85157e-09      35923.6
       307.30000  3.85157e-09      36193.2
       307.40000  3.85157e-09      36428.1
       307.50000  9.08504e-09      86380.5
       307.60000  9.08504e-09      86762.1
       307.70000  9.08504e-09      87043.7
       307.80000  9.08504e-09      87243.6
       307.90000  9.08504e-09      87352.6
       308.00000  9.08504e-09      87370.8
       308.10000  9.04252e-09      86898.7
       308.20000  9.04252e-09      86744.9
       308.30000  9.04252e-09      86500.8
       308.40000  9.04252e-09      86175.3
       308.50000  2.45435e-08      232746.
       308.60000  2.45435e-08      224303.
       308.70000  2.44054e-08      215548.
       308.80000  2.43263e-08      208306.
       308.90000  2.43263e-08      202663.
       309.00000  2.43263e-08      197919.
       309.10000  2.43263e-08      194100.
       309.20000  2.43263e-08      191205.
       309.30000  2.43263e-08      189210.
       309.40000  2.41472e-08      186730.
       309.50000  2.71513e-08      209771.
       309.60000  2.71513e-08      215527.
       309.70000  2.71513e-08      221202.
       309.80000  2.71513e-08      226795.
       309.90000  2.71513e-08      232334.
       310.00000  2.69604e-08      236093.
       310.10000  2.69604e-08      241431.
       310.20000  2.69604e-08      246688.
       310.30000  2.69604e-08      251838.
       310.40000  2.69604e-08      256960.
       310.50000  1.05438e-08      102454.
       310.60000  1.05438e-08      104383.
       310.70000  1.05438e-08      106281.
       310.80000  1.05438e-08      108179.
       310.90000  1.05438e-08      109972.
       311.00000  1.05438e-08      111764.
       311.10000  1.04588e-08      112641.
       311.20000  1.04588e-08      114419.
       311.30000  1.04301e-08      115774.
       311.40000  1.04301e-08      117443.
       311.50000  2.58120e-08      294773.
       311.60000  2.58120e-08      289868.
       311.70000  2.55646e-08      282488.
       311.80000  2.55646e-08      278398.
       311.90000  2.55646e-08      274819.
       312.00000  2.55646e-08      271751.
       312.10000  2.55646e-08      269195.
       312.20000  2.55646e-08      267150.
       312.30000  2.55646e-08      265360.
       312.40000  2.52906e-08      261252.
       312.50000  1.42656e-08      147078.
       312.60000  1.42656e-08      148933.
       312.70000  1.42656e-08      150502.
       312.80000  1.42656e-08      152071.
       312.90000  1.42656e-08      153355.
       313.00000  1.41101e-08      152812.
       313.10000  1.41101e-08      153659.
       313.20000  1.41101e-08      154505.
       313.30000  1.41101e-08      155070.
       313.40000  1.41101e-08      155493.
       313.50000  2.75615e-08      304004.
       313.60000  2.75615e-08      304004.
       313.70000  2.75615e-08      303728.
       313.80000  2.75332e-08      302865.
       313.90000  2.75332e-08      302039.
       314.00000  2.75332e-08      300662.
       314.10000  2.72177e-08      295584.
       314.20000  2.72177e-08      293407.
       314.30000  2.72177e-08      290957.
       314.40000  2.72177e-08      288235.
       314.50000  4.90178e-09      51370.6
       314.60000  4.90178e-09      51076.5
       314.70000  4.84221e-09      50165.3
       314.80000  4.84221e-09      49874.8
       314.90000  4.84221e-09      49632.7
       315.00000  4.84221e-09      49390.5
       315.10000  4.84221e-09      49196.9
       315.20000  4.84221e-09      49003.2
       315.30000  4.84221e-09      48857.9
       315.40000  4.77990e-09      48085.7
       315.50000  1.03247e-09      10366.0
       315.60000  1.03247e-09      10266.9
       315.70000  1.03247e-09      10189.5
       315.80000  1.03247e-09      10134.7
       315.90000  1.03247e-09      10103.8
       316.00000  1.01890e-09      9962.81
       316.10000  1.01890e-09      9978.09
       316.20000  1.01890e-09      10015.8
       316.30000  1.02024e-09      10090.2
       316.40000  1.02024e-09      10173.9
       316.50000  1.48193e-08      149378.
       316.60000  1.48193e-08      151156.
       316.70000  1.48193e-08      153379.
       316.80000  1.48193e-08      155899.
       316.90000  1.48193e-08      158862.
       317.00000  1.48193e-08      161974.
       317.10000  1.46106e-08      163201.
       317.20000  1.46106e-08      167146.
       317.30000  1.46106e-08      171237.
       317.40000  1.46106e-08      175766.
       317.50000  1.57646e-08      194693.
       317.60000  1.57646e-08      190278.
       317.70000  1.55094e-08      183321.
       317.80000  1.55094e-08      179599.
       317.90000  1.55094e-08      176342.
       318.00000  1.55094e-08      173550.
       318.10000  1.55094e-08      171068.
       318.20000  1.55094e-08      169052.
       318.30000  1.55094e-08      167346.
       318.40000  1.52654e-08      163492.
       318.50000  2.88044e-09      30676.7
       318.60000  2.88044e-09      30791.9
       318.70000  2.88044e-09      30936.0
       318.80000  2.88032e-09      31078.6
       318.90000  2.88032e-09      31280.3
       319.00000  2.83194e-09      30953.1
       319.10000  2.83194e-09      31179.7
       319.20000  2.83194e-09      31434.6
       319.30000  2.83194e-09      31717.8
       319.40000  2.83194e-09      32000.9
       319.50000  1.17597e-08      134179.
       319.60000  1.17597e-08      135590.
       319.70000  1.17597e-08      137119.
       319.80000  1.17597e-08      138765.
       319.90000  1.17597e-08      140411.
       320.00000  1.17597e-08      142175.
       320.10000  1.15385e-08      141346.
       320.20000  1.15385e-08      143308.
       320.30000  1.15385e-08      145385.
       320.40000  1.15385e-08      147462.
       320.50000  1.41628e-08      183692.
       320.60000  1.41628e-08      180434.
       320.70000  1.38814e-08      173795.
       320.80000  1.38814e-08      170880.
       320.90000  1.38814e-08      168243.
       321.00000  1.38814e-08      165883.
       321.10000  1.38814e-08      163662.
       321.20000  1.38814e-08      161718.
       321.30000  1.38747e-08      159836.
       321.40000  1.35963e-08      155134.
       321.50000  1.24303e-08      140587.
       321.60000  1.24303e-08      140587.
       321.70000  1.24303e-08      140462.
       321.80000  1.24303e-08      140338.
       321.90000  1.24303e-08      140214.
       322.00000  1.21858e-08      137334.
       322.10000  1.21858e-08      137091.
       322.20000  1.21858e-08      136969.
       322.30000  1.21858e-08      136725.
       322.40000  1.21858e-08      136359.
       322.50000  1.46530e-08      163674.
       322.60000  1.46530e-08      163234.
       322.70000  1.46530e-08      162795.
       322.80000  1.46530e-08      162208.
       322.90000  1.46530e-08      161622.
       323.00000  1.46530e-08      161036.
       323.10000  1.43700e-08      157351.
       323.20000  1.43700e-08      156776.
       323.30000  1.43700e-08      156058.
       323.40000  1.43700e-08      155339.
       323.50000  2.42187e-09      26059.3
       323.60000  2.42187e-09      26422.6
       323.70000  2.37855e-09      26330.5
       323.80000  2.38279e-09      26758.8
       323.90000  2.38279e-09      27140.0
       324.00000  2.38279e-09      27521.3
       324.10000  2.38279e-09      27926.3
       324.20000  2.38279e-09      28331.4
       324.30000  2.38279e-09      28736.5
       324.40000  2.34553e-09      28709.3
       324.50000  1.62433e-08      201579.
       324.60000  1.62433e-08      204828.
       324.70000  1.62433e-08      208076.
       324.80000  1.62433e-08      211325.
       324.90000  1.62433e-08      214411.
       325.00000  1.60103e-08      214378.
       325.10000  1.60103e-08      217580.
       325.20000  1.60103e-08      220622.
       325.30000  1.60103e-08      223503.
       325.40000  1.60103e-08      226545.
       325.50000  2.00058e-09      28668.3
       325.60000  2.00058e-09      29208.5
       325.70000  2.00058e-09      29708.6
       325.80000  2.00058e-09      30168.7
       325.90000  2.00058e-09      30588.9
       326.00000  2.00058e-09      30949.0
       326.10000  1.97287e-09      30855.6
       326.20000  1.97287e-09      31131.8
       326.30000  1.98149e-09      31505.7
       326.40000  1.98149e-09      31703.9
       326.50000  9.00126e-09      144740.
       326.60000  9.00126e-09      144470.
       326.70000  8.83003e-09      141369.
       326.80000  8.83003e-09      141104.
       326.90000  8.83003e-09      140751.
       327.00000  8.83003e-09      140397.
       327.10000  8.83003e-09      140044.
       327.20000  8.83003e-09      139691.
       327.30000  8.83003e-09      139338.
       327.40000  8.58461e-09      135036.
       327.50000  1.06745e-08      167484.
       327.60000  1.06745e-08      166950.
       327.70000  1.06745e-08      166416.
       327.80000  1.06745e-08      165882.
       327.90000  1.06745e-08      165349.
       328.00000  1.02373e-08      158063.
       328.10000  1.02373e-08      157551.
       328.20000  1.02373e-08      156937.
       328.30000  1.02373e-08      156323.
       328.40000  1.02373e-08      155811.
       328.50000  7.43237e-09      112675.
       328.60000  7.43237e-09      115499.
       328.70000  7.43237e-09      118100.
       328.80000  7.44852e-09      120741.
       328.90000  7.44852e-09      122901.
       329.00000  7.44852e-09      124837.
       329.10000  6.76368e-09      114847.
       329.20000  6.76368e-09      116200.
       329.30000  6.76368e-09      117282.
       329.40000  6.76368e-09      118229.
       329.50000  5.15644e-09      90650.1
       329.60000  5.15644e-09      90289.2
       329.70000  4.48864e-09      78326.8
       329.80000  4.48864e-09      78012.6
       329.90000  4.48864e-09      77698.4
       330.00000  4.48864e-09      77384.1
       330.10000  4.48864e-09      77069.9
       330.20000  4.48864e-09      76755.7
       330.30000  4.48864e-09      76441.5
       330.40000  3.77217e-09      63976.0
       330.50000  2.89139e-09      48806.6
       330.60000  2.89139e-09      48604.2
       330.70000  2.89139e-09      48372.9
       330.80000  2.89139e-09      48170.5
       330.90000  2.89139e-09      47939.2
       331.00000  2.33251e-09      38486.4
       331.10000  2.33251e-09      38299.8
       331.20000  2.33251e-09      38113.2
       331.30000  2.33270e-09      37929.7
       331.40000  2.33270e-09      37743.0
       331.50000  1.85651e-09      29889.8
       331.60000  1.85651e-09      29889.8
       331.70000  1.85651e-09      29889.8
       331.80000  1.85651e-09      29889.8
       331.90000  1.85651e-09      29871.2
       332.00000  1.85651e-09      29852.6
       332.10000  1.41713e-09      22759.1
       332.20000  1.41713e-09      22730.7
       332.30000  1.41713e-09      22702.4
       332.40000  1.41713e-09      22659.9
       332.50000  1.30730e-09      20864.5
       332.60000  1.30730e-09      20733.8
       332.70000  9.85801e-10      15546.1
       332.80000  9.85801e-10      15467.2
       332.90000  9.85801e-10      15398.2
       333.00000  9.85801e-10      15339.1
       333.10000  9.85801e-10      15299.6
       333.20000  9.85801e-10      15260.2
       333.30000  9.85801e-10      15240.5
       333.40000  7.36892e-10      11385.0
       333.50000  6.00814e-10      9282.58
       333.60000  6.00814e-10      9294.60
       333.70000  6.00814e-10      9306.62
       333.80000  6.00050e-10      9318.78
       333.90000  6.00050e-10      9348.79
       334.00000  4.46749e-10      6987.15
       334.10000  4.46749e-10      7022.89
       334.20000  4.46749e-10      7058.63
       334.30000  4.46749e-10      7103.30
       334.40000  4.46749e-10      7152.45
       334.50000  3.31073e-11      534.021
       334.60000  3.31073e-11      536.338
       334.70000  3.31073e-11      537.663
       334.80000  3.31073e-11      538.656
       334.90000  3.31073e-11      538.987
       335.00000  3.31073e-11      538.656
       335.10000  2.46197e-11      399.824
       335.20000  2.46197e-11      398.593
       335.30000  2.46197e-11      396.870
       335.40000  2.46197e-11      394.654
       335.50000  4.61105e-10      7336.18
       335.60000  4.61105e-10      7179.41
       335.70000  3.51970e-10      5367.54
       335.80000  3.51970e-10      5261.95
       335.90000  3.51970e-10      5170.44
       336.00000  3.51970e-10      5085.97
       336.10000  3.51970e-10      5015.57
       336.20000  3.51970e-10      4952.22
       336.30000  3.52483e-10      4906.57
       336.40000  2.70249e-10      3726.73
       336.50000  1.40501e-10      1924.87
       336.60000  1.40501e-10      1915.03
       336.70000  1.40501e-10      1909.41
       336.80000  1.40501e-10      1908.01
       336.90000  1.40501e-10      1909.41
       337.00000  1.08710e-10      1482.81
       337.10000  1.08710e-10      1490.42
       337.20000  1.08710e-10      1501.29
       337.30000  1.08710e-10      1515.42
       337.40000  1.08710e-10      1532.81
       337.50000  1.08394e-10      1548.95
       337.60000  1.08394e-10      1567.37
       337.70000  1.08394e-10      1584.72
       337.80000  1.08394e-10      1602.06
       337.90000  1.08394e-10      1618.32
       338.00000  1.08394e-10      1633.49
       338.10000  8.46458e-11      1287.46
       338.20000  8.46458e-11      1298.47
       338.30000  8.46458e-11      1308.62
       338.40000  8.46458e-11      1318.78
       338.50000  2.57756e-11      404.161
       338.60000  2.57756e-11      405.707
       338.70000  2.04772e-11      323.540
       338.80000  2.04920e-11      325.003
       338.90000  2.04920e-11      326.438
       339.00000  2.04920e-11      327.667
       339.10000  2.04920e-11      329.102
       339.20000  2.04920e-11      330.536
       339.30000  2.04920e-11      331.971
       339.40000  1.64079e-11      267.121
       339.50000  6.66798e-11      1090.21
       339.60000  6.66798e-11      1095.55
       339.70000  6.66798e-11      1100.88
       339.80000  6.66798e-11      1106.88
       339.90000  6.66798e-11      1112.22
       340.00000  5.29944e-11      888.717
       340.10000  5.29944e-11      893.486
       340.20000  5.29944e-11      898.256
       340.30000  5.29944e-11      903.555
       340.40000  5.29944e-11      908.325
       340.50000  4.83920e-11      834.278
       340.60000  4.83920e-11      821.696
       340.70000  4.83920e-11      811.050
       340.80000  4.83920e-11      800.887
       340.90000  4.83920e-11      792.177
       341.00000  4.83920e-11      784.918
       341.10000  3.87777e-11      624.321
       341.20000  3.87777e-11      620.443
       341.30000  3.88556e-11      618.970
       341.40000  3.88556e-11      617.027
       341.50000  4.91453e-11      779.445
       341.60000  4.91453e-11      789.765
       341.70000  4.14283e-11      673.624
       341.80000  4.14283e-11      681.081
       341.90000  4.14283e-11      687.295
       342.00000  4.14283e-11      692.681
       342.10000  4.14283e-11      697.652
       342.20000  4.14283e-11      701.381
       342.30000  4.14283e-11      704.695
       342.40000  3.28989e-11      561.256
       342.50000  9.37886e-12      160.378
       342.60000  9.37886e-12      160.566
       342.70000  9.37886e-12      160.566
       342.80000  9.37886e-12      160.378
       342.90000  9.37886e-12      160.003
       343.00000  7.98940e-12      135.820
       343.10000  7.98940e-12      135.181
       343.20000  7.98940e-12      134.382
       343.30000  7.98940e-12      133.503
       343.40000  7.98940e-12      132.384
       343.50000  1.61852e-11      265.761
       343.60000  1.61852e-11      257.668
       343.70000  1.61852e-11      250.547
       343.80000  1.62029e-11      244.340
       343.90000  1.62029e-11      238.831
       344.00000  1.62029e-11      234.133
       344.10000  1.42806e-11      203.070
       344.20000  1.42806e-11      200.356
       344.30000  1.42806e-11      198.500
       344.40000  1.42806e-11      197.215
       344.50000  1.11839e-11      154.115
       344.60000  1.11839e-11      158.365
       344.70000  8.60303e-12      124.830
       344.80000  8.60303e-12      127.583
       344.90000  8.60303e-12      130.078
       345.00000  8.60303e-12      132.401
       345.10000  8.60303e-12      134.465
       345.20000  8.60303e-12      136.272
       345.30000  8.60303e-12      137.907
       345.40000  7.95781e-12      128.757
       345.50000  1.41323e-11      230.639
       345.60000  1.41323e-11      232.052
       345.70000  1.41323e-11      233.183
       345.80000  1.41323e-11      233.889
       345.90000  1.41323e-11      234.172
       346.00000  1.18406e-11      196.198
       346.10000  1.18406e-11      195.725
       346.20000  1.18406e-11      195.133
       346.30000  1.18488e-11      194.202
       346.40000  1.18488e-11      192.899
       346.50000  1.94398e-11      313.759
       346.60000  1.94398e-11      312.592
       346.70000  1.94398e-11      311.620
       346.80000  1.94398e-11      310.843
       346.90000  1.94398e-11      309.871
       347.00000  1.94398e-11      309.093
       347.10000  1.59684e-11      253.419
       347.20000  1.59684e-11      252.780
       347.30000  1.59684e-11      252.301
       347.40000  1.59684e-11      251.982
       347.50000  5.95035e-12      93.7180
       347.60000  5.95035e-12      93.7180
       347.70000  5.69164e-12      89.6433
       347.80000  5.69164e-12      89.6433
       347.90000  5.69164e-12      89.6433
       348.00000  5.69164e-12      89.5864
       348.10000  5.69164e-12      89.5864
       348.20000  5.69164e-12      89.5864
       348.30000  5.69164e-12      89.5295
       348.40000  4.65680e-12      73.2514
       348.50000  1.18202e-11      185.813
       348.60000  1.18202e-11      184.158
       348.70000  1.18202e-11      182.858
       348.80000  1.18175e-11      181.872
       348.90000  1.18175e-11      181.163
       349.00000  1.11610e-11      170.875
       349.10000  1.11610e-11      170.987
       349.20000  1.11610e-11      171.322
       349.30000  1.11610e-11      172.103
       349.40000  1.11610e-11      173.107
       349.50000  8.65546e-12      135.371
       349.60000  8.65546e-12      139.439
       349.70000  8.65546e-12      143.075
       349.80000  8.65546e-12      146.450
       349.90000  8.65546e-12      149.480
       350.00000  8.65546e-12      152.163
       350.10000  9.32127e-12      166.291
       350.20000  9.32127e-12      168.435
       350.30000  9.32127e-12      170.206
       350.40000  9.32127e-12      171.511
       350.50000  7.57094e-12      140.062
       350.60000  7.57094e-12      140.592
       350.70000  6.48937e-12      120.637
       350.80000  6.48937e-12      120.508
       350.90000  6.48937e-12      120.118
       351.00000  6.48937e-12      119.534
       351.10000  6.48937e-12      118.626
       351.20000  6.48937e-12      117.458
       351.30000  6.49828e-12      116.124
       351.40000  6.49828e-12      114.435
       351.50000  6.47597e-12      112.099
       351.60000  6.47597e-12      110.286
       351.70000  6.47597e-12      108.732
       351.80000  6.47597e-12      107.372
       351.90000  6.47597e-12      106.206
       352.00000  6.47597e-12      105.299
       352.10000  6.47597e-12      104.652
       352.20000  6.47597e-12      104.198
       352.30000  6.47597e-12      104.004
       352.40000  6.47597e-12      104.004
       352.50000  4.19802e-12      67.5462
       352.60000  4.19802e-12      68.6796
       352.70000  4.19802e-12      69.7291
       352.80000  4.19802e-12      70.7786
       352.90000  4.19802e-12      71.7862
       353.00000  4.19802e-12      72.7517
       353.10000  4.19802e-12      73.6753
       353.20000  4.19802e-12      74.5988
       353.30000  4.19802e-12      75.4385
       353.40000  4.19802e-12      76.2781
       353.50000  5.80154e-12      106.516
       353.60000  5.80154e-12      107.561
       353.70000  5.80154e-12      108.547
       353.80000  5.80838e-12      109.662
       353.90000  5.80838e-12      110.592
       354.00000  5.80838e-12      111.405
       354.10000  5.80838e-12      112.218
       354.20000  5.80838e-12      113.031
       354.30000  5.80838e-12      113.728
       354.40000  5.80838e-12      114.425
       354.50000  5.15501e-12      102.069
       354.60000  5.15501e-12      101.760
       354.70000  5.15501e-12      101.399
       354.80000  5.15501e-12      100.987
       354.90000  5.15501e-12      100.523
       355.00000  5.15501e-12      99.9557
       355.10000  5.15501e-12      99.3371
       355.20000  5.15501e-12      98.6669
       355.30000  5.15501e-12      97.9452
       355.40000  5.15501e-12      97.1720
       355.50000  4.78297e-13      8.93459
       355.60000  4.78297e-13      8.81502
       355.70000  4.78297e-13      8.70023
       355.80000  4.78297e-13      8.58544
       355.90000  4.78297e-13      8.47064
       356.00000  4.78297e-13      8.36064
       356.10000  4.78297e-13      8.25063
       356.20000  4.78297e-13      8.14062
       356.30000  4.79839e-13      8.05649
       356.40000  4.79839e-13      7.95093
       356.50000  3.75436e-12      61.3839
       356.60000  3.75436e-12      60.5579
       356.70000  3.75436e-12      59.7695
       356.80000  3.75436e-12      58.9811
       356.90000  3.75436e-12      58.1926
       357.00000  3.75436e-12      57.4042
       357.10000  3.75436e-12      56.6534
       357.20000  3.75436e-12      55.9025
       357.30000  3.75436e-12      55.1516
       357.40000  3.75436e-12      54.4383
       357.50000  1.54039e-12      22.0429
       357.60000  1.54039e-12      21.2573
       357.70000  1.54039e-12      20.5950
       357.80000  1.54039e-12      20.0404
       357.90000  1.54039e-12      19.5937
       358.00000  1.54039e-12      19.2548
       358.10000  1.54039e-12      19.0392
       358.20000  1.54039e-12      18.9313
       358.30000  1.54039e-12      18.9313
       358.40000  1.54039e-12      19.0392
       358.50000  2.91502e-13      3.64378
       358.60000  2.91502e-13      3.87698
       358.70000  2.91502e-13      4.09269
       358.80000  2.91735e-13      4.29725
       358.90000  2.91735e-13      4.47813
       359.00000  2.91735e-13      4.64441
       359.10000  2.91735e-13      4.79612
       359.20000  2.91735e-13      4.92740
       359.30000  2.91735e-13      5.04409
       359.40000  2.91735e-13      5.14328
       359.50000  1.53445e-12      27.4821
       359.60000  1.53445e-12      27.5281
       359.70000  1.53445e-12      27.5588
       359.80000  1.53445e-12      27.5588
       359.90000  1.53445e-12      27.5281
       360.00000  1.53445e-12      27.4974
       360.10000  1.53445e-12      27.4360
       360.20000  1.53445e-12      27.3593
       360.30000  1.53445e-12      27.2672
       360.40000  1.53445e-12      27.1445
       360.50000  1.65769e-12      29.1754
       360.60000  1.65769e-12      28.6118
       360.70000  1.65769e-12      28.1145
       360.80000  1.65769e-12      27.6835
       360.90000  1.65769e-12      27.3188
       361.00000  1.65769e-12      27.0204
       361.10000  1.65769e-12      26.7717
       361.20000  1.65769e-12      26.6060
       361.30000  1.66180e-12      26.5555
       361.40000  1.66180e-12      26.5057
       361.50000  4.19437e-13      6.69422
       361.60000  4.19437e-13      6.71519
       361.70000  4.19437e-13      6.75294
       361.80000  4.19437e-13      6.80327
       361.90000  4.19437e-13      6.87458
       362.00000  4.19437e-13      6.95847
       362.10000  4.19437e-13      7.05913
       362.20000  4.19437e-13      7.17657
       362.30000  4.19437e-13      7.31079
       362.40000  4.19437e-13      7.46179
       362.50000  1.52749e-13      2.77850
       362.60000  1.52749e-13      2.77697
       362.70000  1.52749e-13      2.77544
       362.80000  1.52749e-13      2.77391
       362.90000  1.52749e-13      2.77391
       363.00000  1.52749e-13      2.77391
       363.10000  1.52749e-13      2.77544
       363.20000  1.52749e-13      2.77697
       363.30000  1.52749e-13      2.77850
       363.40000  1.52749e-13      2.78002
       363.50000  7.78158e-13      14.1780
       363.60000  7.78158e-13      14.1236
       363.70000  7.78158e-13      14.0924
       363.80000  7.78097e-13      14.0758
       363.90000  7.78097e-13      14.0758
       364.00000  7.78097e-13      14.0913
       364.10000  7.78097e-13      14.1302
       364.20000  7.78097e-13      14.1769
       364.30000  7.78097e-13      14.2547
       364.40000  7.78097e-13      14.3403
       364.50000  1.51011e-12      28.0428
       364.60000  1.51011e-12      28.2694
       364.70000  1.51011e-12      28.5563
       364.80000  1.51011e-12      28.8583
       364.90000  1.51011e-12      29.2056
       365.00000  1.51011e-12      29.5832
       365.10000  1.51011e-12      29.9909
       365.20000  1.51011e-12      30.4288
       365.30000  1.51011e-12      30.9121
       365.40000  1.51011e-12      31.4255
       365.50000  7.01791e-13      14.8569
       365.60000  7.01791e-13      15.0464
       365.70000  7.01791e-13      15.2148
       365.80000  7.01791e-13      15.3622
       365.90000  7.01791e-13      15.5026
       366.00000  7.01791e-13      15.6148
       366.10000  7.01791e-13      15.7201
       366.20000  7.01791e-13      15.7973
       366.30000  7.03934e-13      15.9159
       366.40000  7.03934e-13      15.9652
       366.50000  3.69799e-14     0.840182
       366.60000  3.69799e-14     0.837594
       366.70000  3.69799e-14     0.835005
       366.80000  3.69799e-14     0.832047
       366.90000  3.69799e-14     0.828719
       367.00000  3.69799e-14     0.825390
       367.10000  3.69799e-14     0.822062
       367.20000  3.69799e-14     0.818364
       367.30000  3.69799e-14     0.814666
       367.40000  3.69799e-14     0.810598
       367.50000  2.83976e-12      61.9068
       367.60000  2.83976e-12      61.5661
       367.70000  2.83976e-12      61.2253
       367.80000  2.83976e-12      60.8561
       367.90000  2.83976e-12      60.4869
       368.00000  2.83976e-12      60.0894
       368.10000  2.83976e-12      59.6918
       368.20000  2.83976e-12      59.2659
       368.30000  2.83976e-12      58.8399
       368.40000  2.83976e-12      58.3855
       368.50000  2.45047e-13      4.99896
       368.60000  2.45047e-13      5.09943
       368.70000  2.45047e-13      5.19254
       368.80000  2.45584e-13      5.28743
       368.90000  2.45584e-13      5.35865
       369.00000  2.45584e-13      5.42250
       369.10000  2.45584e-13      5.47653
       369.20000  2.45584e-13      5.52073
       369.30000  2.45584e-13      5.55512
       369.40000  2.45584e-13      5.57967
       369.50000  3.78347e-13      8.61874
       369.60000  3.78347e-13      8.52037
       369.70000  3.78347e-13      8.42956
       369.80000  3.78347e-13      8.35011
       369.90000  3.78347e-13      8.27822
       370.00000  3.78347e-13      8.21391
       370.10000  3.78347e-13      8.16094
       370.20000  3.78347e-13      8.11553
       370.30000  3.78347e-13      8.07770
       370.40000  3.78347e-13      8.04743
       370.50000  2.35009e-13      4.98689
       370.60000  2.35009e-13      5.03390
       370.70000  2.35009e-13      5.07620
       370.80000  2.35009e-13      5.10910
       370.90000  2.35009e-13      5.13730
       371.00000  2.35009e-13      5.15845
       371.10000  2.35009e-13      5.17255
       371.20000  2.35009e-13      5.17960
       371.30000  2.35400e-13      5.18823
       371.40000  2.35400e-13      5.18116
       371.50000  1.34855e-12      29.6007
       371.60000  1.34855e-12      29.3175
       371.70000  1.34855e-12      29.0343
       371.80000  1.34855e-12      28.7377
       371.90000  1.34855e-12      28.4410
       372.00000  1.34855e-12      28.1578
       372.10000  1.34855e-12      27.8476
       372.20000  1.34855e-12      27.5509
       372.30000  1.34855e-12      27.2408
       372.40000  1.34855e-12      26.9306
       372.50000  3.13495e-13      6.18839
       372.60000  3.13495e-13      6.11628
       372.70000  3.13495e-13      6.04104
       372.80000  3.13495e-13      5.96580
       372.90000  3.13495e-13      5.89057
       373.00000  3.13495e-13      5.81219
       373.10000  3.13495e-13      5.73382
       373.20000  3.13495e-13      5.65858
       373.30000  3.13495e-13      5.57707
       373.40000  3.13495e-13      5.49870
       373.50000  1.20014e-13      2.07384
       373.60000  1.20014e-13      2.05103
       373.70000  1.20014e-13      2.03303
       373.80000  1.20146e-13      2.02085
       373.90000  1.20146e-13      2.01124
       374.00000  1.20146e-13      2.00523
       374.10000  1.20146e-13      2.00283
       374.20000  1.20146e-13      2.00523
       374.30000  1.20146e-13      2.01244
       374.40000  1.20146e-13      2.02205
       374.50000  4.22444e-13      7.16042
       374.60000  4.22444e-13      7.34207
       374.70000  4.22444e-13      7.51105
       374.80000  4.22444e-13      7.67158
       374.90000  4.22444e-13      7.81943
       375.00000  4.22444e-13      7.95462
       375.10000  4.22444e-13      8.07712
       375.20000  4.22444e-13      8.19118
       375.30000  4.22444e-13      8.29679
       375.40000  4.22444e-13      8.38973
       375.50000  7.33914e-13      14.7150
       375.60000  7.33914e-13      14.8397
       375.70000  7.33914e-13      14.9425
       375.80000  7.33914e-13      15.0232
       375.90000  7.33914e-13      15.0893
       376.00000  7.33914e-13      15.1333
       376.10000  7.33914e-13      15.1627
       376.20000  7.33914e-13      15.1700
       376.30000  7.33749e-13      15.1519
       376.40000  7.33749e-13      15.1226
       376.50000  9.66550e-14      1.98529
       376.60000  9.66550e-14      2.03459
       376.70000  9.66550e-14      2.08098
       376.80000  9.66550e-14      2.12448
       376.90000  9.66550e-14      2.16507
       377.00000  9.66550e-14      2.20373
       377.10000  9.66550e-14      2.23853
       377.20000  9.66550e-14      2.27139
       377.30000  9.66550e-14      2.30039
       377.40000  9.66550e-14      2.32745
       377.50000  2.84123e-18  6.91272e-05
       377.60000  2.84123e-18  7.01500e-05
       377.70000  2.84123e-18  7.09740e-05
       377.80000  2.84123e-18  7.16559e-05
       377.90000  2.84123e-18  7.21673e-05
       378.00000  2.84123e-18  7.25083e-05
       378.10000  2.84123e-18  7.27072e-05
       378.20000  2.84123e-18  7.27072e-05
       378.30000  2.84123e-18  7.25651e-05
       378.40000  2.84123e-18  7.22241e-05
       378.50000  7.37739e-14      1.86279
       378.60000  7.37739e-14      1.84656
       378.70000  7.37739e-14      1.82517
       378.80000  7.36591e-14      1.79654
       378.90000  7.36591e-14      1.76708
       379.00000  7.36591e-14      1.73320
       379.10000  7.36591e-14      1.69489
       379.20000  7.36591e-14      1.65217
       379.30000  7.36591e-14      1.60503
       379.40000  7.36591e-14      1.55347
       379.50000  6.19397e-13      12.5985
       379.60000  6.19397e-13      12.9020
       379.70000  6.19397e-13      13.1684
       379.80000  6.19397e-13      13.4099
       379.90000  6.19397e-13      13.6205
       380.00000  6.19397e-13      13.8002
       380.10000  6.19397e-13      13.9488
       380.20000  6.19397e-13      14.0665
       380.30000  6.19397e-13      14.1594
       380.40000  6.19397e-13      14.2152
       380.50000  5.95316e-14      1.36923
       380.60000  5.95316e-14      1.36446
       380.70000  5.95316e-14      1.35792
       380.80000  5.95316e-14      1.34958
       380.90000  5.95316e-14      1.33887
       381.00000  5.95316e-14      1.32696
       381.10000  5.95316e-14      1.31267
       381.20000  5.95316e-14      1.29600
       381.30000  5.95616e-14      1.27879
       381.40000  5.95616e-14      1.25854
       381.50000  2.70749e-13      5.61804
       381.60000  2.70749e-13      5.50974
       381.70000  2.70749e-13      5.39061
       381.80000  2.70749e-13      5.26336
       381.90000  2.70749e-13      5.12527
       382.00000  2.70749e-13      4.98178
       382.10000  2.70749e-13      4.82745
       382.20000  2.70749e-13      4.66229
       382.30000  2.70749e-13      4.49172
       382.40000  2.70749e-13      4.31032
       382.50000  5.36808e-13      8.17022
       382.60000  5.36808e-13      7.88035
       382.70000  5.36808e-13      7.63341
       382.80000  5.36808e-13      7.42406
       382.90000  5.36808e-13      7.25765
       383.00000  5.36808e-13      7.12881
       383.10000  5.36808e-13      7.04292
       383.20000  5.36808e-13      6.98924
       383.30000  5.36808e-13      6.98388
       383.40000  5.36808e-13      7.01072
       383.50000  2.93731e-14     0.387431
       383.60000  2.93731e-14     0.408873
       383.70000  2.93731e-14     0.429141
       383.80000  2.93950e-14     0.448567
       383.90000  2.93950e-14     0.466204
       384.00000  2.93950e-14     0.482666
       384.10000  2.93950e-14     0.497657
       384.20000  2.93950e-14     0.511473
       384.30000  2.93950e-14     0.524113
       384.40000  2.93950e-14     0.535283
       384.50000  1.33055e-14     0.246817
       384.60000  1.33055e-14     0.250808
       384.70000  1.33055e-14     0.254135
       384.80000  1.33055e-14     0.256929
       384.90000  1.33055e-14     0.259058
       385.00000  1.33055e-14     0.260654
       385.10000  1.33055e-14     0.261719
       385.20000  1.33055e-14     0.262118
       385.30000  1.33055e-14     0.261985
       385.40000  1.33055e-14     0.261320
       385.50000  3.05796e-13      5.97525
       385.60000  3.05796e-13      5.97525
       385.70000  3.05796e-13      5.97831
       385.80000  3.05796e-13      5.97831
       385.90000  3.05796e-13      5.98136
       386.00000  3.05796e-13      5.98136
       386.10000  3.05796e-13      5.98136
       386.20000  3.05796e-13      5.98136
       386.30000  3.06260e-13      5.99352
       386.40000  3.06260e-13      5.99352
       386.50000  4.81853e-13      9.42986
       386.60000  4.81853e-13      9.43468
       386.70000  4.81853e-13      9.43950
       386.80000  4.81853e-13      9.44431
       386.90000  4.81853e-13      9.44431
       387.00000  4.81853e-13      9.44913
       387.10000  4.81853e-13      9.44431
       387.20000  4.81853e-13      9.44431
       387.30000  4.81853e-13      9.43950
       387.40000  4.81853e-13      9.43468
       387.50000  6.49556e-14      1.27053
       387.60000  6.49556e-14      1.26923
       387.70000  6.49556e-14      1.26793
       387.80000  6.49556e-14      1.26663
       387.90000  6.49556e-14      1.26469
       388.00000  6.49556e-14      1.26209
       388.10000  6.49556e-14      1.26014
       388.20000  6.49556e-14      1.25754
       388.30000  6.49556e-14      1.25494
       388.40000  6.49556e-14      1.25234
       388.50000  2.04915e-13      3.94052
       388.60000  2.04915e-13      4.03888
       388.70000  2.04915e-13      4.13109
       388.80000  2.05455e-13      4.23032
       388.90000  2.05455e-13      4.31662
       389.00000  2.05455e-13      4.39469
       389.10000  2.05455e-13      4.47071
       389.20000  2.05455e-13      4.54056
       389.30000  2.05455e-13      4.60631
       389.40000  2.05455e-13      4.66794
       389.50000  1.14439e-14     0.263096
       389.60000  1.14439e-14     0.264584
       389.70000  1.14439e-14     0.266072
       389.80000  1.14439e-14     0.267674
       389.90000  1.14439e-14     0.269390
       390.00000  1.14439e-14     0.270993
       390.10000  1.14439e-14     0.272709
       390.20000  1.14439e-14     0.274540
       390.30000  1.14439e-14     0.276371
       390.40000  1.14439e-14     0.278202
       390.50000  3.45612e-13      8.46059
       390.60000  3.45612e-13      8.52280
       390.70000  3.45612e-13      8.58501
       390.80000  3.45612e-13      8.64722
       390.90000  3.45612e-13      8.70943
       391.00000  3.45612e-13      8.77855
       391.10000  3.45612e-13      8.84422
       391.20000  3.45612e-13      8.91334
       391.30000  3.46522e-13      9.00611
       391.40000  3.46522e-13      9.07889
       391.50000  1.99158e-13      5.26174
       391.60000  1.99158e-13      5.15619
       391.70000  1.99158e-13      5.04665
       391.80000  1.99158e-13      4.93114
       391.90000  1.99158e-13      4.81364
       392.00000  1.99158e-13      4.69016
       392.10000  1.99158e-13      4.56270
       392.20000  1.99158e-13      4.42926
       392.30000  1.99158e-13      4.29184
       392.40000  1.99158e-13      4.15044
       392.50000  2.04111e-14     0.410467
       392.60000  2.04111e-14     0.376993
       392.70000  2.04111e-14     0.346989
       392.80000  2.04111e-14     0.320454
       392.90000  2.04111e-14     0.297594
       393.00000  2.04111e-14     0.278407
       393.10000  2.04111e-14     0.262691
       393.20000  2.04111e-14     0.250444
       393.30000  2.04111e-14     0.241872
       393.40000  2.04111e-14     0.236769
       393.50000  1.03569e-13      1.19311
       393.60000  1.03569e-13      1.29875
       393.70000  1.03569e-13      1.40128
       393.80000  1.03742e-13      1.50322
       393.90000  1.03742e-13      1.59970
       394.00000  1.03742e-13      1.69307
       394.10000  1.03742e-13      1.78333
       394.20000  1.03742e-13      1.86943
       394.30000  1.03742e-13      1.95346
       394.40000  1.03742e-13      2.03438
       394.50000  2.60204e-13      5.29514
       394.60000  2.60204e-13      5.62040
       394.70000  2.60204e-13      5.90662
       394.80000  2.60204e-13      6.15381
       394.90000  2.60204e-13      6.36198
       395.00000  2.60204e-13      6.53111
       395.10000  2.60204e-13      6.66121
       395.20000  2.60204e-13      6.75488
       395.30000  2.60204e-13      6.80692
       395.40000  2.60204e-13      6.82254
       395.50000  1.95332e-13      5.10403
       395.60000  1.95332e-13      5.05715
       395.70000  1.95332e-13      4.98098
       395.80000  1.95332e-13      4.87549
       395.90000  1.95332e-13      4.74267
       396.00000  1.95332e-13      4.57859
       396.10000  1.95332e-13      4.38716
       396.20000  1.95332e-13      4.16449
       396.30000  1.95718e-13      3.92218
       396.40000  1.95718e-13      3.64230
       396.50000  1.14973e-13      1.95913
       396.60000  1.14973e-13      1.92234
       396.70000  1.14973e-13      1.89820
       396.80000  1.14973e-13      1.88555
       396.90000  1.14973e-13      1.88555
       397.00000  1.14973e-13      1.89705
       397.10000  1.14973e-13      1.92004
       397.20000  1.14973e-13      1.95568
       397.30000  1.14973e-13      2.00397
       397.40000  1.14973e-13      2.06261
       397.50000  9.80962e-14      1.82067
       397.60000  9.80962e-14      1.97762
       397.70000  9.80962e-14      2.12575
       397.80000  9.80962e-14      2.26504
       397.90000  9.80962e-14      2.39551
       398.00000  9.80962e-14      2.51715
       398.10000  9.80962e-14      2.62898
       398.20000  9.80962e-14      2.73296
       398.30000  9.80962e-14      2.82811
       398.40000  9.80962e-14      2.91444
       398.50000  1.69883e-13      5.17974
       398.60000  1.69883e-13      5.29866
       398.70000  1.69883e-13      5.40229
       398.80000  1.69974e-13      5.49357
       398.90000  1.69974e-13      5.56496
       399.00000  1.69974e-13      5.62275
       399.10000  1.69974e-13      5.66354
       399.20000  1.69974e-13      5.69074
       399.30000  1.69974e-13      5.70094
       399.40000  1.69974e-13      5.69754
       399.50000  1.26470e-13      4.22410
       399.60000  1.26470e-13      4.22537
       399.70000  1.26470e-13      4.22663
       399.80000  1.26470e-13      4.23043
       399.90000  1.26470e-13      4.23422
       400.00000  1.26470e-13      4.23928
       400.10000  1.26470e-13      4.24560
       400.20000  1.26470e-13      4.25319
       400.30000  1.26470e-13      4.26204
       400.40000  1.26470e-13      4.27216
       400.50000  1.51951e-13      5.14657
       400.60000  1.51951e-13      5.17392
       400.70000  1.51951e-13      5.20128
       400.80000  1.51951e-13      5.22559
       400.90000  1.51951e-13      5.24838
       401.00000  1.51951e-13      5.27117
       401.10000  1.51951e-13      5.29093
       401.20000  1.51951e-13      5.30916
       401.30000  1.52083e-13      5.33050
       401.40000  1.52083e-13      5.34723
       401.50000  9.01918e-14      3.17926
       401.60000  9.01918e-14      3.18648
       401.70000  9.01918e-14      3.19279
       401.80000  9.01918e-14      3.19820
       401.90000  9.01918e-14      3.20271
       402.00000  9.01918e-14      3.20632
       402.10000  9.01918e-14      3.20902
       402.20000  9.01918e-14      3.21083
       402.30000  9.01918e-14      3.21173
       402.40000  9.01918e-14      3.21173
       402.50000  1.21002e-13      4.30766
       402.60000  1.21002e-13      4.28225
       402.70000  1.21002e-13      4.26047
       402.80000  1.21002e-13      4.23869
       402.90000  1.21002e-13      4.21933
       403.00000  1.21002e-13      4.20118
       403.10000  1.21002e-13      4.18424
       403.20000  1.21002e-13      4.16972
       403.30000  1.21002e-13      4.15641
       403.40000  1.21002e-13      4.14431
       403.50000  8.54889e-15     0.292030
       403.60000  8.54889e-15     0.291945
       403.70000  8.54889e-15     0.291859
       403.80000  8.55333e-15     0.291840
       403.90000  8.55333e-15     0.291754
       404.00000  8.55333e-15     0.291669
       404.10000  8.55333e-15     0.291583
       404.20000  8.55333e-15     0.291498
       404.30000  8.55333e-15     0.291327
       404.40000  8.55333e-15     0.291327
       404.50000  8.73348e-14      2.97375
       404.60000  8.73348e-14      2.97288
       404.70000  8.73348e-14      2.97200
       404.80000  8.73348e-14      2.97113
       404.90000  8.73348e-14      2.97113
       405.00000  8.73348e-14      2.97026
       405.10000  8.73348e-14      2.96938
       405.20000  8.73348e-14      2.96938
       405.30000  8.73348e-14      2.96851
       405.40000  8.73348e-14      2.96851
       405.50000  9.82275e-14      3.33875
       405.60000  9.82275e-14      3.31321
       405.70000  9.82275e-14      3.28964
       405.80000  9.82275e-14      3.26901
       405.90000  9.82275e-14      3.25133
       406.00000  9.82275e-14      3.23463
       406.10000  9.82275e-14      3.22088
       406.20000  9.82275e-14      3.21008
       406.30000  9.83481e-14      3.20516
       406.40000  9.83481e-14      3.19828
       406.50000  8.57270e-14      2.78441
       406.60000  8.57270e-14      2.78613
       406.70000  8.57270e-14      2.78956
       406.80000  8.57270e-14      2.79384
       406.90000  8.57270e-14      2.79984
       407.00000  8.57270e-14      2.80670
       407.10000  8.57270e-14      2.81527
       407.20000  8.57270e-14      2.82470
       407.30000  8.57270e-14      2.83499
       407.40000  8.57270e-14      2.84699
       407.50000  1.26675e-18  4.22587e-05
       407.60000  1.26675e-18  4.24614e-05
       407.70000  1.26675e-18  4.26894e-05
       407.80000  1.26675e-18  4.29301e-05
       407.90000  1.26675e-18  4.31961e-05
       408.00000  1.26675e-18  4.34748e-05
       408.10000  1.26675e-18  4.37788e-05
       408.20000  1.26675e-18  4.40828e-05
       408.30000  1.26675e-18  4.44248e-05
       408.40000  1.26675e-18  4.47669e-05
       408.50000  2.70317e-14     0.963140
       408.60000  2.70317e-14     0.966384
       408.70000  2.70317e-14     0.968817
       408.80000  2.70333e-14     0.970224
       408.90000  2.70333e-14     0.970764
       409.00000  2.70333e-14     0.970224
       409.10000  2.70333e-14     0.968872
       409.20000  2.70333e-14     0.966709
       409.30000  2.70333e-14     0.963736
       409.40000  2.70333e-14     0.959410
       409.50000  3.73511e-13      13.1887
       409.60000  3.73511e-13      12.8899
       409.70000  3.73511e-13      12.6247
       409.80000  3.73511e-13      12.3968
       409.90000  3.73511e-13      12.2026
       410.00000  3.73511e-13      12.0495
       410.10000  3.73511e-13      11.9299
       410.20000  3.73511e-13      11.8440
       410.30000  3.73511e-13      11.7992
       410.40000  3.73511e-13      11.7843
       410.50000  6.44277e-14      2.03720
       410.60000  6.44277e-14      2.04751
       410.70000  6.44277e-14      2.06426
       410.80000  6.44277e-14      2.08746
       410.90000  6.44277e-14      2.11645
       411.00000  6.44277e-14      2.15189
       411.10000  6.44277e-14      2.19312
       411.20000  6.44277e-14      2.24144
       411.30000  6.44070e-14      2.29482
       411.40000  6.44070e-14      2.35472
       411.50000  1.32057e-13      4.96404
       411.60000  1.32057e-13      4.95876
       411.70000  1.32057e-13      4.95216
       411.80000  1.32057e-13      4.94687
       411.90000  1.32057e-13      4.94027
       412.00000  1.32057e-13      4.93367
       412.10000  1.32057e-13      4.92706
       412.20000  1.32057e-13      4.92046
       412.30000  1.32057e-13      4.91386
       412.40000  1.32057e-13      4.90726
       412.50000  2.29846e-14     0.852728
       412.60000  2.29846e-14     0.851119
       412.70000  2.29846e-14     0.849510
       412.80000  2.29846e-14     0.847901
       412.90000  2.29846e-14     0.846522
       413.00000  2.29846e-14     0.845143
       413.10000  2.29846e-14     0.843764
       413.20000  2.29846e-14     0.842614
       413.30000  2.29846e-14     0.841235
       413.40000  2.29846e-14     0.840086
       413.50000  3.47492e-13      12.6869
       413.60000  3.47492e-13      12.6696
       413.70000  3.47492e-13      12.6557
       413.80000  3.47627e-13      12.6502
       413.90000  3.47627e-13      12.6363
       414.00000  3.47627e-13      12.6258
       414.10000  3.47627e-13      12.6154
       414.20000  3.47627e-13      12.6050
       414.30000  3.47627e-13      12.5980
       414.40000  3.47627e-13      12.5911
       414.50000  4.25357e-14      1.53979
       414.60000  4.25357e-14      1.53554
       414.70000  4.25357e-14      1.53213
       414.80000  4.25357e-14      1.52958
       414.90000  4.25357e-14      1.52831
       415.00000  4.25357e-14      1.52788
       415.10000  4.25357e-14      1.52873
       415.20000  4.25357e-14      1.53001
       415.30000  4.25357e-14      1.53256
       415.40000  4.25357e-14      1.53639
       415.50000  1.51076e-13      5.47195
       415.60000  1.51076e-13      5.54900
       415.70000  1.51076e-13      5.61548
       415.80000  1.51076e-13      5.67440
       415.90000  1.51076e-13      5.72274
       416.00000  1.51076e-13      5.76353
       416.10000  1.51076e-13      5.79375
       416.20000  1.51076e-13      5.81641
       416.30000  1.51040e-13      5.82713
       416.40000  1.51040e-13      5.83166
       416.50000  2.61856e-13      10.0998
       416.60000  2.61856e-13      9.95840
       416.70000  2.61856e-13      9.82485
       416.80000  2.61856e-13      9.70440
       416.90000  2.61856e-13      9.59180
       417.00000  2.61856e-13      9.49229
       417.10000  2.61856e-13      9.40326
       417.20000  2.61856e-13      9.32471
       417.30000  2.61856e-13      9.25662
       417.40000  2.61856e-13      9.19901
       417.50000  6.27718e-13      21.9388
       417.60000  6.27718e-13      21.9701
       417.70000  6.27718e-13      22.0015
       417.80000  6.27718e-13      22.0329
       417.90000  6.27718e-13      22.0643
       418.00000  6.27718e-13      22.0957
       418.10000  6.27718e-13      22.1271
       418.20000  6.27718e-13      22.1522
       418.30000  6.27718e-13      22.1836
       418.40000  6.27718e-13      22.2150
       418.50000  2.19822e-13      7.78830
       418.60000  2.19822e-13      7.79929
       418.70000  2.19822e-13      7.81028
       418.80000  2.21017e-13      7.86156
       418.90000  2.21017e-13      7.87261
       419.00000  2.21017e-13      7.88145
       419.10000  2.21017e-13      7.89250
       419.20000  2.21017e-13      7.90134
       419.30000  2.21017e-13      7.91018
       419.40000  2.21017e-13      7.92124
       419.50000  2.56503e-13      9.20331
       419.60000  2.56503e-13      9.23922
       419.70000  2.56503e-13      9.27513
       419.80000  2.56503e-13      9.30848
       419.90000  2.56503e-13      9.34439
       420.00000  2.56503e-13      9.37517
       420.10000  2.56503e-13      9.40851
       420.20000  2.56503e-13      9.43929
       420.30000  2.56503e-13      9.47007
       420.40000  2.56503e-13      9.50085
       420.50000  2.21801e-12      82.3990
       420.60000  2.21801e-12      83.1310
       420.70000  2.21801e-12      83.7742
       420.80000  2.21801e-12      84.2843
       420.90000  2.21801e-12      84.6614
       421.00000  2.21801e-12      84.9276
       421.10000  2.21801e-12      85.0828
       421.20000  2.21801e-12      85.1050
       421.30000  2.22950e-12      85.4568
       421.40000  2.22950e-12      85.2339
       421.50000  8.00277e-13      30.4745
       421.60000  8.00277e-13      30.3145
       421.70000  8.00277e-13      30.1064
       421.80000  8.00277e-13      29.8583
       421.90000  8.00277e-13      29.5622
       422.00000  8.00277e-13      29.2261
       422.10000  8.00277e-13      28.8500
       422.20000  8.00277e-13      28.4258
       422.30000  8.00277e-13      27.9537
       422.40000  8.00277e-13      27.4495
       422.50000  7.22919e-13      24.2973
       422.60000  7.22919e-13      24.5503
       422.70000  7.22919e-13      24.7961
       422.80000  7.22919e-13      25.0274
       422.90000  7.22919e-13      25.2443
       423.00000  7.22919e-13      25.4540
       423.10000  7.22919e-13      25.6564
       423.20000  7.22919e-13      25.8443
       423.30000  7.22919e-13      26.0178
       423.40000  7.22919e-13      26.1841
       423.50000  6.81093e-13      24.8122
       423.60000  6.81093e-13      24.9825
       423.70000  6.81093e-13      25.1391
       423.80000  6.85212e-13      25.4214
       423.90000  6.85212e-13      25.5379
       424.00000  6.85212e-13      25.6406
       424.10000  6.85212e-13      25.7160
       424.20000  6.85212e-13      25.7777
       424.30000  6.85212e-13      25.8188
       424.40000  6.85212e-13      25.8393
       424.50000  1.53553e-12      57.9049
       424.60000  1.53553e-12      57.8742
       424.70000  1.53553e-12      57.7974
       424.80000  1.53553e-12      57.6899
       424.90000  1.53553e-12      57.5210
       425.00000  1.53553e-12      57.3214
       425.10000  1.53553e-12      57.0757
       425.20000  1.53553e-12      56.7840
       425.30000  1.53553e-12      56.4615
       425.40000  1.53553e-12      56.0930
       425.50000  5.66181e-13      20.5297
       425.60000  5.66181e-13      20.6090
       425.70000  5.66181e-13      20.6769
       425.80000  5.66181e-13      20.7222
       425.90000  5.66181e-13      20.7562
       426.00000  5.66181e-13      20.7732
       426.10000  5.66181e-13      20.7732
       426.20000  5.66181e-13      20.7562
       426.30000  5.67904e-13      20.7910
       426.40000  5.67904e-13      20.7399
       426.50000  3.05888e-13      11.1374
       426.60000  3.05888e-13      11.0120
       426.70000  3.05888e-13      10.8957
       426.80000  3.05888e-13      10.7887
       426.90000  3.05888e-13      10.6938
       427.00000  3.05888e-13      10.6051
       427.10000  3.05888e-13      10.5287
       427.20000  3.05888e-13      10.4614
       427.30000  3.05888e-13      10.4033
       427.40000  3.05888e-13      10.3543
       427.50000  8.38828e-13      28.2853
       427.60000  8.38828e-13      28.2098
       427.70000  8.38828e-13      28.1511
       427.80000  8.38828e-13      28.1259
       427.90000  8.38828e-13      28.1259
       428.00000  8.38828e-13      28.1511
       428.10000  8.38828e-13      28.2098
       428.20000  8.38828e-13      28.2853
       428.30000  8.38828e-13      28.3943
       428.40000  8.38828e-13      28.5201
       428.50000  3.53606e-13      12.0898
       428.60000  3.53606e-13      12.0863
       428.70000  3.53606e-13      12.0651
       428.80000  3.54205e-13      12.0465
       428.90000  3.54205e-13      11.9898
       429.00000  3.54205e-13      11.9155
       429.10000  3.54205e-13      11.8234
       429.20000  3.54205e-13      11.7136
       429.30000  3.54205e-13      11.5896
       429.40000  3.54205e-13      11.4444
       429.50000  3.34096e-13      10.6410
       429.60000  3.34096e-13      10.1097
       429.70000  3.34096e-13      9.63867
       429.80000  3.34096e-13      9.23442
       429.90000  3.34096e-13      8.89364
       430.00000  3.34096e-13      8.61968
       430.10000  3.34096e-13      8.40920
       430.20000  3.34096e-13      8.26220
       430.30000  3.34096e-13      8.17867
       430.40000  3.34096e-13      8.16197
       430.50000  3.78374e-14     0.929664
       430.60000  3.78374e-14     0.942150
       430.70000  3.78374e-14     0.962204
       430.80000  3.78374e-14     0.989069
       430.90000  3.78374e-14      1.02388
       431.00000  3.78374e-14      1.06550
       431.10000  3.78374e-14      1.11469
       431.20000  3.78374e-14      1.17107
       431.30000  3.79150e-14      1.23717
       431.40000  3.79150e-14      1.30845
       431.50000  3.20285e-13      11.7160
       431.60000  3.20285e-13      11.6520
       431.70000  3.20285e-13      11.5943
       431.80000  3.20285e-13      11.5495
       431.90000  3.20285e-13      11.5111
       432.00000  3.20285e-13      11.4822
       432.10000  3.20285e-13      11.4598
       432.20000  3.20285e-13      11.4470
       432.30000  3.20285e-13      11.4438
       432.40000  3.20285e-13      11.4502
       432.50000  1.77133e-13      6.33958
       432.60000  1.77133e-13      6.39981
       432.70000  1.77133e-13      6.45295
       432.80000  1.77133e-13      6.50254
       432.90000  1.77133e-13      6.54505
       433.00000  1.77133e-13      6.58225
       433.10000  1.77133e-13      6.61414
       433.20000  1.77133e-13      6.63894
       433.30000  1.77133e-13      6.66019
       433.40000  1.77133e-13      6.67436
       433.50000  1.17734e-13      4.44212
       433.60000  1.17734e-13      4.44447
       433.70000  1.17734e-13      4.44212
       433.80000  1.17789e-13      4.43946
       433.90000  1.17789e-13      4.43004
       434.00000  1.17789e-13      4.41708
       434.10000  1.17789e-13      4.40059
       434.20000  1.17789e-13      4.38057
       434.30000  1.17789e-13      4.35701
       434.40000  1.17789e-13      4.32874
       434.50000  1.28482e-13      4.68703
       434.60000  1.28482e-13      4.68446
       434.70000  1.28482e-13      4.68446
       434.80000  1.28482e-13      4.68960
       434.90000  1.28482e-13      4.69988
       435.00000  1.28482e-13      4.71401
       435.10000  1.28482e-13      4.73200
       435.20000  1.28482e-13      4.75384
       435.30000  1.28482e-13      4.78083
       435.40000  1.28482e-13      4.81166
       435.50000  2.42408e-13      9.14606
       435.60000  2.42408e-13      9.33514
       435.70000  2.42408e-13      9.50967
       435.80000  2.42408e-13      9.66481
       435.90000  2.42408e-13      9.80299
       436.00000  2.42408e-13      9.92177
       436.10000  2.42408e-13      10.0260
       436.20000  2.42408e-13      10.1108
       436.30000  2.42340e-13      10.1759
       436.40000  2.42340e-13      10.2268
       436.50000  1.29774e-13      5.49334
       436.60000  1.29774e-13      5.50243
       436.70000  1.29774e-13      5.50113
       436.80000  1.29774e-13      5.49075
       436.90000  1.29774e-13      5.47128
       437.00000  1.29774e-13      5.44143
       437.10000  1.29774e-13      5.40380
       437.20000  1.29774e-13      5.35578
       437.30000  1.29774e-13      5.29868
       437.40000  1.29774e-13      5.23120
       437.50000  1.06142e-13      4.21701
       437.60000  1.06142e-13      4.10980
       437.70000  1.06142e-13      4.01322
       437.80000  1.06142e-13      3.92936
       437.90000  1.06142e-13      3.85719
       438.00000  1.06142e-13      3.79669
       438.10000  1.06142e-13      3.74680
       438.20000  1.06142e-13      3.70965
       438.30000  1.06142e-13      3.68418
       438.40000  1.06142e-13      3.66932
       438.50000  1.73442e-13      5.99244
       438.60000  1.73442e-13      6.15547
       438.70000  1.73442e-13      6.30637
       438.80000  1.73468e-13      6.44261
       438.90000  1.73468e-13      6.56403
       439.00000  1.73468e-13      6.67158
       439.10000  1.73468e-13      6.76526
       439.20000  1.73468e-13      6.84332
       439.30000  1.73468e-13      6.90924
       439.40000  1.73468e-13      6.95954
       439.50000  6.86865e-15     0.277013
       439.60000  6.86865e-15     0.273098
       439.70000  6.86865e-15     0.269732
       439.80000  6.86865e-15     0.266778
       439.90000  6.86865e-15     0.264374
       440.00000  6.86865e-15     0.262520
       440.10000  6.86865e-15     0.261146
       440.20000  6.86865e-15     0.260253
       440.30000  6.86865e-15     0.259841
       440.40000  6.86865e-15     0.259978
       440.50000  3.99353e-14      1.51515
       440.60000  3.99353e-14      1.54150
       440.70000  3.99353e-14      1.56626
       440.80000  3.99353e-14      1.58983
       440.90000  3.99353e-14      1.61179
       441.00000  3.99353e-14      1.63216
       441.10000  3.99353e-14      1.65093
       441.20000  3.99353e-14      1.66850
       441.30000  3.99112e-14      1.68346
       441.40000  3.99112e-14      1.69782
       441.50000  1.04978e-13      4.49934
       441.60000  1.04978e-13      4.52978
       441.70000  1.04978e-13      4.55603
       441.80000  1.04978e-13      4.57807
       441.90000  1.04978e-13      4.59697
       442.00000  1.04978e-13      4.61167
       442.10000  1.04978e-13      4.62216
       442.20000  1.04978e-13      4.62846
       442.30000  1.04978e-13      4.63056
       442.40000  1.04978e-13      4.62951
       442.50000  1.58273e-13      6.97191
       442.60000  1.58273e-13      6.92760
       442.70000  1.58273e-13      6.88645
       442.80000  1.58273e-13      6.85163
       442.90000  1.58273e-13      6.82155
       443.00000  1.58273e-13      6.79465
       443.10000  1.58273e-13      6.77407
       443.20000  1.58273e-13      6.75825
       443.30000  1.58273e-13      6.74558
       443.40000  1.58273e-13      6.73925
       443.50000  1.71145e-14     0.728562
       443.60000  1.71145e-14     0.734895
       443.70000  1.71145e-14     0.740371
       443.80000  1.71019e-14     0.744446
       443.90000  1.71019e-14     0.748379
       444.00000  1.71019e-14     0.751458
       444.10000  1.71019e-14     0.753510
       444.20000  1.71019e-14     0.754878
       444.30000  1.71019e-14     0.755562
       444.40000  1.71019e-14     0.755220
       444.50000  1.77130e-13      7.80966
       444.60000  1.77130e-13      7.79017
       444.70000  1.77130e-13      7.76183
       444.80000  1.77130e-13      7.72463
       444.90000  1.77130e-13      7.67858
       445.00000  1.77130e-13      7.62544
       445.10000  1.77130e-13      7.56167
       445.20000  1.77130e-13      7.49082
       445.30000  1.77130e-13      7.41111
       445.40000  1.77130e-13      7.32255
       445.50000  1.37011e-13      5.58867
       445.60000  1.37011e-13      5.59552
       445.70000  1.37011e-13      5.60511
       445.80000  1.37011e-13      5.61881
       445.90000  1.37011e-13      5.63662
       446.00000  1.37011e-13      5.65717
       446.10000  1.37011e-13      5.68184
       446.20000  1.37011e-13      5.71061
       446.30000  1.36852e-13      5.73545
       446.40000  1.36852e-13      5.77104
       446.50000  3.29914e-14      1.40049
       446.60000  3.29914e-14      1.42424
       446.70000  3.29914e-14      1.44601
       446.80000  3.29914e-14      1.46548
       446.90000  3.29914e-14      1.48296
       447.00000  3.29914e-14      1.49814
       447.10000  3.29914e-14      1.51101
       447.20000  3.29914e-14      1.52189
       447.30000  3.29914e-14      1.53080
       447.40000  3.29914e-14      1.53740
       447.50000  1.03386e-13      4.83123
       447.60000  1.03386e-13      4.83847
       447.70000  1.03386e-13      4.83950
       447.80000  1.03386e-13      4.83226
       447.90000  1.03386e-13      4.81986
       448.00000  1.03386e-13      4.80021
       448.10000  1.03386e-13      4.77333
       448.20000  1.03386e-13      4.74025
       448.30000  1.03386e-13      4.69993
       448.40000  1.03386e-13      4.65340
       448.50000  2.18729e-13      9.73124
       448.60000  2.18729e-13      9.74655
       448.70000  2.18729e-13      9.76405
       448.80000  2.18735e-13      9.78620
       448.90000  2.18735e-13      9.81026
       449.00000  2.18735e-13      9.83651
       449.10000  2.18735e-13      9.86713
       449.20000  2.18735e-13      9.89995
       449.30000  2.18735e-13      9.93713
       449.40000  2.18735e-13      9.97650
       449.50000  1.32773e-13      6.08234
       449.60000  1.32773e-13      6.13943
       449.70000  1.32773e-13      6.19254
       449.80000  1.32773e-13      6.24034
       449.90000  1.32773e-13      6.28282
       450.00000  1.32773e-13      6.32266
       450.10000  1.32773e-13      6.35585
       450.20000  1.32773e-13      6.38639
       450.30000  1.32773e-13      6.41161
       450.40000  1.32773e-13      6.43153
       450.50000  8.40915e-14      4.08348
       450.60000  8.40915e-14      4.08937
       450.70000  8.40915e-14      4.09273
       450.80000  8.40915e-14      4.09273
       450.90000  8.40915e-14      4.09105
       451.00000  8.40915e-14      4.08685
       451.10000  8.40915e-14      4.07928
       451.20000  8.40915e-14      4.07003
       451.30000  8.40346e-14      4.05551
       451.40000  8.40346e-14      4.04038
       451.50000  6.13917e-14      2.93943
       451.60000  6.13917e-14      2.90383
       451.70000  6.13917e-14      2.87129
       451.80000  6.13917e-14      2.84182
       451.90000  6.13917e-14      2.81481
       452.00000  6.13917e-14      2.79087
       452.10000  6.13917e-14      2.76938
       452.20000  6.13917e-14      2.75035
       452.30000  6.13917e-14      2.73500
       452.40000  6.13917e-14      2.72149
       452.50000  1.96454e-13      8.67542
       452.60000  1.96454e-13      8.64988
       452.70000  1.96454e-13      8.63416
       452.80000  1.96454e-13      8.62827
       452.90000  1.96454e-13      8.63023
       453.00000  1.96454e-13      8.64005
       453.10000  1.96454e-13      8.65970
       453.20000  1.96454e-13      8.68720
       453.30000  1.96454e-13      8.72453
       453.40000  1.96454e-13      8.76971
       453.50000  2.38850e-14      1.07292
       453.60000  2.38850e-14      1.07244
       453.70000  2.38850e-14      1.07244
       453.80000  2.38791e-14      1.07217
       453.90000  2.38791e-14      1.07241
       454.00000  2.38791e-14      1.07312
       454.10000  2.38791e-14      1.07408
       454.20000  2.38791e-14      1.07503
       454.30000  2.38791e-14      1.07647
       454.40000  2.38791e-14      1.07814
       454.50000  4.81260e-14      2.17626
       454.60000  4.81260e-14      2.18348
       454.70000  4.81260e-14      2.19070
       454.80000  4.81260e-14      2.19743
       454.90000  4.81260e-14      2.20417
       455.00000  4.81260e-14      2.21091
       455.10000  4.81260e-14      2.21716
       455.20000  4.81260e-14      2.22342
       455.30000  4.81260e-14      2.22968
       455.40000  4.81260e-14      2.23593
       455.50000  2.30294e-13      10.7271
       455.60000  2.30294e-13      10.7547
       455.70000  2.30294e-13      10.7824
       455.80000  2.30294e-13      10.8100
       455.90000  2.30294e-13      10.8353
       456.00000  2.30294e-13      10.8607
       456.10000  2.30294e-13      10.8860
       456.20000  2.30294e-13      10.9090
       456.30000  2.30288e-13      10.9341
       456.40000  2.30288e-13      10.9571
       456.50000  3.74717e-14      1.78628
       456.60000  3.74717e-14      1.79452
       456.70000  3.74717e-14      1.80164
       456.80000  3.74717e-14      1.80726
       456.90000  3.74717e-14      1.81176
       457.00000  3.74717e-14      1.81475
       457.10000  3.74717e-14      1.81625
       457.20000  3.74717e-14      1.81663
       457.30000  3.74717e-14      1.81588
       457.40000  3.74717e-14      1.81363
       457.50000  5.13334e-14      2.47992
       457.60000  5.13334e-14      2.45630
       457.70000  5.13334e-14      2.43423
       457.80000  5.13334e-14      2.41472
       457.90000  5.13334e-14      2.39727
       458.00000  5.13334e-14      2.38136
       458.10000  5.13334e-14      2.36750
       458.20000  5.13334e-14      2.35569
       458.30000  5.13334e-14      2.34594
       458.40000  5.13334e-14      2.33823
       458.50000  6.13938e-14      2.78973
       458.60000  6.13938e-14      2.78482
       458.70000  6.13938e-14      2.78237
       458.80000  6.14771e-14      2.78676
       458.90000  6.14771e-14      2.78922
       459.00000  6.14771e-14      2.79352
       459.10000  6.14771e-14      2.80090
       459.20000  6.14771e-14      2.81073
       459.30000  6.14771e-14      2.82241
       459.40000  6.14771e-14      2.83655
       459.50000  2.29239e-14      1.06390
       459.60000  2.29239e-14      1.06619
       459.70000  2.29239e-14      1.06848
       459.80000  2.29239e-14      1.07055
       459.90000  2.29239e-14      1.07261
       460.00000  2.29239e-14      1.07445
       460.10000  2.29239e-14      1.07628
       460.20000  2.29239e-14      1.07811
       460.30000  2.29239e-14      1.07972
       460.40000  2.29239e-14      1.08132
       460.50000  5.49636e-14      2.59593
       460.60000  5.49636e-14      2.59648
       460.70000  5.49636e-14      2.59758
       460.80000  5.49636e-14      2.59923
       460.90000  5.49636e-14      2.60088
       461.00000  5.49636e-14      2.60308
       461.10000  5.49636e-14      2.60582
       461.20000  5.49636e-14      2.60912
       461.30000  5.50411e-14      2.61610
       461.40000  5.50411e-14      2.61995
       461.50000  5.21016e-14      2.48421
       461.60000  5.21016e-14      2.49723
       461.70000  5.21016e-14      2.50817
       461.80000  5.21016e-14      2.51807
       461.90000  5.21016e-14      2.52693
       462.00000  5.21016e-14      2.53370
       462.10000  5.21016e-14      2.53943
       462.20000  5.21016e-14      2.54412
       462.30000  5.21016e-14      2.54725
       462.40000  5.21016e-14      2.54881
       462.50000  6.89198e-14      3.37225
       462.60000  6.89198e-14      3.36260
       462.70000  6.89198e-14      3.35295
       462.80000  6.89198e-14      3.34330
       462.90000  6.89198e-14      3.33365
       463.00000  6.89198e-14      3.32400
       463.10000  6.89198e-14      3.31504
       463.20000  6.89198e-14      3.30540
       463.30000  6.89198e-14      3.29575
       463.40000  6.89198e-14      3.28610
       463.50000  1.16120e-14     0.552036
       463.60000  1.16120e-14     0.550410
       463.70000  1.16120e-14     0.548785
       463.80000  1.16231e-14     0.547679
       463.90000  1.16231e-14     0.546168
       464.00000  1.16231e-14     0.544541
       464.10000  1.16231e-14     0.542914
       464.20000  1.16231e-14     0.541286
       464.30000  1.16231e-14     0.539659
       464.40000  1.16231e-14     0.538032
       464.50000  4.15664e-14      1.91829
       464.60000  4.15664e-14      1.93325
       464.70000  4.15664e-14      1.94655
       464.80000  4.15664e-14      1.95778
       464.90000  4.15664e-14      1.96734
       465.00000  4.15664e-14      1.97523
       465.10000  4.15664e-14      1.98105
       465.20000  4.15664e-14      1.98521
       465.30000  4.15664e-14      1.98729
       465.40000  4.15664e-14      1.98812
       465.50000  1.33309e-13      6.37084
       465.60000  1.33309e-13      6.30419
       465.70000  1.33309e-13      6.24420
       465.80000  1.33309e-13      6.19088
       465.90000  1.33309e-13      6.14422
       466.00000  1.33309e-13      6.10422
       466.10000  1.33309e-13      6.07223
       466.20000  1.33309e-13      6.04557
       466.30000  1.33243e-13      6.02257
       466.40000  1.33243e-13      6.00925
       466.50000  8.65956e-14      3.90200
       466.60000  8.65956e-14      3.90200
       466.70000  8.65956e-14      3.90633
       466.80000  8.65956e-14      3.91585
       466.90000  8.65956e-14      3.92884
       467.00000  8.65956e-14      3.94703
       467.10000  8.65956e-14      3.96954
       467.20000  8.65956e-14      3.99552
       467.30000  8.65956e-14      4.02669
       467.40000  8.65956e-14      4.06220
       467.50000  4.06164e-14      1.92359
       467.60000  4.06164e-14      1.92156
       467.70000  4.06164e-14      1.91912
       467.80000  4.06164e-14      1.91709
       467.90000  4.06164e-14      1.91547
       468.00000  4.06164e-14      1.91384
       468.10000  4.06164e-14      1.91222
       468.20000  4.06164e-14      1.91100
       468.30000  4.06164e-14      1.90978
       468.40000  4.06164e-14      1.90856
       468.50000  1.05635e-13      4.96166
       468.60000  1.05635e-13      4.97433
       468.70000  1.05635e-13      4.98384
       468.80000  1.05590e-13      4.98807
       468.90000  1.05590e-13      4.99230
       469.00000  1.05590e-13      4.99441
       469.10000  1.05590e-13      4.99230
       469.20000  1.05590e-13      4.98807
       469.30000  1.05590e-13      4.98174
       469.40000  1.05590e-13      4.97223
       469.50000  6.95400e-14      3.26699
       469.60000  6.95400e-14      3.25656
       469.70000  6.95400e-14      3.24543
       469.80000  6.95400e-14      3.23153
       469.90000  6.95400e-14      3.21692
       470.00000  6.95400e-14      3.19954
       470.10000  6.95400e-14      3.18076
       470.20000  6.95400e-14      3.16059
       470.30000  6.95400e-14      3.13765
       470.40000  6.95400e-14      3.11400
       470.50000  9.26002e-15     0.411145
       470.60000  9.26002e-15     0.415497
       470.70000  9.26002e-15     0.419572
       470.80000  9.26002e-15     0.423461
       470.90000  9.26002e-15     0.426980
       471.00000  9.26002e-15     0.430313
       471.10000  9.26002e-15     0.433369
       471.20000  9.26002e-15     0.436147
       471.30000  9.23270e-15     0.437445
       471.40000  9.23270e-15     0.439661
       471.50000  2.42401e-14      1.15965
       471.60000  2.42401e-14      1.16304
       471.70000  2.42401e-14      1.16619
       471.80000  2.42401e-14      1.16886
       471.90000  2.42401e-14      1.17104
       472.00000  2.42401e-14      1.17274
       472.10000  2.42401e-14      1.17419
       472.20000  2.42401e-14      1.17516
       472.30000  2.42401e-14      1.17565
       472.40000  2.42401e-14      1.17565
       472.50000  5.81621e-14      2.82028
       472.60000  5.81621e-14      2.81853
       472.70000  5.81621e-14      2.81563
       472.80000  5.81621e-14      2.81156
       472.90000  5.81621e-14      2.80690
       473.00000  5.81621e-14      2.80109
       473.10000  5.81621e-14      2.79411
       473.20000  5.81621e-14      2.78655
       473.30000  5.81621e-14      2.77782
       473.40000  5.81621e-14      2.76793
       473.50000  4.96649e-14      2.35412
       473.60000  4.96649e-14      2.36653
       473.70000  4.96649e-14      2.37845
       473.80000  4.96216e-14      2.38680
       473.90000  4.96216e-14      2.39573
       474.00000  4.96216e-14      2.40417
       474.10000  4.96216e-14      2.41112
       474.20000  4.96216e-14      2.41707
       474.30000  4.96216e-14      2.42203
       474.40000  4.96216e-14      2.42551
       474.50000  2.72633e-14      1.33399
       474.60000  2.72633e-14      1.33263
       474.70000  2.72633e-14      1.33127
       474.80000  2.72633e-14      1.32963
       474.90000  2.72633e-14      1.32799
       475.00000  2.72633e-14      1.32609
       475.10000  2.72633e-14      1.32390
       475.20000  2.72633e-14      1.32172
       475.30000  2.72633e-14      1.31927
       475.40000  2.72633e-14      1.31682
       475.50000  3.52967e-14      1.70130
       475.60000  3.52967e-14      1.69742
       475.70000  3.52967e-14      1.69354
       475.80000  3.52967e-14      1.68930
       475.90000  3.52967e-14      1.68507
       476.00000  3.52967e-14      1.68048
       476.10000  3.52967e-14      1.67554
       476.20000  3.52967e-14      1.67059
       476.30000  3.52480e-14      1.66300
       476.40000  3.52480e-14      1.65736
       476.50000  1.66955e-14     0.782351
       476.60000  1.66955e-14     0.790699
       476.70000  1.66955e-14     0.798212
       476.80000  1.66955e-14     0.804890
       476.90000  1.66955e-14     0.811067
       477.00000  1.66955e-14     0.816243
       477.10000  1.66955e-14     0.820918
       477.20000  1.66955e-14     0.824758
       477.30000  1.66955e-14     0.827763
       477.40000  1.66955e-14     0.830100
       477.50000  9.18054e-14      4.57375
       477.60000  9.18054e-14      4.54620
       477.70000  9.18054e-14      4.52234
       477.80000  9.18054e-14      4.50214
       477.90000  9.18054e-14      4.48378
       478.00000  9.18054e-14      4.46909
       478.10000  9.18054e-14      4.45624
       478.20000  9.18054e-14      4.44705
       478.30000  9.18054e-14      4.44063
       478.40000  9.18054e-14      4.43787
       478.50000  5.33686e-14      2.57930
       478.60000  5.33686e-14      2.58090
       478.70000  5.33686e-14      2.58411
       478.80000  5.34476e-14      2.59274
       478.90000  5.34476e-14      2.59969
       479.00000  5.34476e-14      2.60771
       479.10000  5.34476e-14      2.61786
       479.20000  5.34476e-14      2.62962
       479.30000  5.34476e-14      2.64298
       479.40000  5.34476e-14      2.65795
       479.50000  7.29012e-14      3.64870
       479.60000  7.29012e-14      3.63485
       479.70000  7.29012e-14      3.62246
       479.80000  7.29012e-14      3.61152
       479.90000  7.29012e-14      3.60278
       480.00000  7.29012e-14      3.59548
       480.10000  7.29012e-14      3.58965
       480.20000  7.29012e-14      3.58601
       480.30000  7.29012e-14      3.58382
       480.40000  7.29012e-14      3.58309
       480.50000  2.42715e-14      1.19319
       480.60000  2.42715e-14      1.19998
       480.70000  2.42715e-14      1.20605
       480.80000  2.42715e-14      1.21115
       480.90000  2.42715e-14      1.21576
       481.00000  2.42715e-14      1.21964
       481.10000  2.42715e-14      1.22280
       481.20000  2.42715e-14      1.22523
       481.30000  2.43456e-14      1.23067
       481.40000  2.43456e-14      1.23165
       481.50000  4.22518e-14      2.13794
       481.60000  4.22518e-14      2.13709
       481.70000  4.22518e-14      2.13498
       481.80000  4.22518e-14      2.13160
       481.90000  4.22518e-14      2.12695
       482.00000  4.22518e-14      2.12146
       482.10000  4.22518e-14      2.11428
       482.20000  4.22518e-14      2.10583
       482.30000  4.22518e-14      2.09653
       482.40000  4.22518e-14      2.08555
       482.50000  4.04825e-14      1.98688
       482.60000  4.04825e-14      1.98891
       482.70000  4.04825e-14      1.99053
       482.80000  4.04825e-14      1.99174
       482.90000  4.04825e-14      1.99214
       483.00000  4.04825e-14      1.99255
       483.10000  4.04825e-14      1.99214
       483.20000  4.04825e-14      1.99174
       483.30000  4.04825e-14      1.99053
       483.40000  4.04825e-14      1.98891
       483.50000  3.62772e-14      1.78049
       483.60000  3.62772e-14      1.78012
       483.70000  3.62772e-14      1.77867
       483.80000  3.63401e-14      1.77994
       483.90000  3.63401e-14      1.77703
       484.00000  3.63401e-14      1.77340
       484.10000  3.63401e-14      1.76867
       484.20000  3.63401e-14      1.76359
       484.30000  3.63401e-14      1.75741
       484.40000  3.63401e-14      1.75050
       484.50000  2.48394e-14      1.19130
       484.60000  2.48394e-14      1.18509
       484.70000  2.48394e-14      1.17838
       484.80000  2.48394e-14      1.17118
       484.90000  2.48394e-14      1.16348
       485.00000  2.48394e-14      1.15553
       485.10000  2.48394e-14      1.14708
       485.20000  2.48394e-14      1.13839
       485.30000  2.48394e-14      1.12920
       485.40000  2.48394e-14      1.11951
       485.50000  4.72693e-15     0.211152
       485.60000  4.72693e-15     0.206708
       485.70000  4.72693e-15     0.202691
       485.80000  4.72693e-15     0.199193
       485.90000  4.72693e-15     0.196167
       486.00000  4.72693e-15     0.193615
       486.10000  4.72693e-15     0.191488
       486.20000  4.72693e-15     0.189881
       486.30000  4.72589e-15     0.188705
       486.40000  4.72589e-15     0.188043
       486.50000  1.07163e-14     0.425972
       486.60000  1.07163e-14     0.426615
       486.70000  1.07163e-14     0.428330
       486.80000  1.07163e-14     0.431116
       486.90000  1.07163e-14     0.434974
       487.00000  1.07163e-14     0.439903
       487.10000  1.07163e-14     0.445904
       487.20000  1.07163e-14     0.452977
       487.30000  1.07163e-14     0.461121
       487.40000  1.07163e-14     0.470337
       487.50000  6.14308e-14      2.75578
       487.60000  6.14308e-14      2.77114
       487.70000  6.14308e-14      2.78650
       487.80000  6.14308e-14      2.80124
       487.90000  6.14308e-14      2.81537
       488.00000  6.14308e-14      2.82889
       488.10000  6.14308e-14      2.84179
       488.20000  6.14308e-14      2.85407
       488.30000  6.14308e-14      2.86575
       488.40000  6.14308e-14      2.87742
       488.50000  9.68768e-14      4.55418
       488.60000  9.68768e-14      4.56581
       488.70000  9.68768e-14      4.57743
       488.80000  9.68103e-14      4.58687
       488.90000  9.68103e-14      4.59849
       489.00000  9.68103e-14      4.61011
       489.10000  9.68103e-14      4.62173
       489.20000  9.68103e-14      4.63431
       489.30000  9.68103e-14      4.64593
       489.40000  9.68103e-14      4.65755
       489.50000  2.46620e-14      1.18970
       489.60000  2.46620e-14      1.19266
       489.70000  2.46620e-14      1.19586
       489.80000  2.46620e-14      1.19882
       489.90000  2.46620e-14      1.20203
       490.00000  2.46620e-14      1.20499
       490.10000  2.46620e-14      1.20819
       490.20000  2.46620e-14      1.21140
       490.30000  2.46620e-14      1.21436
       490.40000  2.46620e-14      1.21756
       490.50000  1.83727e-13      9.09449
       490.60000  1.83727e-13      9.02284
       490.70000  1.83727e-13      8.95670
       490.80000  1.83727e-13      8.89607
       490.90000  1.83727e-13      8.83911
       491.00000  1.83727e-13      8.78767
       491.10000  1.83727e-13      8.74173
       491.20000  1.83727e-13      8.70131
       491.30000  1.83852e-13      8.67047
       491.40000  1.83852e-13      8.63921
       491.50000  3.75590e-15     0.175964
       491.60000  3.75590e-15     0.176039
       491.70000  3.75590e-15     0.176114
       491.80000  3.75590e-15     0.176152
       491.90000  3.75590e-15     0.176227
       492.00000  3.75590e-15     0.176264
       492.10000  3.75590e-15     0.176302
       492.20000  3.75590e-15     0.176302
       492.30000  3.75590e-15     0.176339
       492.40000  3.75590e-15     0.176339
       492.50000  9.07262e-14      4.25959
       492.60000  9.07262e-14      4.25959
       492.70000  9.07262e-14      4.25959
       492.80000  9.07262e-14      4.25869
       492.90000  9.07262e-14      4.25778
       493.00000  9.07262e-14      4.25687
       493.10000  9.07262e-14      4.25596
       493.20000  9.07262e-14      4.25506
       493.30000  9.07262e-14      4.25324
       493.40000  9.07262e-14      4.25234
       493.50000  4.48292e-14      2.10025
       493.60000  4.48292e-14      2.13477
       493.70000  4.48292e-14      2.16570
       493.80000  4.48987e-14      2.19689
       493.90000  4.48987e-14      2.22159
       494.00000  4.48987e-14      2.24269
       494.10000  4.48987e-14      2.26020
       494.20000  4.48987e-14      2.27457
       494.30000  4.48987e-14      2.28534
       494.40000  4.48987e-14      2.29298
       494.50000  5.13551e-14      2.62784
       494.60000  5.13551e-14      2.59857
       494.70000  5.13551e-14      2.57238
       494.80000  5.13551e-14      2.54875
       494.90000  5.13551e-14      2.52821
       495.00000  5.13551e-14      2.51024
       495.10000  5.13551e-14      2.49534
       495.20000  5.13551e-14      2.48353
       495.30000  5.13551e-14      2.47429
       495.40000  5.13551e-14      2.46761
       495.50000  4.97013e-14      2.38467
       495.60000  4.97013e-14      2.40157
       495.70000  4.97013e-14      2.41747
       495.80000  4.97013e-14      2.43188
       495.90000  4.97013e-14      2.44530
       496.00000  4.97013e-14      2.45773
       496.10000  4.97013e-14      2.46866
       496.20000  4.97013e-14      2.47910
       496.30000  4.97328e-14      2.48962
       496.40000  4.97328e-14      2.49758
       496.50000  8.87580e-16    0.0446896
       496.60000  8.87580e-16    0.0448583
       496.70000  8.87580e-16    0.0449825
       496.80000  8.87580e-16    0.0450802
       496.90000  8.87580e-16    0.0451423
       497.00000  8.87580e-16    0.0451689
       497.10000  8.87580e-16    0.0451689
       497.20000  8.87580e-16    0.0451245
       497.30000  8.87580e-16    0.0450535
       497.40000  8.87580e-16    0.0449470
       497.50000  7.81205e-14      3.94352
       497.60000  7.81205e-14      3.92790
       497.70000  7.81205e-14      3.90915
       497.80000  7.81205e-14      3.88806
       497.90000  7.81205e-14      3.86306
       498.00000  7.81205e-14      3.83572
       498.10000  7.81205e-14      3.80525
       498.20000  7.81205e-14      3.77244
       498.30000  7.81205e-14      3.73572
       498.40000  7.81205e-14      3.69588
       498.50000  1.92677e-14     0.901149
       498.60000  1.92677e-14     0.911168
       498.70000  1.92677e-14     0.920031
       498.80000  1.92816e-14     0.928411
       498.90000  1.92816e-14     0.935353
       499.00000  1.92816e-14     0.940944
       499.10000  1.92816e-14     0.945765
       499.20000  1.92816e-14     0.949428
       499.30000  1.92816e-14     0.951935
       499.40000  1.92816e-14     0.953478
       499.50000  2.00967e-14     0.994184
       499.60000  2.00967e-14     0.987150
       499.70000  2.00967e-14     0.980518
       499.80000  2.00967e-14     0.974087
       499.90000  2.00967e-14     0.968058
       500.00000  2.00967e-14     0.962431
       500.10000  2.00967e-14     0.957005
       500.20000  2.00967e-14     0.952182
       500.30000  2.00967e-14     0.947359
       500.40000  2.00967e-14     0.943138
       500.50000  5.94922e-14      2.78007
       500.60000  5.94922e-14      2.76936
       500.70000  5.94922e-14      2.75984
       500.80000  5.94922e-14      2.75092
       500.90000  5.94922e-14      2.74319
       501.00000  5.94922e-14      2.73664
       501.10000  5.94922e-14      2.73069
       501.20000  5.94922e-14      2.72593
       501.30000  5.95951e-14      2.72707
       501.40000  5.95951e-14      2.72469
       501.50000  8.72207e-14      3.98511
       501.60000  8.72207e-14      4.00779
       501.70000  8.72207e-14      4.03047
       501.80000  8.72207e-14      4.05140
       501.90000  8.72207e-14      4.07146
       502.00000  8.72207e-14      4.09065
       502.10000  8.72207e-14      4.10897
       502.20000  8.72207e-14      4.12641
       502.30000  8.72207e-14      4.14298
       502.40000  8.72207e-14      4.15868
       502.50000  2.30594e-14      1.10339
       502.60000  2.30594e-14      1.10869
       502.70000  2.30594e-14      1.11354
       502.80000  2.30594e-14      1.11746
       502.90000  2.30594e-14      1.12092
       503.00000  2.30594e-14      1.12391
       503.10000  2.30594e-14      1.12622
       503.20000  2.30594e-14      1.12783
       503.30000  2.30594e-14      1.12876
       503.40000  2.30594e-14      1.12922
       503.50000  4.09121e-14      2.00305
       503.60000  4.09121e-14      2.00142
       503.70000  4.09121e-14      1.99896
       503.80000  4.09679e-14      1.99801
       503.90000  4.09679e-14      1.99350
       504.00000  4.09679e-14      1.98776
       504.10000  4.09679e-14      1.98080
       504.20000  4.09679e-14      1.97261
       504.30000  4.09679e-14      1.96359
       504.40000  4.09679e-14      1.95335
       504.50000  7.88145e-14      3.73660
       504.60000  7.88145e-14      3.77600
       504.70000  7.88145e-14      3.81226
       504.80000  7.88145e-14      3.84615
       504.90000  7.88145e-14      3.87610
       505.00000  7.88145e-14      3.90368
       505.10000  7.88145e-14      3.92733
       505.20000  7.88145e-14      3.94861
       505.30000  7.88145e-14      3.96595
       505.40000  7.88145e-14      3.98092
       505.50000  3.63119e-14      1.83920
       505.60000  3.63119e-14      1.83775
       505.70000  3.63119e-14      1.83593
       505.80000  3.63119e-14      1.83375
       505.90000  3.63119e-14      1.83157
       506.00000  3.63119e-14      1.82903
       506.10000  3.63119e-14      1.82649
       506.20000  3.63119e-14      1.82358
       506.30000  3.63633e-14      1.82289
       506.40000  3.63633e-14      1.81962
       506.50000  2.08720e-13      10.4235
       506.60000  2.08720e-13      10.3797
       506.70000  2.08720e-13      10.3400
       506.80000  2.08720e-13      10.3045
       506.90000  2.08720e-13      10.2711
       507.00000  2.08720e-13      10.2419
       507.10000  2.08720e-13      10.2169
       507.20000  2.08720e-13      10.1939
       507.30000  2.08720e-13      10.1772
       507.40000  2.08720e-13      10.1626
       507.50000  4.14968e-14      2.01799
       507.60000  4.14968e-14      2.02089
       507.70000  4.14968e-14      2.02297
       507.80000  4.14968e-14      2.02546
       507.90000  4.14968e-14      2.02753
       508.00000  4.14968e-14      2.02919
       508.10000  4.14968e-14      2.03085
       508.20000  4.14968e-14      2.03251
       508.30000  4.14968e-14      2.03376
       508.40000  4.14968e-14      2.03500
       508.50000  6.63601e-14      3.25563
       508.60000  6.63601e-14      3.25695
       508.70000  6.63601e-14      3.25828
       508.80000  6.63935e-14      3.26058
       508.90000  6.63935e-14      3.26125
       509.00000  6.63935e-14      3.26125
       509.10000  6.63935e-14      3.26125
       509.20000  6.63935e-14      3.26125
       509.30000  6.63935e-14      3.26058
       509.40000  6.63935e-14      3.25992
       509.50000  3.38554e-14      1.66162
       509.60000  3.38554e-14      1.66399
       509.70000  3.38554e-14      1.66636
       509.80000  3.38554e-14      1.66907
       509.90000  3.38554e-14      1.67178
       510.00000  3.38554e-14      1.67483
       510.10000  3.38554e-14      1.67787
       510.20000  3.38554e-14      1.68092
       510.30000  3.38554e-14      1.68464
       510.40000  3.38554e-14      1.68803
       510.50000  4.79224e-14      2.39468
       510.60000  4.79224e-14      2.41145
       510.70000  4.79224e-14      2.42583
       510.80000  4.79224e-14      2.43829
       510.90000  4.79224e-14      2.44788
       511.00000  4.79224e-14      2.45602
       511.10000  4.79224e-14      2.46129
       511.20000  4.79224e-14      2.46465
       511.30000  4.79370e-14      2.46636
       511.40000  4.79370e-14      2.46540
       511.50000  3.56745e-14      1.83224
       511.60000  3.56745e-14      1.82796
       511.70000  3.56745e-14      1.82225
       511.80000  3.56745e-14      1.81476
       511.90000  3.56745e-14      1.80549
       512.00000  3.56745e-14      1.79478
       512.10000  3.56745e-14      1.78230
       512.20000  3.56745e-14      1.76838
       512.30000  3.56745e-14      1.75269
       512.40000  3.56745e-14      1.73521
       512.50000  1.87606e-15    0.0902571
       512.60000  1.87606e-15    0.0902008
       512.70000  1.87606e-15    0.0901633
       512.80000  1.87606e-15    0.0901258
       512.90000  1.87606e-15    0.0901070
       513.00000  1.87606e-15    0.0900883
       513.10000  1.87606e-15    0.0900695
       513.20000  1.87606e-15    0.0900695
       513.30000  1.87606e-15    0.0900883
       513.40000  1.87606e-15    0.0901070
       513.50000  1.19278e-13      5.73129
       513.60000  1.19278e-13      5.73487
       513.70000  1.19278e-13      5.73844
       513.80000  1.19159e-13      5.73631
       513.90000  1.19159e-13      5.74107
       514.00000  1.19159e-13      5.74584
       514.10000  1.19159e-13      5.75180
       514.20000  1.19159e-13      5.75656
       514.30000  1.19159e-13      5.76252
       514.40000  1.19159e-13      5.76967
       514.50000  3.75874e-14      1.82224
       514.60000  3.75874e-14      1.82449
       514.70000  3.75874e-14      1.82675
       514.80000  3.75874e-14      1.82938
       514.90000  3.75874e-14      1.83201
       515.00000  3.75874e-14      1.83502
       515.10000  3.75874e-14      1.83803
       515.20000  3.75874e-14      1.84103
       515.30000  3.75874e-14      1.84442
       515.40000  3.75874e-14      1.84742
       515.50000  6.72822e-14      3.31365
       515.60000  6.72822e-14      3.25108
       515.70000  6.72822e-14      3.19389
       515.80000  6.72822e-14      3.14141
       515.90000  6.72822e-14      3.09431
       516.00000  6.72822e-14      3.05192
       516.10000  6.72822e-14      3.01492
       516.20000  6.72822e-14      2.98262
       516.30000  6.72750e-14      2.95539
       516.40000  6.72750e-14      2.93319
       516.50000  4.90414e-14      2.12546
       516.60000  4.90414e-14      2.14066
       516.70000  4.90414e-14      2.15390
       516.80000  4.90414e-14      2.16567
       516.90000  4.90414e-14      2.17597
       517.00000  4.90414e-14      2.18480
       517.10000  4.90414e-14      2.19166
       517.20000  4.90414e-14      2.19657
       517.30000  4.90414e-14      2.20000
       517.40000  4.90414e-14      2.20196
       517.50000  1.37488e-13      6.17460
       517.60000  1.37488e-13      6.17048
       517.70000  1.37488e-13      6.16223
       517.80000  1.37488e-13      6.14848
       517.90000  1.37488e-13      6.13198
       518.00000  1.37488e-13      6.10861
       518.10000  1.37488e-13      6.08249
       518.20000  1.37488e-13      6.05087
       518.30000  1.37488e-13      6.01512
       518.40000  1.37488e-13      5.97387
       518.50000  3.71061e-14      1.60001
       518.60000  3.71061e-14      1.62450
       518.70000  3.71061e-14      1.64751
       518.80000  3.69922e-14      1.66391
       518.90000  3.69922e-14      1.68352
       519.00000  3.69922e-14      1.70127
       519.10000  3.69922e-14      1.71755
       519.20000  3.69922e-14      1.73235
       519.30000  3.69922e-14      1.74529
       519.40000  3.69922e-14      1.75639
       519.50000  4.53477e-19  2.16535e-05
       519.60000  4.53477e-19  2.16218e-05
       519.70000  4.53477e-19  2.15991e-05
       519.80000  4.53477e-19  2.15855e-05
       519.90000  4.53477e-19  2.15810e-05
       520.00000  4.53477e-19  2.15855e-05
       520.10000  4.53477e-19  2.15946e-05
       520.20000  4.53477e-19  2.16172e-05
       520.30000  4.53477e-19  2.16445e-05
       520.40000  4.53477e-19  2.16853e-05
       520.50000  1.18519e-13      5.67945
       520.60000  1.18519e-13      5.69367
       520.70000  1.18519e-13      5.71027
       520.80000  1.18519e-13      5.72923
       520.90000  1.18519e-13      5.74938
       521.00000  1.18519e-13      5.77308
       521.10000  1.18519e-13      5.79916
       521.20000  1.18519e-13      5.82642
       521.30000  1.18428e-13      5.85154
       521.40000  1.18428e-13      5.88470
       521.50000  1.40396e-13      7.01698
       521.60000  1.40396e-13      6.96222
       521.70000  1.40396e-13      6.91308
       521.80000  1.40396e-13      6.86956
       521.90000  1.40396e-13      6.83166
       522.00000  1.40396e-13      6.79936
       522.10000  1.40396e-13      6.77269
       522.20000  1.40396e-13      6.75163
       522.30000  1.40396e-13      6.73759
       522.40000  1.40396e-13      6.72776
       522.50000  3.38044e-14      1.61889
       522.60000  3.38044e-14      1.62599
       522.70000  3.38044e-14      1.63275
       522.80000  3.38044e-14      1.63951
       522.90000  3.38044e-14      1.64627
       523.00000  3.38044e-14      1.65270
       523.10000  3.38044e-14      1.65946
       523.20000  3.38044e-14      1.66588
       523.30000  3.38044e-14      1.67230
       523.40000  3.38044e-14      1.67872
       523.50000  1.24609e-13      6.21174
       523.60000  1.24609e-13      6.23542
       523.70000  1.24609e-13      6.25785
       523.80000  1.24478e-13      6.27491
       523.90000  1.24478e-13      6.29732
       524.00000  1.24478e-13      6.31972
       524.10000  1.24478e-13      6.34088
       524.20000  1.24478e-13      6.36329
       524.30000  1.24478e-13      6.38445
       524.40000  1.24478e-13      6.40561
       524.50000  1.25176e-14     0.646285
       524.60000  1.25176e-14     0.648914
       524.70000  1.25176e-14     0.650791
       524.80000  1.25176e-14     0.651918
       524.90000  1.25176e-14     0.652168
       525.00000  1.25176e-14     0.651793
       525.10000  1.25176e-14     0.650666
       525.20000  1.25176e-14     0.648663
       525.30000  1.25176e-14     0.646035
       525.40000  1.25176e-14     0.642530
       525.50000  5.90781e-15     0.301239
       525.60000  5.90781e-15     0.294445
       525.70000  5.90781e-15     0.288242
       525.80000  5.90781e-15     0.282689
       525.90000  5.90781e-15     0.277785
       526.00000  5.90781e-15     0.273532
       526.10000  5.90781e-15     0.269869
       526.20000  5.90781e-15     0.266915
       526.30000  5.91046e-15     0.264670
       526.40000  5.91046e-15     0.262956
       526.50000  9.72448e-14      4.30892
       526.60000  9.72448e-14      4.30211
       526.70000  9.72448e-14      4.30600
       526.80000  9.72448e-14      4.32059
       526.90000  9.72448e-14      4.34490
       527.00000  9.72448e-14      4.37991
       527.10000  9.72448e-14      4.42561
       527.20000  9.72448e-14      4.48201
       527.30000  9.72448e-14      4.54911
       527.40000  9.72448e-14      4.62691
       527.50000  2.62579e-15     0.127298
       527.60000  2.62579e-15     0.127955
       527.70000  2.62579e-15     0.128585
       527.80000  2.62579e-15     0.129163
       527.90000  2.62579e-15     0.129740
       528.00000  2.62579e-15     0.130239
       528.10000  2.62579e-15     0.130738
       528.20000  2.62579e-15     0.131184
       528.30000  2.62579e-15     0.131605
       528.40000  2.62579e-15     0.131998
       528.50000  4.09993e-15     0.206678
       528.60000  4.09993e-15     0.206883
       528.70000  4.09993e-15     0.207088
       528.80000  4.10641e-15     0.207661
       528.90000  4.10641e-15     0.207908
       529.00000  4.10641e-15     0.208154
       529.10000  4.10641e-15     0.208441
       529.20000  4.10641e-15     0.208729
       529.30000  4.10641e-15     0.209016
       529.40000  4.10641e-15     0.209345
       529.50000  1.05408e-13      5.38212
       529.60000  1.05408e-13      5.39582
       529.70000  1.05408e-13      5.40847
       529.80000  1.05408e-13      5.42112
       529.90000  1.05408e-13      5.43272
       530.00000  1.05408e-13      5.44326
       530.10000  1.05408e-13      5.45380
       530.20000  1.05408e-13      5.46329
       530.30000  1.05408e-13      5.47172
       530.40000  1.05408e-13      5.48015
       530.50000  5.75891e-14      2.99866
       530.60000  5.75891e-14      3.01479
       530.70000  5.75891e-14      3.02803
       530.80000  5.75891e-14      3.03840
       530.90000  5.75891e-14      3.04531
       531.00000  5.75891e-14      3.04876
       531.10000  5.75891e-14      3.04992
       531.20000  5.75891e-14      3.04704
       531.30000  5.76032e-14      3.04260
       531.40000  5.76032e-14      3.03338
       531.50000  1.22896e-14     0.644710
       531.60000  1.22896e-14     0.641515
       531.70000  1.22896e-14     0.637582
       531.80000  1.22896e-14     0.633035
       531.90000  1.22896e-14     0.627873
       532.00000  1.22896e-14     0.621974
       532.10000  1.22896e-14     0.615338
       532.20000  1.22896e-14     0.608087
       532.30000  1.22896e-14     0.600222
       532.40000  1.22896e-14     0.591619
       532.50000  4.18597e-14      1.98373
       532.60000  4.18597e-14      2.01219
       532.70000  4.18597e-14      2.03857
       532.80000  4.18597e-14      2.06201
       532.90000  4.18597e-14      2.08336
       533.00000  4.18597e-14      2.10219
       533.10000  4.18597e-14      2.11852
       533.20000  4.18597e-14      2.13233
       533.30000  4.18597e-14      2.14363
       533.40000  4.18597e-14      2.15284
       533.50000  1.00572e-13      5.18750
       533.60000  1.00572e-13      5.14727
       533.70000  1.00572e-13      5.11207
       533.80000  1.00545e-13      5.08053
       533.90000  1.00545e-13      5.05640
       534.00000  1.00545e-13      5.03629
       534.10000  1.00545e-13      5.02322
       534.20000  1.00545e-13      5.01417
       534.30000  1.00545e-13      5.01116
       534.40000  1.00545e-13      5.01317
       534.50000  1.59855e-14     0.798156
       534.60000  1.59855e-14     0.800234
       534.70000  1.59855e-14     0.803111
       534.80000  1.59855e-14     0.806788
       534.90000  1.59855e-14     0.811424
       535.00000  1.59855e-14     0.816699
       535.10000  1.59855e-14     0.823093
       535.20000  1.59855e-14     0.830127
       535.30000  1.59855e-14     0.838119
       535.40000  1.59855e-14     0.846911
       535.50000  1.46708e-14     0.786061
       535.60000  1.46708e-14     0.779166
       535.70000  1.46708e-14     0.772858
       535.80000  1.46708e-14     0.766989
       535.90000  1.46708e-14     0.761708
       536.00000  1.46708e-14     0.756866
       536.10000  1.46708e-14     0.752465
       536.20000  1.46708e-14     0.748797
       536.30000  1.46750e-14     0.745636
       536.40000  1.46750e-14     0.742848
       536.50000  1.04174e-13      5.25764
       536.60000  1.04174e-13      5.26077
       536.70000  1.04174e-13      5.26285
       536.80000  1.04174e-13      5.26702
       536.90000  1.04174e-13      5.27014
       537.00000  1.04174e-13      5.27431
       537.10000  1.04174e-13      5.27848
       537.20000  1.04174e-13      5.28264
       537.30000  1.04174e-13      5.28785
       537.40000  1.04174e-13      5.29306
       537.50000  5.91286e-14      3.00728
       537.60000  5.91286e-14      3.01083
       537.70000  5.91286e-14      3.01438
       537.80000  5.91286e-14      3.01793
       537.90000  5.91286e-14      3.02147
       538.00000  5.91286e-14      3.02561
       538.10000  5.91286e-14      3.02975
       538.20000  5.91286e-14      3.03389
       538.30000  5.91286e-14      3.03862
       538.40000  5.91286e-14      3.04335
       538.50000  9.49516e-14      4.89476
       538.60000  9.49516e-14      4.87577
       538.70000  9.49516e-14      4.85773
       538.80000  9.48862e-14      4.83635
       538.90000  9.48862e-14      4.81832
       539.00000  9.48862e-14      4.80029
       539.10000  9.48862e-14      4.78321
       539.20000  9.48862e-14      4.76613
       539.30000  9.48862e-14      4.74905
       539.40000  9.48862e-14      4.73197
       539.50000  5.06906e-13      25.1881
       539.60000  5.06906e-13      25.0006
       539.70000  5.06906e-13      24.8333
       539.80000  5.06906e-13      24.6914
       539.90000  5.06906e-13      24.5748
       540.00000  5.06906e-13      24.4785
       540.10000  5.06906e-13      24.4075
       540.20000  5.06906e-13      24.3619
       540.30000  5.06906e-13      24.3416
       540.40000  5.06906e-13      24.3416
       540.50000  2.90889e-13      13.9830
       540.60000  2.90889e-13      14.1343
       540.70000  2.90889e-13      14.2739
       540.80000  2.90889e-13      14.3990
       540.90000  2.90889e-13      14.5095
       541.00000  2.90889e-13      14.6055
       541.10000  2.90889e-13      14.6928
       541.20000  2.90889e-13      14.7626
       541.30000  2.90882e-13      14.8204
       541.40000  2.90882e-13      14.8641
       541.50000  1.86835e-13      9.56784
       541.60000  1.86835e-13      9.51552
       541.70000  1.86835e-13      9.47068
       541.80000  1.86835e-13      9.42958
       541.90000  1.86835e-13      9.39408
       542.00000  1.86835e-13      9.36419
       542.10000  1.86835e-13      9.33990
       542.20000  1.86835e-13      9.32121
       542.30000  1.86835e-13      9.31000
       542.40000  1.86835e-13      9.30253
       542.50000  9.91246e-14      4.93442
       542.60000  9.91246e-14      4.93640
       542.70000  9.91246e-14      4.94136
       542.80000  9.91246e-14      4.94929
       542.90000  9.91246e-14      4.96119
       543.00000  9.91246e-14      4.97506
       543.10000  9.91246e-14      4.99191
       543.20000  9.91246e-14      5.01174
       543.30000  9.91246e-14      5.03454
       543.40000  9.91246e-14      5.06130
       543.50000  4.36579e-13      22.4183
       543.60000  4.36579e-13      22.4096
       543.70000  4.36579e-13      22.4052
       543.80000  4.36695e-13      22.4068
       543.90000  4.36695e-13      22.4068
       544.00000  4.36695e-13      22.4112
       544.10000  4.36695e-13      22.4156
       544.20000  4.36695e-13      22.4243
       544.30000  4.36695e-13      22.4330
       544.40000  4.36695e-13      22.4461
       544.50000  4.83447e-14      2.48685
       544.60000  4.83447e-14      2.49314
       544.70000  4.83447e-14      2.49846
       544.80000  4.83447e-14      2.50329
       544.90000  4.83447e-14      2.50764
       545.00000  4.83447e-14      2.51102
       545.10000  4.83447e-14      2.51393
       545.20000  4.83447e-14      2.51683
       545.30000  4.83447e-14      2.51876
       545.40000  4.83447e-14      2.51973
       545.50000  7.89869e-19  4.11838e-05
       545.60000  7.89869e-19  4.11838e-05
       545.70000  7.89869e-19  4.11759e-05
       545.80000  7.89869e-19  4.11601e-05
       545.90000  7.89869e-19  4.11364e-05
       546.00000  7.89869e-19  4.11048e-05
       546.10000  7.89869e-19  4.10574e-05
       546.20000  7.89869e-19  4.10021e-05
       546.30000  7.88918e-19  4.08896e-05
       546.40000  7.88918e-19  4.08186e-05
       546.50000  2.58793e-14      1.33615
       546.60000  2.58793e-14      1.33071
       546.70000  2.58793e-14      1.32580
       546.80000  2.58793e-14      1.32140
       546.90000  2.58793e-14      1.31752
       547.00000  2.58793e-14      1.31415
       547.10000  2.58793e-14      1.31156
       547.20000  2.58793e-14      1.30923
       547.30000  2.58793e-14      1.30768
       547.40000  2.58793e-14      1.30639
       547.50000  9.88470e-14      4.98782
       547.60000  9.88470e-14      4.99672
       547.70000  9.88470e-14      5.00561
       547.80000  9.88470e-14      5.01451
       547.90000  9.88470e-14      5.02341
       548.00000  9.88470e-14      5.03230
       548.10000  9.88470e-14      5.04120
       548.20000  9.88470e-14      5.05108
       548.30000  9.88470e-14      5.05998
       548.40000  9.88470e-14      5.06888
       548.50000  7.83641e-14      4.02635
       548.60000  7.83641e-14      4.03340
       548.70000  7.83641e-14      4.04124
       548.80000  7.82304e-14      4.04217
       548.90000  7.82304e-14      4.04921
       549.00000  7.82304e-14      4.05703
       549.10000  7.82304e-14      4.06485
       549.20000  7.82304e-14      4.07268
       549.30000  7.82304e-14      4.08050
       549.40000  7.82304e-14      4.08832
       549.50000  1.00486e-13      5.26144
       549.60000  1.00486e-13      5.24737
       549.70000  1.00486e-13      5.23531
       549.80000  1.00486e-13      5.22426
       549.90000  1.00486e-13      5.21421
       550.00000  1.00486e-13      5.20516
       550.10000  1.00486e-13      5.19813
       550.20000  1.00486e-13      5.19110
       550.30000  1.00486e-13      5.18607
       550.40000  1.00486e-13      5.18205
       550.50000  1.36913e-13      7.05650
       550.60000  1.36913e-13      7.06609
       550.70000  1.36913e-13      7.07567
       550.80000  1.36913e-13      7.08389
       550.90000  1.36913e-13      7.09073
       551.00000  1.36913e-13      7.09621
       551.10000  1.36913e-13      7.10032
       551.20000  1.36913e-13      7.10305
       551.30000  1.36831e-13      7.10017
       551.40000  1.36831e-13      7.10017
       551.50000  5.15163e-14      2.67266
       551.60000  5.15163e-14      2.66545
       551.70000  5.15163e-14      2.65979
       551.80000  5.15163e-14      2.65412
       551.90000  5.15163e-14      2.65000
       552.00000  5.15163e-14      2.64639
       552.10000  5.15163e-14      2.64381
       552.20000  5.15163e-14      2.64175
       552.30000  5.15163e-14      2.64072
       552.40000  5.15163e-14      2.64072
       552.50000  9.37104e-14      4.80547
       552.60000  9.37104e-14      4.81765
       552.70000  9.37104e-14      4.82984
       552.80000  9.37104e-14      4.84202
       552.90000  9.37104e-14      4.85233
       553.00000  9.37104e-14      4.86357
       553.10000  9.37104e-14      4.87294
       553.20000  9.37104e-14      4.88231
       553.30000  9.37104e-14      4.89168
       553.40000  9.37104e-14      4.90012
       553.50000  1.70966e-13      8.95350
       553.60000  1.70966e-13      8.96718
       553.70000  1.70966e-13      8.98086
       553.80000  1.70943e-13      8.99158
       553.90000  1.70943e-13      9.00183
       554.00000  1.70943e-13      9.01038
       554.10000  1.70943e-13      9.02064
       554.20000  1.70943e-13      9.02747
       554.30000  1.70943e-13      9.03431
       554.40000  1.70943e-13      9.04115
       554.50000  4.89929e-16    0.0259271
       554.60000  4.89929e-16    0.0259760
       554.70000  4.89929e-16    0.0260152
       554.80000  4.89929e-16    0.0260446
       554.90000  4.89929e-16    0.0260593
       555.00000  4.89929e-16    0.0260691
       555.10000  4.89929e-16    0.0260691
       555.20000  4.89929e-16    0.0260544
       555.30000  4.89929e-16    0.0260348
       555.40000  4.89929e-16    0.0260005
       555.50000  6.95429e-15     0.368438
       555.60000  6.95429e-15     0.366143
       555.70000  6.95429e-15     0.364057
       555.80000  6.95429e-15     0.362180
       555.90000  6.95429e-15     0.360441
       556.00000  6.95429e-15     0.358911
       556.10000  6.95429e-15     0.357659
       556.20000  6.95429e-15     0.356477
       556.30000  6.95817e-15     0.355771
       556.40000  6.95817e-15     0.355075
       556.50000  2.51274e-13      12.8024
       556.60000  2.51274e-13      12.7898
       556.70000  2.51274e-13      12.7848
       556.80000  2.51274e-13      12.7873
       556.90000  2.51274e-13      12.7974
       557.00000  2.51274e-13      12.8150
       557.10000  2.51274e-13      12.8376
       557.20000  2.51274e-13      12.8677
       557.30000  2.51274e-13      12.9054
       557.40000  2.51274e-13      12.9507
       557.50000  9.08316e-14      4.69963
       557.60000  9.08316e-14      4.67692
       557.70000  9.08316e-14      4.65512
       557.80000  9.08316e-14      4.63604
       557.90000  9.08316e-14      4.61879
       558.00000  9.08316e-14      4.60335
       558.10000  9.08316e-14      4.59063
       558.20000  9.08316e-14      4.57882
       558.30000  9.08316e-14      4.56974
       558.40000  9.08316e-14      4.56338
       558.50000  3.24343e-13      16.2755
       558.60000  3.24343e-13      16.2918
       558.70000  3.24343e-13      16.3080
       558.80000  3.24061e-13      16.3132
       558.90000  3.24061e-13      16.3327
       559.00000  3.24061e-13      16.3553
       559.10000  3.24061e-13      16.3780
       559.20000  3.24061e-13      16.4039
       559.30000  3.24061e-13      16.4266
       559.40000  3.24061e-13      16.4558
       559.50000  3.42199e-13      17.4042
       559.60000  3.42199e-13      17.4350
       559.70000  3.42199e-13      17.4658
       559.80000  3.42199e-13      17.5000
       559.90000  3.42199e-13      17.5343
       560.00000  3.42199e-13      17.5719
       560.10000  3.42199e-13      17.6095
       560.20000  3.42199e-13      17.6472
       560.30000  3.42199e-13      17.6882
       560.40000  3.42199e-13      17.7293
       560.50000  3.38430e-13      17.5781
       560.60000  3.38430e-13      17.5442
       560.70000  3.38430e-13      17.5138
       560.80000  3.38430e-13      17.4867
       560.90000  3.38430e-13      17.4664
       561.00000  3.38430e-13      17.4494
       561.10000  3.38430e-13      17.4359
       561.20000  3.38430e-13      17.4258
       561.30000  3.38627e-13      17.4325
       561.40000  3.38627e-13      17.4325
       561.50000  8.75510e-14      4.50888
       561.60000  8.75510e-14      4.51763
       561.70000  8.75510e-14      4.52551
       561.80000  8.75510e-14      4.53427
       561.90000  8.75510e-14      4.54215
       562.00000  8.75510e-14      4.54915
       562.10000  8.75510e-14      4.55615
       562.20000  8.75510e-14      4.56316
       562.30000  8.75510e-14      4.56929
       562.40000  8.75510e-14      4.57542
       562.50000  3.33486e-13      17.4480
       562.60000  3.33486e-13      17.4680
       562.70000  3.33486e-13      17.4880
       562.80000  3.33486e-13      17.5047
       562.90000  3.33486e-13      17.5180
       563.00000  3.33486e-13      17.5347
       563.10000  3.33486e-13      17.5481
       563.20000  3.33486e-13      17.5581
       563.30000  3.33486e-13      17.5681
       563.40000  3.33486e-13      17.5747
       563.50000  5.02941e-13      26.5201
       563.60000  5.02941e-13      26.5452
       563.70000  5.02941e-13      26.5653
       563.80000  5.02545e-13      26.5545
       563.90000  5.02545e-13      26.5595
       564.00000  5.02545e-13      26.5595
       564.10000  5.02545e-13      26.5494
       564.20000  5.02545e-13      26.5344
       564.30000  5.02545e-13      26.5092
       564.40000  5.02545e-13      26.4791
       564.50000  6.98972e-13      36.7799
       564.60000  6.98972e-13      36.5982
       564.70000  6.98972e-13      36.4304
       564.80000  6.98972e-13      36.2837
       564.90000  6.98972e-13      36.1508
       565.00000  6.98972e-13      36.0390
       565.10000  6.98972e-13      35.9412
       565.20000  6.98972e-13      35.8643
       565.30000  6.98972e-13      35.8014
       565.40000  6.98972e-13      35.7594
       565.50000  1.70093e-14     0.869515
       565.60000  1.70093e-14     0.869345
       565.70000  1.70093e-14     0.869515
       565.80000  1.70093e-14     0.870025
       565.90000  1.70093e-14     0.871045
       566.00000  1.70093e-14     0.872576
       566.10000  1.70093e-14     0.874447
       566.20000  1.70093e-14     0.876658
       566.30000  1.69889e-14     0.878326
       566.40000  1.69889e-14     0.881554
       566.50000  2.15785e-13      11.2424
       566.60000  2.15785e-13      11.3158
       566.70000  2.15785e-13      11.3827
       566.80000  2.15785e-13      11.4409
       566.90000  2.15785e-13      11.4927
       567.00000  2.15785e-13      11.5337
       567.10000  2.15785e-13      11.5682
       567.20000  2.15785e-13      11.5920
       567.30000  2.15785e-13      11.6092
       567.40000  2.15785e-13      11.6179
       567.50000  8.80296e-13      47.3952
       567.60000  8.80296e-13      47.0695
       567.70000  8.80296e-13      46.7702
       567.80000  8.80296e-13      46.5061
       567.90000  8.80296e-13      46.2684
       568.00000  8.80296e-13      46.0747
       568.10000  8.80296e-13      45.8987
       568.20000  8.80296e-13      45.7666
       568.30000  8.80296e-13      45.6610
       568.40000  8.80296e-13      45.5818
       568.50000  7.69984e-13      39.8390
       568.60000  7.69984e-13      39.8236
       568.70000  7.69984e-13      39.8467
       568.80000  7.69315e-13      39.8582
       568.90000  7.69315e-13      39.9351
       569.00000  7.69315e-13      40.0351
       569.10000  7.69315e-13      40.1659
       569.20000  7.69315e-13      40.3275
       569.30000  7.69315e-13      40.5121
       569.40000  7.69315e-13      40.7275
       569.50000  2.10107e-12      111.903
       569.60000  2.10107e-12      110.979
       569.70000  2.10107e-12      110.138
       569.80000  2.10107e-12      109.403
       569.90000  2.10107e-12      108.730
       570.00000  2.10107e-12      108.163
       570.10000  2.10107e-12      107.680
       570.20000  2.10107e-12      107.281
       570.30000  2.10107e-12      106.965
       570.40000  2.10107e-12      106.755
       570.50000  1.38844e-12      70.4493
       570.60000  1.38844e-12      70.6576
       570.70000  1.38844e-12      70.8658
       570.80000  1.38844e-12      71.0741
       570.90000  1.38844e-12      71.2963
       571.00000  1.38844e-12      71.5184
       571.10000  1.38844e-12      71.7406
       571.20000  1.38844e-12      71.9766
       571.30000  1.38855e-12      72.2321
       571.40000  1.38855e-12      72.4821
       571.50000  2.18542e-12      114.472
       571.60000  2.18542e-12      114.887
       571.70000  2.18542e-12      115.303
       571.80000  2.18542e-12      115.740
       571.90000  2.18542e-12      116.177
       572.00000  2.18542e-12      116.636
       572.10000  2.18542e-12      117.095
       572.20000  2.18542e-12      117.553
       572.30000  2.18542e-12      118.034
       572.40000  2.18542e-12      118.515
       572.50000  1.10873e-12      60.3815
       572.60000  1.10873e-12      60.3372
       572.70000  1.10873e-12      60.2817
       572.80000  1.10873e-12      60.2374
       572.90000  1.10873e-12      60.1930
       573.00000  1.10873e-12      60.1487
       573.10000  1.10873e-12      60.1154
       573.20000  1.10873e-12      60.0711
       573.30000  1.10873e-12      60.0378
       573.40000  1.10873e-12      60.0046
       573.50000  1.95869e-12      105.945
       573.60000  1.95869e-12      105.985
       573.70000  1.95869e-12      106.024
       573.80000  1.96088e-12      106.142
       573.90000  1.96088e-12      106.142
       574.00000  1.96088e-12      106.103
       574.10000  1.96088e-12      106.064
       574.20000  1.96088e-12      106.005
       574.30000  1.96088e-12      105.946
       574.40000  1.96088e-12      105.848
       574.50000  4.32720e-12      233.366
       574.60000  4.32720e-12      232.631
       574.70000  4.32720e-12      231.981
       574.80000  4.32720e-12      231.376
       574.90000  4.32720e-12      230.856
       575.00000  4.32720e-12      230.424
       575.10000  4.32720e-12      230.034
       575.20000  4.32720e-12      229.688
       575.30000  4.32720e-12      229.428
       575.40000  4.32720e-12      229.255
       575.50000  1.07245e-11      567.864
       575.60000  1.07245e-11      568.508
       575.70000  1.07245e-11      569.151
       575.80000  1.07245e-11      569.794
       575.90000  1.07245e-11      570.438
       576.00000  1.07245e-11      571.081
       576.10000  1.07245e-11      571.618
       576.20000  1.07245e-11      572.261
       576.30000  1.07214e-11      572.629
       576.40000  1.07214e-11      573.165
       576.50000  9.24560e-12      494.732
       576.60000  9.24560e-12      495.194
       576.70000  9.24560e-12      495.564
       576.80000  9.24560e-12      496.026
       576.90000  9.24560e-12      496.396
       577.00000  9.24560e-12      496.766
       577.10000  9.24560e-12      497.136
       577.20000  9.24560e-12      497.506
       577.30000  9.24560e-12      497.875
       577.40000  9.24560e-12      498.245
       577.50000  8.72804e-12      470.616
       577.60000  8.72804e-12      467.474
       577.70000  8.72804e-12      464.594
       577.80000  8.72804e-12      462.063
       577.90000  8.72804e-12      459.793
       578.00000  8.72804e-12      457.873
       578.10000  8.72804e-12      456.215
       578.20000  8.72804e-12      454.906
       578.30000  8.72804e-12      453.858
       578.40000  8.72804e-12      453.073
       578.50000  1.41831e-11      735.534
       578.60000  1.41831e-11      738.229
       578.70000  1.41831e-11      740.640
       578.80000  1.41651e-11      742.111
       578.90000  1.41651e-11      744.236
       579.00000  1.41651e-11      746.361
       579.10000  1.41651e-11      748.202
       579.20000  1.41651e-11      750.043
       579.30000  1.41651e-11      751.602
       579.40000  1.41651e-11      753.160
       579.50000  2.46599e-11      1313.39
       579.60000  2.46599e-11      1315.61
       579.70000  2.46599e-11      1317.33
       579.80000  2.46599e-11      1318.81
       579.90000  2.46599e-11      1320.29
       580.00000  2.46599e-11      1321.28
       580.10000  2.46599e-11      1322.02
       580.20000  2.46599e-11      1322.76
       580.30000  2.46599e-11      1323.00
       580.40000  2.46599e-11      1323.00
       580.50000  3.16491e-11      1697.98
       580.60000  3.16491e-11      1699.24
       580.70000  3.16491e-11      1700.82
       580.80000  3.16491e-11      1702.41
       580.90000  3.16491e-11      1703.99
       581.00000  3.16491e-11      1705.57
       581.10000  3.16491e-11      1707.47
       581.20000  3.16491e-11      1709.05
       581.30000  3.16106e-11      1708.87
       581.40000  3.16106e-11      1710.77
       581.50000  4.15929e-11      2253.50
       581.60000  4.15929e-11      2258.08
       581.70000  4.15929e-11      2262.65
       581.80000  4.15929e-11      2266.40
       581.90000  4.15929e-11      2269.72
       582.00000  4.15929e-11      2273.05
       582.10000  4.15929e-11      2275.55
       582.20000  4.15929e-11      2277.63
       582.30000  4.15929e-11      2279.29
       582.40000  4.15929e-11      2280.54
       582.50000  3.61473e-11      1982.68
       582.60000  3.61473e-11      1983.04
       582.70000  3.61473e-11      1983.04
       582.80000  3.61473e-11      1982.68
       582.90000  3.61473e-11      1981.96
       583.00000  3.61473e-11      1980.87
       583.10000  3.61473e-11      1979.43
       583.20000  3.61473e-11      1977.26
       583.30000  3.61473e-11      1975.09
       583.40000  3.61473e-11      1972.20
       583.50000  5.06329e-11      2758.48
       583.60000  5.06329e-11      2764.56
       583.70000  5.06329e-11      2769.62
       583.80000  5.05236e-11      2767.68
       583.90000  5.05236e-11      2770.71
       584.00000  5.05236e-11      2772.23
       584.10000  5.05236e-11      2772.23
       584.20000  5.05236e-11      2771.22
       584.30000  5.05236e-11      2769.20
       584.40000  5.05236e-11      2766.17
       584.50000  3.52579e-11      1927.20
       584.60000  3.52579e-11      1913.80
       584.70000  3.52579e-11      1901.81
       584.80000  3.52579e-11      1890.88
       584.90000  3.52579e-11      1881.36
       585.00000  3.52579e-11      1872.90
       585.10000  3.52579e-11      1865.85
       585.20000  3.52579e-11      1860.21
       585.30000  3.52579e-11      1855.62
       585.40000  3.52579e-11      1852.45
       585.50000  2.03827e-10      10698.9
       585.60000  2.03827e-10      10694.8
       585.70000  2.03827e-10      10698.9
       585.80000  2.03827e-10      10711.1
       585.90000  2.03827e-10      10729.4
       586.00000  2.03827e-10      10755.9
       586.10000  2.03827e-10      10790.6
       586.20000  2.03827e-10      10831.4
       586.30000  2.03612e-10      10868.8
       586.40000  2.03612e-10      10923.8
       586.50000  1.77271e-10      9565.52
       586.60000  1.77271e-10      9604.52
       586.70000  1.77271e-10      9636.43
       586.80000  1.77271e-10      9663.02
       586.90000  1.77271e-10      9684.29
       587.00000  1.77271e-10      9696.70
       587.10000  1.77271e-10      9705.56
       587.20000  1.77271e-10      9707.34
       587.30000  1.77271e-10      9703.79
       587.40000  1.77271e-10      9693.16
       587.50000  3.32301e-10      18140.3
       587.60000  3.32301e-10      18063.9
       587.70000  3.32301e-10      17984.1
       587.80000  3.32301e-10      17901.0
       587.90000  3.32301e-10      17814.6
       588.00000  3.32301e-10      17721.6
       588.10000  3.32301e-10      17628.5
       588.20000  3.32301e-10      17528.9
       588.30000  3.32301e-10      17425.8
       588.40000  3.32301e-10      17319.5
       588.50000  5.12831e-10      26554.4
       588.60000  5.12831e-10      26374.9
       588.70000  5.12831e-10      26195.4
       588.80000  5.11899e-10      25958.4
       588.90000  5.11899e-10      25758.7
       589.00000  5.11899e-10      25559.1
       589.10000  5.11899e-10      25349.2
       589.20000  5.11899e-10      25139.3
       589.30000  5.11899e-10      24914.1
       589.40000  5.11899e-10      24688.9
       589.50000  1.02265e-09      48862.2
       589.60000  1.02265e-09      49792.8
       589.70000  1.02265e-09      50651.8
       589.80000  1.02265e-09      51439.3
       589.90000  1.02265e-09      52165.3
       590.00000  1.02265e-09      52809.6
       590.10000  1.02265e-09      53402.7
       590.20000  1.02265e-09      53914.1
       590.30000  1.02265e-09      54364.0
       590.40000  1.02265e-09      54742.4
       590.50000  1.35075e-09      72710.8
       590.60000  1.35075e-09      72535.2
       590.70000  1.35075e-09      72373.2
       590.80000  1.35075e-09      72238.1
       590.90000  1.35075e-09      72116.5
       591.00000  1.35075e-09      72008.5
       591.10000  1.35075e-09      71927.4
       591.20000  1.35075e-09      71859.9
       591.30000  1.35059e-09      71810.9
       591.40000  1.35059e-09      71783.9
       591.50000  3.52144e-09      187129.
       591.60000  3.52144e-09      187164.
       591.70000  3.52144e-09      187270.
       591.80000  3.52144e-09      187376.
       591.90000  3.52144e-09      187552.
       592.00000  3.52144e-09      187798.
       592.10000  3.52144e-09      188080.
       592.20000  3.52144e-09      188397.
       592.30000  3.52144e-09      188784.
       592.40000  3.52144e-09      189207.
       592.50000  3.81443e-09      205445.
       592.60000  3.81443e-09      205407.
       592.70000  3.81443e-09      205331.
       592.80000  3.81443e-09      205292.
       592.90000  3.81443e-09      205178.
       593.00000  3.81443e-09      205102.
       593.10000  3.81443e-09      204987.
       593.20000  3.81443e-09      204873.
       593.30000  3.81443e-09      204720.
       593.40000  3.81443e-09      204606.
       593.50000  8.32439e-09      446104.
       593.60000  8.32439e-09      445271.
       593.70000  8.32439e-09      444522.
       593.80000  8.32228e-09      443660.
       593.90000  8.32228e-09      443078.
       594.00000  8.32228e-09      442579.
       594.10000  8.32228e-09      442079.
       594.20000  8.32228e-09      441663.
       594.30000  8.32228e-09      441413.
       594.40000  8.32228e-09      441164.
       594.50000  7.95410e-09      421568.
       594.60000  7.95410e-09      421488.
       594.70000  7.95410e-09      421488.
       594.80000  7.95410e-09      421568.
       594.90000  7.95410e-09      421727.
       595.00000  7.95410e-09      422045.
       595.10000  7.95410e-09      422363.
       595.20000  7.95410e-09      422761.
       595.30000  7.95410e-09      423238.
       595.40000  7.95410e-09      423795.
       595.50000  1.12921e-08      602433.
       595.60000  1.12921e-08      604127.
       595.70000  1.12921e-08      605595.
       595.80000  1.12921e-08      606837.
       595.90000  1.12921e-08      607966.
       596.00000  1.12921e-08      608869.
       596.10000  1.12921e-08      609773.
       596.20000  1.12921e-08      610337.
       596.30000  1.13085e-08      611676.
       596.40000  1.13085e-08      612015.
       596.50000  8.54957e-08  4.62788e+06
       596.60000  8.54957e-08  4.62276e+06
       596.70000  8.54957e-08  4.61677e+06
       596.80000  8.54957e-08  4.61079e+06
       596.90000  8.54957e-08  4.60480e+06
       597.00000  8.54957e-08  4.59967e+06
       597.10000  8.54957e-08  4.59369e+06
       597.20000  8.54957e-08  4.58856e+06
       597.30000  8.54957e-08  4.58257e+06
       597.40000  8.54957e-08  4.57744e+06
       597.50000  1.34649e-07  7.19966e+06
       597.60000  1.34649e-07  7.18485e+06
       597.70000  1.34649e-07  7.17139e+06
       597.80000  1.34649e-07  7.15927e+06
       597.90000  1.34649e-07  7.14850e+06
       598.00000  1.34649e-07  7.13907e+06
       598.10000  1.34649e-07  7.13234e+06
       598.20000  1.34649e-07  7.12695e+06
       598.30000  1.34649e-07  7.12291e+06
       598.40000  1.34649e-07  7.12022e+06
       598.50000  1.62237e-07  8.57745e+06
       598.60000  1.62237e-07  8.59692e+06
       598.70000  1.62237e-07  8.61477e+06
       598.80000  1.62398e-07  8.63795e+06
       598.90000  1.62398e-07  8.65094e+06
       599.00000  1.62398e-07  8.66231e+06
       599.10000  1.62398e-07  8.67043e+06
       599.20000  1.62398e-07  8.67693e+06
       599.30000  1.62398e-07  8.68180e+06
       599.40000  1.62398e-07  8.68342e+06
       599.50000  1.99460e-07  1.06651e+07
       599.60000  1.99460e-07  1.06631e+07
       599.70000  1.99460e-07  1.06572e+07
       599.80000  1.99460e-07  1.06492e+07
       599.90000  1.99460e-07  1.06372e+07
       600.00000  1.99460e-07  1.06233e+07
       600.10000  1.99460e-07  1.06073e+07
       600.20000  1.99460e-07  1.05893e+07
       600.30000  1.99460e-07  1.05674e+07
       600.40000  1.99460e-07  1.05415e+07
       600.50000  1.18348e-07  6.23932e+06
       600.60000  1.18348e-07  6.24761e+06
       600.70000  1.18348e-07  6.25471e+06
       600.80000  1.18348e-07  6.26181e+06
       600.90000  1.18348e-07  6.26654e+06
       601.00000  1.18348e-07  6.27009e+06
       601.10000  1.18348e-07  6.27128e+06
       601.20000  1.18348e-07  6.27246e+06
       601.30000  1.18333e-07  6.27164e+06
       601.40000  1.18333e-07  6.26927e+06
       601.50000  2.30424e-07  1.22033e+07
       601.60000  2.30424e-07  1.21503e+07
       601.70000  2.30424e-07  1.21065e+07
       601.80000  2.30424e-07  1.20673e+07
       601.90000  2.30424e-07  1.20373e+07
       602.00000  2.30424e-07  1.20143e+07
       602.10000  2.30424e-07  1.19959e+07
       602.20000  2.30424e-07  1.19867e+07
       602.30000  2.30424e-07  1.19843e+07
       602.40000  2.30424e-07  1.19890e+07
       602.50000  6.61562e-08  3.44475e+06
       602.60000  6.61562e-08  3.45004e+06
       602.70000  6.61562e-08  3.45732e+06
       602.80000  6.61562e-08  3.46658e+06
       602.90000  6.61562e-08  3.47783e+06
       603.00000  6.61562e-08  3.49106e+06
       603.10000  6.61562e-08  3.50628e+06
       603.20000  6.61562e-08  3.52348e+06
       603.30000  6.61562e-08  3.54266e+06
       603.40000  6.61562e-08  3.56383e+06
       603.50000  3.04030e-07  1.64845e+07
       603.60000  3.04030e-07  1.64784e+07
       603.70000  3.04030e-07  1.64724e+07
       603.80000  3.03901e-07  1.64593e+07
       603.90000  3.03901e-07  1.64502e+07
       604.00000  3.03901e-07  1.64441e+07
       604.10000  3.03901e-07  1.64350e+07
       604.20000  3.03901e-07  1.64289e+07
       604.30000  3.03901e-07  1.64198e+07
       604.40000  3.03901e-07  1.64137e+07
       604.50000  1.14205e-07  6.16481e+06
       604.60000  1.14205e-07  6.16024e+06
       604.70000  1.14205e-07  6.15567e+06
       604.80000  1.14205e-07  6.15111e+06
       604.90000  1.14205e-07  6.14654e+06
       605.00000  1.14205e-07  6.14311e+06
       605.10000  1.14205e-07  6.13969e+06
       605.20000  1.14205e-07  6.13740e+06
       605.30000  1.14205e-07  6.13398e+06
       605.40000  1.14205e-07  6.13169e+06
       605.50000  7.86791e-08  4.22271e+06
       605.60000  7.86791e-08  4.22192e+06
       605.70000  7.86791e-08  4.22035e+06
       605.80000  7.86791e-08  4.21956e+06
       605.90000  7.86791e-08  4.21956e+06
       606.00000  7.86791e-08  4.21878e+06
       606.10000  7.86791e-08  4.21878e+06
       606.20000  7.86791e-08  4.21878e+06
       606.30000  7.86813e-08  4.21889e+06
       606.40000  7.86813e-08  4.21968e+06
       606.50000  7.69154e-08  4.12574e+06
       606.60000  7.69154e-08  4.12728e+06
       606.70000  7.69154e-08  4.12805e+06
       606.80000  7.69154e-08  4.12959e+06
       606.90000  7.69154e-08  4.12959e+06
       607.00000  7.69154e-08  4.13036e+06
       607.10000  7.69154e-08  4.13036e+06
       607.20000  7.69154e-08  4.13036e+06
       607.30000  7.69154e-08  4.12959e+06
       607.40000  7.69154e-08  4.12882e+06
       607.50000  1.78391e-07  9.57425e+06
       607.60000  1.78391e-07  9.56354e+06
       607.70000  1.78391e-07  9.55462e+06
       607.80000  1.78391e-07  9.54749e+06
       607.90000  1.78391e-07  9.54035e+06
       608.00000  1.78391e-07  9.53322e+06
       608.10000  1.78391e-07  9.52787e+06
       608.20000  1.78391e-07  9.52251e+06
       608.30000  1.78391e-07  9.51895e+06
       608.40000  1.78391e-07  9.51538e+06
       608.50000  2.13362e-08  1.13786e+06
       608.60000  2.13362e-08  1.13765e+06
       608.70000  2.13362e-08  1.13744e+06
       608.80000  2.13317e-08  1.13719e+06
       608.90000  2.13317e-08  1.13740e+06
       609.00000  2.13317e-08  1.13762e+06
       609.10000  2.13317e-08  1.13783e+06
       609.20000  2.13317e-08  1.13826e+06
       609.30000  2.13317e-08  1.13868e+06
       609.40000  2.13317e-08  1.13932e+06
       609.50000  7.80309e-09      417075.
       609.60000  7.80309e-09      415202.
       609.70000  7.80309e-09      413564.
       609.80000  7.80309e-09      412159.
       609.90000  7.80309e-09      410989.
       610.00000  7.80309e-09      409974.
       610.10000  7.80309e-09      409116.
       610.20000  7.80309e-09      408492.
       610.30000  7.80309e-09      408102.
       610.40000  7.80309e-09      407945.
       610.50000  1.36761e-08      714852.
       610.60000  1.36761e-08      718407.
       610.70000  1.36761e-08      721553.
       610.80000  1.36761e-08      724425.
       610.90000  1.36761e-08      726887.
       611.00000  1.36761e-08      728938.
       611.10000  1.36761e-08      730716.
       611.20000  1.36761e-08      732084.
       611.30000  1.36762e-08      733180.
       611.40000  1.36762e-08      733864.
       611.50000  1.82728e-09      98088.4
       611.60000  1.82728e-09      98088.4
       611.70000  1.82728e-09      98033.6
       611.80000  1.82728e-09      97942.3
       611.90000  1.82728e-09      97796.1
       612.00000  1.82728e-09      97613.3
       612.10000  1.82728e-09      97375.8
       612.20000  1.82728e-09      97083.4
       612.30000  1.82728e-09      96754.5
       612.40000  1.82728e-09      96370.8
       612.50000  1.49205e-09      78347.4
       612.60000  1.49205e-09      78153.5
       612.70000  1.49205e-09      77974.4
       612.80000  1.49205e-09      77825.2
       612.90000  1.49205e-09      77705.8
       613.00000  1.49205e-09      77601.4
       613.10000  1.49205e-09      77526.8
       613.20000  1.49205e-09      77467.1
       613.30000  1.49205e-09      77437.3
       613.40000  1.49205e-09      77437.3
       613.50000  7.44945e-10      38670.1
       613.60000  7.44945e-10      38781.8
       613.70000  7.44945e-10      38878.7
       613.80000  7.44131e-10      38925.5
       613.90000  7.44131e-10      39014.8
       614.00000  7.44131e-10      39096.6
       614.10000  7.44131e-10      39163.6
       614.20000  7.44131e-10      39230.6
       614.30000  7.44131e-10      39290.1
       614.40000  7.44131e-10      39342.2
       614.50000  9.04988e-10      47901.0
       614.60000  9.04988e-10      47946.2
       614.70000  9.04988e-10      47982.4
       614.80000  9.04988e-10      48009.6
       614.90000  9.04988e-10      48027.7
       615.00000  9.04988e-10      48036.7
       615.10000  9.04988e-10      48045.8
       615.20000  9.04988e-10      48036.7
       615.30000  9.04988e-10      48027.7
       615.40000  9.04988e-10      48009.6
       615.50000  6.05262e-10      32084.9
       615.60000  6.05262e-10      31727.8
       615.70000  6.05262e-10      31401.0
       615.80000  6.05262e-10      31116.5
       615.90000  6.05262e-10      30874.4
       616.00000  6.05262e-10      30662.6
       616.10000  6.05262e-10      30493.1
       616.20000  6.05262e-10      30359.9
       616.30000  6.05348e-10      30267.4
       616.40000  6.05348e-10      30212.9
       616.50000  7.81853e-11      3899.10
       616.60000  7.81853e-11      3932.72
       616.70000  7.81853e-11      3964.00
       616.80000  7.81853e-11      3992.93
       616.90000  7.81853e-11      4020.29
       617.00000  7.81853e-11      4046.09
       617.10000  7.81853e-11      4069.55
       617.20000  7.81853e-11      4090.66
       617.30000  7.81853e-11      4110.20
       617.40000  7.81853e-11      4128.19
       617.50000  4.31461e-10      22867.4
       617.60000  4.31461e-10      22940.8
       617.70000  4.31461e-10      23005.5
       617.80000  4.31461e-10      23061.6
       617.90000  4.31461e-10      23100.4
       618.00000  4.31461e-10      23134.9
       618.10000  4.31461e-10      23156.5
       618.20000  4.31461e-10      23165.1
       618.30000  4.31461e-10      23165.1
       618.40000  4.31461e-10      23152.2
       618.50000  1.15973e-10      6217.31
       618.60000  1.15973e-10      6205.71
       618.70000  1.15973e-10      6194.11
       618.80000  1.15856e-10      6179.77
       618.90000  1.15856e-10      6171.66
       619.00000  1.15856e-10      6165.87
