PDS_VERSION_ID         = PDS3
RECORD_TYPE            = STREAM
OBJECT                 = TEXT
  PUBLICATION_DATE     = 2014-04-25
  INTERCHANGE_FORMAT   = ASCII
  NOTE                 = "System transmission vs. wavelength."
END_OBJECT             = TEXT
END
    
The systrans directory contains the non-wavelength-integrated system 
transmission values (QE*optics*filter1*filter2) for each filter combination. 
The naming convention for these files is as follows:

<camera><filter 1><filter 2>_systrans.tab

where <camera> is "issna" or "isswa," and <filter 1> and <filter 2> represent
the filter names. For polarized filter combinations, values are given for the
parallel orientation of the filter (full transmission), with values for the 
perpendicular (blocking) orientation provided in files with subscript 
"_b_systrans.tab". 

Columns in systrans files are as follows:

 1st column: Wavelength (nm)  
 2nd column: Transmitted Flux
 3rd column: Transmitted Flux * Solar Flux (phot per cm^2-s-angstrom at 1 AU)

The solar spectrum used for this calculation is provided in solarflux.tab.

\begindata
       600.00000     0.167221  8.90622e+12
       600.10000     0.167221  8.89284e+12
       600.20000     0.167221  8.87779e+12
       600.30000     0.167221  8.85939e+12
       600.40000     0.167221  8.83766e+12
       600.50000     0.167994  8.85663e+12
       600.60000     0.167994  8.86839e+12
       600.70000     0.167994  8.87847e+12
       600.80000     0.167994  8.88855e+12
       600.90000     0.167994  8.89527e+12
       601.00000     0.167994  8.90031e+12
       601.10000     0.167994  8.90199e+12
       601.20000     0.167994  8.90367e+12
       601.30000     0.167972  8.90250e+12
       601.40000     0.167972  8.89914e+12
       601.50000     0.168632  8.93073e+12
       601.60000     0.168632  8.89195e+12
       601.70000     0.168632  8.85991e+12
       601.80000     0.168632  8.83124e+12
       601.90000     0.168632  8.80932e+12
       602.00000     0.168632  8.79245e+12
       602.10000     0.168632  8.77896e+12
       602.20000     0.168632  8.77222e+12
       602.30000     0.168632  8.77053e+12
       602.40000     0.168632  8.77390e+12
       602.50000     0.169251  8.81288e+12
       602.60000     0.169251  8.82642e+12
       602.70000     0.169251  8.84504e+12
       602.80000     0.169251  8.86873e+12
       602.90000     0.169251  8.89751e+12
       603.00000     0.169251  8.93136e+12
       603.10000     0.169251  8.97028e+12
       603.20000     0.169251  9.01429e+12
       603.30000     0.169251  9.06337e+12
       603.40000     0.169251  9.11753e+12
       603.50000     0.169922  9.21316e+12
       603.60000     0.169922  9.20976e+12
       603.70000     0.169922  9.20636e+12
       603.80000     0.169850  9.19905e+12
       603.90000     0.169850  9.19396e+12
       604.00000     0.169850  9.19056e+12
       604.10000     0.169850  9.18547e+12
       604.20000     0.169850  9.18207e+12
       604.30000     0.169850  9.17697e+12
       604.40000     0.169850  9.17358e+12
       604.50000     0.170403  9.19834e+12
       604.60000     0.170403  9.19152e+12
       604.70000     0.170403  9.18471e+12
       604.80000     0.170403  9.17789e+12
       604.90000     0.170403  9.17108e+12
       605.00000     0.170403  9.16596e+12
       605.10000     0.170403  9.16085e+12
       605.20000     0.170403  9.15744e+12
       605.30000     0.170403  9.15233e+12
       605.40000     0.170403  9.14893e+12
       605.50000     0.170554  9.15364e+12
       605.60000     0.170554  9.15194e+12
       605.70000     0.170554  9.14852e+12
       605.80000     0.170554  9.14682e+12
       605.90000     0.170554  9.14682e+12
       606.00000     0.170554  9.14511e+12
       606.10000     0.170554  9.14511e+12
       606.20000     0.170554  9.14511e+12
       606.30000     0.170559  9.14536e+12
       606.40000     0.170559  9.14707e+12
       606.50000     0.170613  9.15168e+12
       606.60000     0.170613  9.15509e+12
       606.70000     0.170613  9.15679e+12
       606.80000     0.170613  9.16021e+12
       606.90000     0.170613  9.16021e+12
       607.00000     0.170613  9.16191e+12
       607.10000     0.170613  9.16191e+12
       607.20000     0.170613  9.16191e+12
       607.30000     0.170613  9.16021e+12
       607.40000     0.170613  9.15850e+12
       607.50000     0.170548  9.15329e+12
       607.60000     0.170548  9.14306e+12
       607.70000     0.170548  9.13453e+12
       607.80000     0.170548  9.12771e+12
       607.90000     0.170548  9.12089e+12
       608.00000     0.170548  9.11407e+12
       608.10000     0.170548  9.10895e+12
       608.20000     0.170548  9.10383e+12
       608.30000     0.170548  9.10042e+12
       608.40000     0.170548  9.09701e+12
       608.50000     0.170656  9.10110e+12
       608.60000     0.170656  9.09939e+12
       608.70000     0.170656  9.09768e+12
       608.80000     0.170619  9.09572e+12
       608.90000     0.170619  9.09743e+12
       609.00000     0.170619  9.09914e+12
       609.10000     0.170619  9.10084e+12
       609.20000     0.170619  9.10425e+12
       609.30000     0.170619  9.10767e+12
       609.40000     0.170619  9.11278e+12
       609.50000     0.171158  9.14841e+12
       609.60000     0.171158  9.10733e+12
       609.70000     0.171158  9.07139e+12
       609.80000     0.171158  9.04058e+12
       609.90000     0.171158  9.01491e+12
       610.00000     0.171158  8.99265e+12
       610.10000     0.171158  8.97383e+12
       610.20000     0.171158  8.96014e+12
       610.30000     0.171158  8.95158e+12
       610.40000     0.171158  8.94815e+12
       610.50000     0.172048  8.99297e+12
       610.60000     0.172048  9.03770e+12
       610.70000     0.172048  9.07727e+12
       610.80000     0.172048  9.11340e+12
       610.90000     0.172048  9.14437e+12
       611.00000     0.172048  9.17018e+12
       611.10000     0.172048  9.19254e+12
       611.20000     0.172048  9.20975e+12
       611.30000     0.172049  9.22354e+12
       611.40000     0.172049  9.23214e+12
       611.50000     0.173856  9.33259e+12
       611.60000     0.173856  9.33259e+12
       611.70000     0.173856  9.32738e+12
       611.80000     0.173856  9.31868e+12
       611.90000     0.173856  9.30478e+12
       612.00000     0.173856  9.28739e+12
       612.10000     0.173856  9.26479e+12
       612.20000     0.173856  9.23697e+12
       612.30000     0.173856  9.20568e+12
       612.40000     0.173856  9.16917e+12
       612.50000     0.175941  9.23865e+12
       612.60000     0.175941  9.21577e+12
       612.70000     0.175941  9.19466e+12
       612.80000     0.175941  9.17707e+12
       612.90000     0.175941  9.16299e+12
       613.00000     0.175941  9.15068e+12
       613.10000     0.175941  9.14188e+12
       613.20000     0.175941  9.13484e+12
       613.30000     0.175941  9.13132e+12
       613.40000     0.175941  9.13132e+12
       613.50000     0.178022  9.24110e+12
       613.60000     0.178022  9.26780e+12
       613.70000     0.178022  9.29095e+12
       613.80000     0.177827  9.30214e+12
       613.90000     0.177827  9.32348e+12
       614.00000     0.177827  9.34304e+12
       614.10000     0.177827  9.35904e+12
       614.20000     0.177827  9.37504e+12
       614.30000     0.177827  9.38927e+12
       614.40000     0.177827  9.40172e+12
       614.50000     0.179149  9.48238e+12
       614.60000     0.179149  9.49134e+12
       614.70000     0.179149  9.49850e+12
       614.80000     0.179149  9.50388e+12
       614.90000     0.179149  9.50746e+12
       615.00000     0.179149  9.50925e+12
       615.10000     0.179149  9.51104e+12
       615.20000     0.179149  9.50925e+12
       615.30000     0.179149  9.50746e+12
       615.40000     0.179149  9.50388e+12
       615.50000     0.179793  9.53084e+12
       615.60000     0.179793  9.42476e+12
       615.70000     0.179793  9.32768e+12
       615.80000     0.179793  9.24317e+12
       615.90000     0.179793  9.17126e+12
       616.00000     0.179793  9.10833e+12
       616.10000     0.179793  9.05799e+12
       616.20000     0.179793  9.01843e+12
       616.30000     0.179819  8.99094e+12
       616.40000     0.179819  8.97476e+12
       616.50000     0.179846  8.96894e+12
       616.60000     0.179846  9.04627e+12
       616.70000     0.179846  9.11821e+12
       616.80000     0.179846  9.18475e+12
       616.90000     0.179846  9.24770e+12
       617.00000     0.179846  9.30705e+12
       617.10000     0.179846  9.36100e+12
       617.20000     0.179846  9.40956e+12
       617.30000     0.179846  9.45452e+12
       617.40000     0.179846  9.49589e+12
       617.50000     0.179498  9.51337e+12
       617.60000     0.179498  9.54389e+12
       617.70000     0.179498  9.57081e+12
       617.80000     0.179498  9.59415e+12
       617.90000     0.179498  9.61030e+12
       618.00000     0.179498  9.62466e+12
       618.10000     0.179498  9.63364e+12
       618.20000     0.179498  9.63723e+12
       618.30000     0.179498  9.63723e+12
       618.40000     0.179498  9.63184e+12
       618.50000     0.178895  9.59058e+12
       618.60000     0.178895  9.57269e+12
       618.70000     0.178895  9.55480e+12
       618.80000     0.178715  9.53268e+12
       618.90000     0.178715  9.52017e+12
       619.00000     0.178715  9.51124e+12
       619.10000     0.178715  9.50409e+12
       619.20000     0.178715  9.50051e+12
       619.30000     0.178715  9.49872e+12
       619.40000     0.178715  9.49872e+12
       619.50000     0.177319  9.42807e+12
       619.60000     0.177319  9.46176e+12
       619.70000     0.177319  9.49191e+12
       619.80000     0.177319  9.51850e+12
       619.90000     0.177319  9.54156e+12
       620.00000     0.177319  9.55929e+12
       620.10000     0.177319  9.57347e+12
       620.20000     0.177319  9.58411e+12
       620.30000     0.177319  9.59121e+12
       620.40000     0.177319  9.59298e+12
       620.50000     0.173840  9.40475e+12
       620.60000     0.173840  9.36650e+12
       620.70000     0.173840  9.33000e+12
       620.80000     0.173840  9.29871e+12
       620.90000     0.173840  9.27089e+12
       621.00000     0.173840  9.24655e+12
       621.10000     0.173840  9.22569e+12
       621.20000     0.173840  9.21005e+12
       621.30000     0.173617  9.18434e+12
       621.40000     0.173617  9.17392e+12
       621.50000     0.166808  8.80912e+12
       621.60000     0.166808  8.83914e+12
       621.70000     0.166808  8.86583e+12
       621.80000     0.166808  8.88752e+12
       621.90000     0.166808  8.90753e+12
       622.00000     0.166808  8.92255e+12
       622.10000     0.166808  8.93422e+12
       622.20000     0.166808  8.94090e+12
       622.30000     0.166808  8.94590e+12
       622.40000     0.166808  8.94590e+12
       622.50000     0.155520  8.33742e+12
       622.60000     0.155520  8.33120e+12
       622.70000     0.155520  8.32187e+12
       622.80000     0.155520  8.30942e+12
       622.90000     0.155520  8.29232e+12
       623.00000     0.155520  8.27365e+12
       623.10000     0.155520  8.25033e+12
       623.20000     0.155520  8.22233e+12
       623.30000     0.155520  8.19278e+12
       623.40000     0.155520  8.15857e+12
       623.50000     0.139811  7.30231e+12
       623.60000     0.139811  7.30092e+12
       623.70000     0.139811  7.30092e+12
       623.80000     0.139510  7.28241e+12
       623.90000     0.139510  7.28101e+12
       624.00000     0.139510  7.27822e+12
       624.10000     0.139510  7.27404e+12
       624.20000     0.139510  7.26985e+12
       624.30000     0.139510  7.26567e+12
       624.40000     0.139510  7.26009e+12
       624.50000     0.120100  6.24518e+12
       624.60000     0.120100  6.22116e+12
       624.70000     0.120100  6.20195e+12
       624.80000     0.120100  6.18513e+12
       624.90000     0.120100  6.17192e+12
       625.00000     0.120100  6.16231e+12
       625.10000     0.120100  6.15631e+12
       625.20000     0.120100  6.15270e+12
       625.30000     0.120100  6.15391e+12
       625.40000     0.120100  6.15751e+12
       625.50000    0.0983917  5.05045e+12
       625.60000    0.0983917  5.05832e+12
       625.70000    0.0983917  5.07012e+12
       625.80000    0.0983917  5.08390e+12
       625.90000    0.0983917  5.10063e+12
       626.00000    0.0983917  5.12030e+12
       626.10000    0.0983917  5.14293e+12
       626.20000    0.0983917  5.16753e+12
       626.30000    0.0982365  5.18787e+12
       626.40000    0.0982365  5.21832e+12
       626.50000    0.0769354  4.11220e+12
       626.60000    0.0769354  4.11297e+12
       626.70000    0.0769354  4.11374e+12
       626.80000    0.0769354  4.11451e+12
       626.90000    0.0769354  4.11528e+12
       627.00000    0.0769354  4.11604e+12
       627.10000    0.0769354  4.11681e+12
       627.20000    0.0769354  4.11681e+12
       627.30000    0.0769354  4.11758e+12
       627.40000    0.0769354  4.11835e+12
       627.50000    0.0581330  3.11244e+12
       627.60000    0.0581330  3.11477e+12
       627.70000    0.0581330  3.11651e+12
       627.80000    0.0581330  3.11767e+12
       627.90000    0.0581330  3.11883e+12
       628.00000    0.0581330  3.11942e+12
       628.10000    0.0581330  3.12000e+12
       628.20000    0.0581330  3.12000e+12
       628.30000    0.0581330  3.11942e+12
       628.40000    0.0581330  3.11883e+12
       628.50000    0.0428490  2.29799e+12
       628.60000    0.0428490  2.29671e+12
       628.70000    0.0428490  2.29542e+12
       628.80000    0.0427584  2.28886e+12
       628.90000    0.0427584  2.28672e+12
       629.00000    0.0427584  2.28458e+12
       629.10000    0.0427584  2.28202e+12
       629.20000    0.0427584  2.27945e+12
       629.30000    0.0427584  2.27646e+12
       629.40000    0.0427584  2.27304e+12
       629.50000    0.0308575  1.63791e+12
       629.60000    0.0308575  1.63452e+12
       629.70000    0.0308575  1.63113e+12
       629.80000    0.0308575  1.62804e+12
       629.90000    0.0308575  1.62526e+12
       630.00000    0.0308575  1.62249e+12
       630.10000    0.0308575  1.61971e+12
       630.20000    0.0308575  1.61755e+12
       630.30000    0.0308575  1.61508e+12
       630.40000    0.0308575  1.61323e+12
       630.50000    0.0220564  1.15178e+12
       630.60000    0.0220564  1.15046e+12
       630.70000    0.0220564  1.14936e+12
       630.80000    0.0220564  1.14848e+12
       630.90000    0.0220564  1.14759e+12
       631.00000    0.0220564  1.14693e+12
       631.10000    0.0220564  1.14759e+12
       631.20000    0.0220564  1.14825e+12
       631.30000    0.0220553  1.14908e+12
       631.40000    0.0220553  1.14974e+12
       631.50000    0.0158557  8.27033e+11
       631.60000    0.0158557  8.27509e+11
       631.70000    0.0158557  8.27984e+11
       631.80000    0.0158557  8.28302e+11
       631.90000    0.0158557  8.28777e+11
       632.00000    0.0158557  8.29253e+11
       632.10000    0.0158557  8.29728e+11
       632.20000    0.0158557  8.30046e+11
       632.30000    0.0158557  8.30521e+11
       632.40000    0.0158557  8.30997e+11
       632.50000    0.0113780  5.96548e+11
       632.60000    0.0113780  5.96776e+11
       632.70000    0.0113780  5.97117e+11
       632.80000    0.0113780  5.97345e+11
       632.90000    0.0113780  5.97572e+11
       633.00000    0.0113780  5.97913e+11
       633.10000    0.0113780  5.98141e+11
       633.20000    0.0113780  5.98369e+11
       633.30000    0.0113780  5.98596e+11
       633.40000    0.0113780  5.98824e+11
       633.50000   0.00818361  4.30867e+11
       633.60000   0.00818361  4.31031e+11
       633.70000   0.00818361  4.31194e+11
       633.80000   0.00818235  4.31210e+11
       633.90000   0.00818235  4.31374e+11
       634.00000   0.00818235  4.31537e+11
       634.10000   0.00818235  4.31619e+11
       634.20000   0.00818235  4.31783e+11
       634.30000   0.00818235  4.31865e+11
       634.40000   0.00818235  4.32028e+11
       634.50000   0.00595969  3.14731e+11
       634.60000   0.00595969  3.14791e+11
       634.70000   0.00595969  3.14910e+11
       634.80000   0.00595969  3.14970e+11
       634.90000   0.00595969  3.15029e+11
       635.00000   0.00595969  3.15089e+11
       635.10000   0.00595969  3.15148e+11
       635.20000   0.00595969  3.15148e+11
       635.30000   0.00595969  3.15208e+11
       635.40000   0.00595969  3.15208e+11
       635.50000   0.00443041  2.34369e+11
       635.60000   0.00443041  2.34413e+11
       635.70000   0.00443041  2.34413e+11
       635.80000   0.00443041  2.34457e+11
       635.90000   0.00443041  2.34457e+11
       636.00000   0.00443041  2.34502e+11
       636.10000   0.00443041  2.34502e+11
       636.20000   0.00443041  2.34546e+11
       636.30000   0.00440415  2.33156e+11
       636.40000   0.00440415  2.33200e+11
       636.50000   0.00328969  1.74189e+11
       636.60000   0.00328969  1.74222e+11
       636.70000   0.00328969  1.74222e+11
       636.80000   0.00328969  1.74255e+11
       636.90000   0.00328969  1.74255e+11
       637.00000   0.00328969  1.74255e+11
       637.10000   0.00328969  1.74288e+11
       637.20000   0.00328969  1.74288e+11
       637.30000   0.00328969  1.74321e+11
       637.40000   0.00328969  1.74321e+11
       637.50000   0.00247077  1.30926e+11
       637.60000   0.00247077  1.30951e+11
       637.70000   0.00247077  1.30951e+11
       637.80000   0.00247077  1.30975e+11
       637.90000   0.00247077  1.30975e+11
       638.00000   0.00247077  1.30975e+11
       638.10000   0.00247077  1.31000e+11
       638.20000   0.00247077  1.31000e+11
       638.30000   0.00247077  1.31000e+11
       638.40000   0.00247077  1.31025e+11
       638.50000   0.00189660  1.00577e+11
       638.60000   0.00189660  1.00577e+11
       638.70000   0.00189660  1.00596e+11
       638.80000   0.00188416  9.99359e+10
       638.90000   0.00188416  9.99359e+10
       639.00000   0.00188416  9.99359e+10
       639.10000   0.00188416  9.97851e+10
       639.20000   0.00188416  9.96344e+10
       639.30000   0.00188416  9.94837e+10
       639.40000   0.00188416  9.93518e+10
       639.50000   0.00146060  7.69008e+10
       639.60000   0.00146060  7.68132e+10
       639.70000   0.00146060  7.67109e+10
       639.80000   0.00146060  7.66233e+10
       639.90000   0.00146060  7.65503e+10
       640.00000   0.00146060  7.64626e+10
       640.10000   0.00146060  7.63896e+10
       640.20000   0.00146060  7.63312e+10
       640.30000   0.00146060  7.62727e+10
       640.40000   0.00146060  7.62143e+10
       640.50000   0.00113160  5.90017e+10
       640.60000   0.00113160  5.89678e+10
       640.70000   0.00113160  5.89338e+10
       640.80000   0.00113160  5.89112e+10
       640.90000   0.00113160  5.88772e+10
       641.00000   0.00113160  5.88659e+10
       641.10000   0.00113160  5.88886e+10
       641.20000   0.00113160  5.89112e+10
       641.30000   0.00112395  5.85352e+10
       641.40000   0.00112395  5.85577e+10
       641.50000  0.000871957  4.54464e+10
       641.60000  0.000871957  4.54638e+10
       641.70000  0.000871957  4.54813e+10
       641.80000  0.000871957  4.54987e+10
       641.90000  0.000871957  4.55161e+10
       642.00000  0.000871957  4.55336e+10
       642.10000  0.000871957  4.55423e+10
       642.20000  0.000871957  4.55597e+10
       642.30000  0.000871957  4.55772e+10
       642.40000  0.000871957  4.55946e+10
       642.50000  0.000677462  3.54380e+10
       642.60000  0.000677462  3.54516e+10
       642.70000  0.000677462  3.54651e+10
       642.80000  0.000677462  3.54787e+10
       642.90000  0.000677462  3.54922e+10
       643.00000  0.000677462  3.55058e+10
       643.10000  0.000677462  3.55125e+10
       643.20000  0.000677462  3.55261e+10
       643.30000  0.000677462  3.55396e+10
       643.40000  0.000677462  3.55532e+10
       643.50000  0.000541834  2.84463e+10
       643.60000  0.000541834  2.84571e+10
       643.70000  0.000541834  2.84625e+10
       643.80000  0.000541112  2.84354e+10
       643.90000  0.000541112  2.84463e+10
       644.00000  0.000541112  2.84571e+10
       644.10000  0.000541112  2.84679e+10
       644.20000  0.000541112  2.84733e+10
       644.30000  0.000541112  2.84841e+10
       644.40000  0.000541112  2.84950e+10
       644.50000  0.000433754  2.28501e+10
       644.60000  0.000433754  2.28545e+10
       644.70000  0.000433754  2.28632e+10
       644.80000  0.000433754  2.28718e+10
       644.90000  0.000433754  2.28805e+10
       645.00000  0.000433754  2.28848e+10
       645.10000  0.000433754  2.28805e+10
       645.20000  0.000433754  2.28718e+10
       645.30000  0.000433754  2.28675e+10
       645.40000  0.000433754  2.28588e+10
       645.50000  0.000342346  1.80314e+10
       645.60000  0.000342346  1.80245e+10
       645.70000  0.000342346  1.80177e+10
       645.80000  0.000342346  1.80074e+10
       645.90000  0.000342346  1.79971e+10
       646.00000  0.000342346  1.79869e+10
       646.10000  0.000342346  1.79766e+10
       646.20000  0.000342346  1.79663e+10
       646.30000  0.000342136  1.79416e+10
       646.40000  0.000342136  1.79279e+10
       646.50000  0.000277134  1.45135e+10
       646.60000  0.000277134  1.44997e+10
       646.70000  0.000277134  1.44886e+10
       646.80000  0.000277134  1.44775e+10
       646.90000  0.000277134  1.44636e+10
       647.00000  0.000277134  1.44525e+10
       647.10000  0.000277134  1.44137e+10
       647.20000  0.000277134  1.43777e+10
       647.30000  0.000277134  1.43445e+10
       647.40000  0.000277134  1.43112e+10
       647.50000  0.000226222  1.16572e+10
       647.60000  0.000226222  1.16369e+10
       647.70000  0.000226222  1.16142e+10
       647.80000  0.000226222  1.15961e+10
       647.90000  0.000226222  1.15780e+10
       648.00000  0.000226222  1.15622e+10
       648.10000  0.000226222  1.15486e+10
       648.20000  0.000226222  1.15373e+10
       648.30000  0.000226222  1.15260e+10
       648.40000  0.000226222  1.15170e+10
       648.50000  0.000183389  9.33085e+09
       648.60000  0.000183389  9.32718e+09
       648.70000  0.000183389  9.32352e+09
       648.80000  0.000183579  9.33133e+09
       648.90000  0.000183579  9.33133e+09
       649.00000  0.000183579  9.33316e+09
       649.10000  0.000183579  9.33500e+09
       649.20000  0.000183579  9.34051e+09
       649.30000  0.000183579  9.34418e+09
       649.40000  0.000183579  9.35152e+09
       649.50000  0.000152878  7.79525e+09
       649.60000  0.000152878  7.80290e+09
       649.70000  0.000152878  7.81207e+09
       649.80000  0.000152878  7.82277e+09
       649.90000  0.000152878  7.83347e+09
       650.00000  0.000152878  7.84570e+09
       650.10000  0.000152878  7.85946e+09
       650.20000  0.000152878  7.87475e+09
       650.30000  0.000152878  7.89157e+09
       650.40000  0.000152878  7.90838e+09
       650.50000  0.000123515  6.40427e+09
       650.60000  0.000123515  6.42033e+09
       650.70000  0.000123515  6.43639e+09
       650.80000  0.000123515  6.45491e+09
       650.90000  0.000123515  6.47344e+09
       651.00000  0.000123515  6.49320e+09
       651.10000  0.000123515  6.49814e+09
       651.20000  0.000123515  6.50308e+09
       651.30000  0.000123360  6.49863e+09
       651.40000  0.000123360  6.50233e+09
       651.50000  0.000103578  5.46271e+09
       651.60000  0.000103578  5.46375e+09
       651.70000  0.000103578  5.46582e+09
       651.80000  0.000103578  5.46685e+09
       651.90000  0.000103578  5.46685e+09
       652.00000  0.000103578  5.46685e+09
       652.10000  0.000103578  5.46582e+09
       652.20000  0.000103578  5.46478e+09
       652.30000  0.000103578  5.46375e+09
       652.40000  0.000103578  5.46167e+09
       652.50000  7.97133e-05  4.20089e+09
       652.60000  7.97133e-05  4.19850e+09
       652.70000  7.97133e-05  4.19611e+09
       652.80000  7.97133e-05  4.19212e+09
       652.90000  7.97133e-05  4.18893e+09
       653.00000  7.97133e-05  4.18495e+09
       653.10000  7.97133e-05  4.18176e+09
       653.20000  7.97133e-05  4.17857e+09
       653.30000  7.97133e-05  4.17379e+09
       653.40000  7.97133e-05  4.16901e+09
       653.50000  6.77955e-05  3.54164e+09
       653.60000  6.77955e-05  3.53689e+09
       653.70000  6.77955e-05  3.53147e+09
       653.80000  6.77129e-05  3.52107e+09
       653.90000  6.77129e-05  3.51498e+09
       654.00000  6.77129e-05  3.50821e+09
       654.10000  6.77129e-05  3.50144e+09
       654.20000  6.77129e-05  3.49331e+09
       654.30000  6.77129e-05  3.48518e+09
       654.40000  6.77129e-05  3.47706e+09
       654.50000  5.97857e-05  3.06222e+09
       654.60000  5.97857e-05  3.05385e+09
       654.70000  5.97857e-05  3.04489e+09
       654.80000  5.97857e-05  3.03592e+09
       654.90000  5.97857e-05  3.02635e+09
       655.00000  5.97857e-05  3.01619e+09
       655.10000  5.97857e-05  2.98749e+09
       655.20000  5.97857e-05  2.95999e+09
       655.30000  5.97857e-05  2.93428e+09
       655.40000  5.97857e-05  2.91037e+09
       655.50000  5.38426e-05  2.60060e+09
       655.60000  5.38426e-05  2.58175e+09
       655.70000  5.38426e-05  2.56398e+09
       655.80000  5.38426e-05  2.54783e+09
       655.90000  5.38426e-05  2.53275e+09
       656.00000  5.38426e-05  2.51929e+09
       656.10000  5.38426e-05  2.50745e+09
       656.20000  5.38426e-05  2.49668e+09
       656.30000  5.38016e-05  2.48563e+09
       656.40000  5.38016e-05  2.47756e+09
       656.50000  4.78626e-05  2.19833e+09
       656.60000  4.78626e-05  2.19402e+09
       656.70000  4.78626e-05  2.19067e+09
       656.80000  4.78626e-05  2.18876e+09
       656.90000  4.78626e-05  2.18780e+09
       657.00000  4.78626e-05  2.18828e+09
       657.10000  4.78626e-05  2.20694e+09
       657.20000  4.78626e-05  2.22513e+09
       657.30000  4.78626e-05  2.24284e+09
       657.40000  4.78626e-05  2.26007e+09
       657.50000  3.59050e-05  1.70764e+09
       657.60000  3.59050e-05  1.71985e+09
       657.70000  3.59050e-05  1.73134e+09
       657.80000  3.59050e-05  1.74247e+09
       657.90000  3.59050e-05  1.75288e+09
       658.00000  3.59050e-05  1.76330e+09
       658.10000  3.59050e-05  1.77335e+09
       658.20000  3.59050e-05  1.78268e+09
       658.30000  3.59050e-05  1.79166e+09
       658.40000  3.59050e-05  1.80028e+09
       658.50000  2.99353e-05  1.50754e+09
       658.60000  2.99353e-05  1.51413e+09
       658.70000  2.99353e-05  1.52011e+09
       658.80000  2.99042e-05  1.52452e+09
       658.90000  2.99042e-05  1.52990e+09
       659.00000  2.99042e-05  1.53468e+09
       659.10000  2.99042e-05  1.53947e+09
       659.20000  2.99042e-05  1.54395e+09
       659.30000  2.99042e-05  1.54784e+09
       659.40000  2.99042e-05  1.55143e+09
       659.50000  2.39399e-05  1.24463e+09
       659.60000  2.39399e-05  1.24703e+09
       659.70000  2.39399e-05  1.24894e+09
       659.80000  2.39399e-05  1.25086e+09
       659.90000  2.39399e-05  1.25229e+09
       660.00000  2.39399e-05  1.25349e+09
       660.10000  2.39399e-05  1.25445e+09
       660.20000  2.39399e-05  1.25493e+09
       660.30000  2.39399e-05  1.25541e+09
       660.40000  2.39399e-05  1.25541e+09
       660.50000  2.59429e-05  1.36019e+09
       660.60000  2.59429e-05  1.35967e+09
       660.70000  2.59429e-05  1.35889e+09
       660.80000  2.59429e-05  1.35759e+09
       660.90000  2.59429e-05  1.35629e+09
       661.00000  2.59429e-05  1.35448e+09
       661.10000  2.59429e-05  1.35370e+09
       661.20000  2.59429e-05  1.35266e+09
       661.30000  2.58785e-05  1.34853e+09
       661.40000  2.58785e-05  1.34775e+09
       661.50000  2.19095e-05  1.14039e+09
       661.60000  2.19095e-05  1.13995e+09
       661.70000  2.19095e-05  1.13929e+09
       661.80000  2.19095e-05  1.13885e+09
       661.90000  2.19095e-05  1.13842e+09
       662.00000  2.19095e-05  1.13798e+09
       662.10000  2.19095e-05  1.13754e+09
       662.20000  2.19095e-05  1.13710e+09
       662.30000  2.19095e-05  1.13688e+09
       662.40000  2.19095e-05  1.13666e+09
       662.50000  1.59393e-05  8.26613e+08
       662.60000  1.59393e-05  8.26613e+08
       662.70000  1.59393e-05  8.26454e+08
       662.80000  1.59393e-05  8.26294e+08
       662.90000  1.59393e-05  8.26294e+08
       663.00000  1.59393e-05  8.26294e+08
       663.10000  1.59393e-05  8.26932e+08
       663.20000  1.59393e-05  8.27410e+08
       663.30000  1.59393e-05  8.28048e+08
       663.40000  1.59393e-05  8.28526e+08
       663.50000  1.59421e-05  8.29149e+08
       663.60000  1.59421e-05  8.29627e+08
       663.70000  1.59421e-05  8.29946e+08
       663.80000  1.59081e-05  8.28653e+08
       663.90000  1.59081e-05  8.28971e+08
       664.00000  1.59081e-05  8.29130e+08
       664.10000  1.59081e-05  8.29448e+08
       664.20000  1.59081e-05  8.29607e+08
       664.30000  1.59081e-05  8.29767e+08
       664.40000  1.59081e-05  8.29926e+08
       664.50000  1.19365e-05  6.22727e+08
       664.60000  1.19365e-05  6.22727e+08
       664.70000  1.19365e-05  6.22727e+08
       664.80000  1.19365e-05  6.22727e+08
       664.90000  1.19365e-05  6.22727e+08
       665.00000  1.19365e-05  6.22607e+08
       665.10000  1.19365e-05  6.22488e+08
       665.20000  1.19365e-05  6.22369e+08
       665.30000  1.19365e-05  6.22130e+08
       665.40000  1.19365e-05  6.21891e+08
       665.50000  7.96043e-06  4.14579e+08
       665.60000  7.96043e-06  4.14420e+08
       665.70000  7.96043e-06  4.14181e+08
       665.80000  7.96043e-06  4.14022e+08
       665.90000  7.96043e-06  4.13783e+08
       666.00000  7.96043e-06  4.13465e+08
       666.10000  7.96043e-06  4.13226e+08
       666.20000  7.96043e-06  4.12908e+08
       666.30000  7.94044e-06  4.11553e+08
       666.40000  7.94044e-06  4.11235e+08
       666.50000  9.92895e-06  5.13724e+08
       666.60000  9.92895e-06  5.13227e+08
       666.70000  9.92895e-06  5.12731e+08
       666.80000  9.92895e-06  5.12234e+08
       666.90000  9.92895e-06  5.11738e+08
       667.00000  9.92895e-06  5.11142e+08
       667.10000  9.92895e-06  5.11738e+08
       667.20000  9.92895e-06  5.12234e+08
       667.30000  9.92895e-06  5.12731e+08
       667.40000  9.92895e-06  5.13227e+08
       667.50000  7.94742e-06  4.11200e+08
       667.60000  7.94742e-06  4.11517e+08
       667.70000  7.94742e-06  4.11835e+08
       667.80000  7.94742e-06  4.12074e+08
       667.90000  7.94742e-06  4.12312e+08
       668.00000  7.94742e-06  4.12551e+08
       668.10000  7.94742e-06  4.12789e+08
       668.20000  7.94742e-06  4.12948e+08
       668.30000  7.94742e-06  4.13107e+08
       668.40000  7.94742e-06  4.13186e+08
       668.50000  5.96175e-06  3.10011e+08
       668.60000  5.96175e-06  3.10071e+08
       668.70000  5.96175e-06  3.10071e+08
       668.80000  5.95200e-06  3.09563e+08
       668.90000  5.95200e-06  3.09563e+08
       669.00000  5.95200e-06  3.09504e+08
       669.10000  5.95200e-06  3.09087e+08
       669.20000  5.95200e-06  3.08671e+08
       669.30000  5.95200e-06  3.08313e+08
       669.40000  5.95200e-06  3.07956e+08
       669.50000  5.95161e-06  3.07579e+08
       669.60000  5.95161e-06  3.07222e+08
       669.70000  5.95161e-06  3.06924e+08
       669.80000  5.95161e-06  3.06627e+08
       669.90000  5.95161e-06  3.06329e+08
       670.00000  5.95161e-06  3.06091e+08
       670.10000  5.95161e-06  3.05853e+08
       670.20000  5.95161e-06  3.05615e+08
       670.30000  5.95161e-06  3.05377e+08
       670.40000  5.95161e-06  3.05198e+08
       670.50000  7.94002e-06  4.06926e+08
       670.60000  7.94002e-06  4.06688e+08
       670.70000  7.94002e-06  4.06529e+08
       670.80000  7.94002e-06  4.06370e+08
       670.90000  7.94002e-06  4.06212e+08
       671.00000  7.94002e-06  4.06132e+08
       671.10000  7.94002e-06  4.05973e+08
       671.20000  7.94002e-06  4.05973e+08
       671.30000  7.94032e-06  4.05909e+08
       671.40000  7.94032e-06  4.05909e+08
       671.50000  7.94339e-06  4.06066e+08
       671.60000  7.94339e-06  4.06066e+08
       671.70000  7.94339e-06  4.06066e+08
       671.80000  7.94339e-06  4.06145e+08
       671.90000  7.94339e-06  4.06225e+08
       672.00000  7.94339e-06  4.06384e+08
       672.10000  7.94339e-06  4.06542e+08
       672.20000  7.94339e-06  4.06701e+08
       672.30000  7.94339e-06  4.06860e+08
       672.40000  7.94339e-06  4.07099e+08
       672.50000  5.95494e-06  3.05369e+08
       672.60000  5.95494e-06  3.05548e+08
       672.70000  5.95494e-06  3.05727e+08
       672.80000  5.95494e-06  3.05965e+08
       672.90000  5.95494e-06  3.06203e+08
       673.00000  5.95494e-06  3.06501e+08
       673.10000  5.95494e-06  3.06382e+08
       673.20000  5.95494e-06  3.06263e+08
       673.30000  5.95494e-06  3.06144e+08
       673.40000  5.95494e-06  3.06084e+08
       673.50000  5.95869e-06  3.06157e+08
       673.60000  5.95869e-06  3.06098e+08
       673.70000  5.95869e-06  3.06038e+08
       673.80000  5.96107e-06  3.06041e+08
       673.90000  5.96107e-06  3.05982e+08
       674.00000  5.96107e-06  3.05922e+08
       674.10000  5.96107e-06  3.05862e+08
       674.20000  5.96107e-06  3.05803e+08
       674.30000  5.96107e-06  3.05743e+08
       674.40000  5.96107e-06  3.05683e+08
       674.50000  5.96043e-06  3.05591e+08
       674.60000  5.96043e-06  3.05591e+08
       674.70000  5.96043e-06  3.05532e+08
       674.80000  5.96043e-06  3.05532e+08
       674.90000  5.96043e-06  3.05472e+08
       675.00000  5.96043e-06  3.05472e+08
       675.10000  5.96043e-06  3.05532e+08
       675.20000  5.96043e-06  3.05591e+08
       675.30000  5.96043e-06  3.05651e+08
       675.40000  5.96043e-06  3.05710e+08
       675.50000  5.96358e-06  3.05872e+08
       675.60000  5.96358e-06  3.05932e+08
       675.70000  5.96358e-06  3.05991e+08
       675.80000  5.96358e-06  3.05991e+08
       675.90000  5.96358e-06  3.06051e+08
       676.00000  5.96358e-06  3.06051e+08
       676.10000  5.96358e-06  3.06111e+08
       676.20000  5.96358e-06  3.06111e+08
       676.30000  5.95750e-06  3.05798e+08
       676.40000  5.95750e-06  3.05798e+08
       676.50000  3.97078e-06  2.03860e+08
       676.60000  3.97078e-06  2.03860e+08
       676.70000  3.97078e-06  2.03860e+08
       676.80000  3.97078e-06  2.03820e+08
       676.90000  3.97078e-06  2.03820e+08
       677.00000  3.97078e-06  2.03820e+08
       677.10000  3.97078e-06  2.03820e+08
       677.20000  3.97078e-06  2.03781e+08
       677.30000  3.97078e-06  2.03781e+08
       677.40000  3.97078e-06  2.03741e+08
       677.50000  3.97071e-06  2.03737e+08
       677.60000  3.97071e-06  2.03697e+08
       677.70000  3.97071e-06  2.03697e+08
       677.80000  3.97071e-06  2.03658e+08
       677.90000  3.97071e-06  2.03618e+08
       678.00000  3.97071e-06  2.03578e+08
       678.10000  3.97071e-06  2.03538e+08
       678.20000  3.97071e-06  2.03499e+08
       678.30000  3.97071e-06  2.03459e+08
       678.40000  3.97071e-06  2.03419e+08
       678.50000  3.97106e-06  2.03358e+08
       678.60000  3.97106e-06  2.03318e+08
       678.70000  3.97106e-06  2.03279e+08
       678.80000  3.97076e-06  2.03184e+08
       678.90000  3.97076e-06  2.03144e+08
       679.00000  3.97076e-06  2.03065e+08
       679.10000  3.97076e-06  2.03065e+08
       679.20000  3.97076e-06  2.03104e+08
       679.30000  3.97076e-06  2.03104e+08
       679.40000  3.97076e-06  2.03104e+08
       679.50000  3.97055e-06  2.03093e+08
       679.60000  3.97055e-06  2.03093e+08
       679.70000  3.97055e-06  2.03093e+08
       679.80000  3.97055e-06  2.03093e+08
       679.90000  3.97055e-06  2.03093e+08
       680.00000  3.97055e-06  2.03054e+08
       680.10000  3.97055e-06  2.03054e+08
       680.20000  3.97055e-06  2.03054e+08
       680.30000  3.97055e-06  2.03014e+08
       680.40000  3.97055e-06  2.03014e+08
       680.50000  3.97228e-06  2.03063e+08
       680.60000  3.97228e-06  2.03063e+08
       680.70000  3.97228e-06  2.03023e+08
       680.80000  3.97228e-06  2.02984e+08
       680.90000  3.97228e-06  2.02944e+08
       681.00000  3.97228e-06  2.02944e+08
       681.10000  3.97228e-06  2.02904e+08
       681.20000  3.97228e-06  2.02864e+08
       681.30000  3.97191e-06  2.02845e+08
       681.40000  3.97191e-06  2.02806e+08
       681.50000  3.97656e-06  2.03003e+08
       681.60000  3.97656e-06  2.02964e+08
       681.70000  3.97656e-06  2.02924e+08
       681.80000  3.97656e-06  2.02844e+08
       681.90000  3.97656e-06  2.02805e+08
       682.00000  3.97656e-06  2.02765e+08
       682.10000  3.97656e-06  2.02685e+08
       682.20000  3.97656e-06  2.02606e+08
       682.30000  3.97656e-06  2.02566e+08
       682.40000  3.97656e-06  2.02487e+08
       682.50000  1.98924e-06  1.01252e+08
       682.60000  1.98924e-06  1.01212e+08
       682.70000  1.98924e-06  1.01173e+08
       682.80000  1.98924e-06  1.01133e+08
       682.90000  1.98924e-06  1.01073e+08
       683.00000  1.98924e-06  1.01033e+08
       683.10000  1.98924e-06  1.00994e+08
       683.20000  1.98924e-06  1.00934e+08
       683.30000  1.98924e-06  1.00874e+08
       683.40000  1.98924e-06  1.00815e+08
       683.50000  1.98988e-06  1.00807e+08
       683.60000  1.98988e-06  1.00748e+08
       683.70000  1.98988e-06  1.00688e+08
       683.80000  1.98835e-06  1.00531e+08
       683.90000  1.98835e-06  1.00471e+08
       684.00000  1.98835e-06  1.00412e+08
       684.10000  1.98835e-06  1.00332e+08
       684.20000  1.98835e-06  1.00273e+08
       684.30000  1.98835e-06  1.00193e+08
       684.40000  1.98835e-06  1.00133e+08
       684.50000  1.99007e-06  1.00140e+08
       684.60000  1.99007e-06  1.00061e+08
       684.70000  1.99007e-06  9.99813e+07
       684.80000  1.99007e-06  9.99017e+07
       684.90000  1.99007e-06  9.98022e+07
       685.00000  1.99007e-06  9.97226e+07
       685.10000  1.99007e-06  9.98022e+07
       685.20000  1.99007e-06  9.99017e+07
       685.30000  1.99007e-06  9.99813e+07
       685.40000  1.99007e-06  1.00041e+08
       685.50000  1.99218e-06  1.00226e+08
       685.60000  1.99218e-06  1.00306e+08
       685.70000  1.99218e-06  1.00366e+08
       685.80000  1.99218e-06  1.00426e+08
       685.90000  1.99218e-06  1.00485e+08
       686.00000  1.99218e-06  1.00545e+08
       686.10000  1.99218e-06  1.00605e+08
       686.20000  1.99218e-06  1.00645e+08
       686.30000  1.99008e-06  1.00599e+08
       686.40000  1.99008e-06  1.00639e+08
       686.50000  1.99099e-06  1.00724e+08
       686.60000  1.99099e-06  1.00764e+08
       686.70000  1.99099e-06  1.00804e+08
       686.80000  1.99099e-06  1.00824e+08
       686.90000  1.99099e-06  1.00864e+08
       687.00000  1.99099e-06  1.00884e+08
       687.10000  1.99099e-06  1.00904e+08
       687.20000  1.99099e-06  1.00904e+08
       687.30000  1.99099e-06  1.00904e+08
       687.40000  1.99099e-06  1.00904e+08
       687.50000  1.99240e-06  1.00975e+08
       687.60000  1.99240e-06  1.00975e+08
       687.70000  1.99240e-06  1.00975e+08
       687.80000  1.99240e-06  1.00975e+08
       687.90000  1.99240e-06  1.00975e+08
       688.00000  1.99240e-06  1.00955e+08
       688.10000  1.99240e-06  1.00955e+08
       688.20000  1.99240e-06  1.00955e+08
       688.30000  1.99240e-06  1.00935e+08
       688.40000  1.99240e-06  1.00935e+08
       688.50000  1.99351e-06  1.00971e+08
       688.60000  1.99351e-06  1.00951e+08
       688.70000  1.99351e-06  1.00951e+08
       688.80000  1.99097e-06  1.00803e+08
       688.90000  1.99097e-06  1.00783e+08
       689.00000  1.99097e-06  1.00763e+08
       689.10000  1.99097e-06  1.00743e+08
       689.20000  1.99097e-06  1.00723e+08
       689.30000  1.99097e-06  1.00703e+08
       689.40000  1.99097e-06  1.00683e+08
       689.50000  1.99215e-06  1.00723e+08
       689.60000  1.99215e-06  1.00703e+08
       689.70000  1.99215e-06  1.00663e+08
       689.80000  1.99215e-06  1.00643e+08
       689.90000  1.99215e-06  1.00623e+08
       690.00000  1.99215e-06  1.00584e+08
       690.10000  1.99215e-06  1.00544e+08
       690.20000  1.99215e-06  1.00524e+08
       690.30000  1.99215e-06  1.00484e+08
       690.40000  1.99215e-06  1.00444e+08
       690.50000  1.95602e-06  9.86031e+07
       690.60000  1.95602e-06  9.85640e+07
       690.70000  1.95602e-06  9.85249e+07
       690.80000  1.95602e-06  9.84858e+07
       690.90000  1.95602e-06  9.84466e+07
       691.00000  1.95602e-06  9.84075e+07
       691.10000  1.95602e-06  9.84466e+07
       691.20000  1.95602e-06  9.84662e+07
       691.30000  1.95416e-06  9.84113e+07
       691.40000  1.95416e-06  9.84308e+07
       691.50000  1.79394e-06  9.03789e+07
       691.60000  1.79394e-06  9.04148e+07
       691.70000  1.79394e-06  9.04327e+07
       691.80000  1.79394e-06  9.04507e+07
       691.90000  1.79394e-06  9.04686e+07
       692.00000  1.79394e-06  9.04686e+07
       692.10000  1.79394e-06  9.04865e+07
       692.20000  1.79394e-06  9.05045e+07
       692.30000  1.79394e-06  9.05045e+07
       692.40000  1.79394e-06  9.05045e+07
       692.50000  1.86396e-06  9.40556e+07
       692.60000  1.86396e-06  9.40556e+07
       692.70000  1.86396e-06  9.40556e+07
       692.80000  1.86396e-06  9.40556e+07
       692.90000  1.86396e-06  9.40556e+07
       693.00000  1.86396e-06  9.40370e+07
       693.10000  1.86396e-06  9.40370e+07
       693.20000  1.86396e-06  9.40183e+07
       693.30000  1.86396e-06  9.39997e+07
       693.40000  1.86396e-06  9.39811e+07
       693.50000  1.82177e-06  9.18354e+07
       693.60000  1.82177e-06  9.18172e+07
       693.70000  1.82177e-06  9.17990e+07
       693.80000  1.81454e-06  9.14167e+07
       693.90000  1.81454e-06  9.13804e+07
       694.00000  1.81454e-06  9.13622e+07
       694.10000  1.81454e-06  9.13441e+07
       694.20000  1.81454e-06  9.13078e+07
       694.30000  1.81454e-06  9.12896e+07
       694.40000  1.81454e-06  9.12534e+07
       694.50000  1.70297e-06  8.56084e+07
       694.60000  1.70297e-06  8.55914e+07
       694.70000  1.70297e-06  8.55573e+07
       694.80000  1.70297e-06  8.55233e+07
       694.90000  1.70297e-06  8.54892e+07
       695.00000  1.70297e-06  8.54552e+07
       695.10000  1.70297e-06  8.54211e+07
       695.20000  1.70297e-06  8.53870e+07
       695.30000  1.70297e-06  8.53360e+07
       695.40000  1.70297e-06  8.53019e+07
       695.50000  1.60976e-06  8.06005e+07
       695.60000  1.60976e-06  8.05522e+07
       695.70000  1.60976e-06  8.05200e+07
       695.80000  1.60976e-06  8.04717e+07
       695.90000  1.60976e-06  8.04234e+07
       696.00000  1.60976e-06  8.03912e+07
       696.10000  1.60976e-06  8.03429e+07
       696.20000  1.60976e-06  8.02946e+07
       696.30000  1.60818e-06  8.01676e+07
       696.40000  1.60818e-06  8.01193e+07
       696.50000  1.59151e-06  7.92412e+07
       696.60000  1.59151e-06  7.91935e+07
       696.70000  1.59151e-06  7.91298e+07
       696.80000  1.59151e-06  7.90821e+07
       696.90000  1.59151e-06  7.90343e+07
       697.00000  1.59151e-06  7.89707e+07
       697.10000  1.59151e-06  7.90821e+07
       697.20000  1.59151e-06  7.91616e+07
       697.30000  1.59151e-06  7.92571e+07
       697.40000  1.59151e-06  7.93367e+07
       697.50000  1.54148e-06  7.69197e+07
       697.60000  1.54148e-06  7.69814e+07
       697.70000  1.54148e-06  7.70430e+07
       697.80000  1.54148e-06  7.70893e+07
       697.90000  1.54148e-06  7.71355e+07
       698.00000  1.54148e-06  7.71664e+07
       698.10000  1.54148e-06  7.71972e+07
       698.20000  1.54148e-06  7.72280e+07
       698.30000  1.54148e-06  7.72434e+07
       698.40000  1.54148e-06  7.72588e+07
       698.50000  1.52946e-06  7.66718e+07
       698.60000  1.52946e-06  7.66718e+07
       698.70000  1.52946e-06  7.66565e+07
       698.80000  1.52685e-06  7.65104e+07
       698.90000  1.52685e-06  7.64951e+07
       699.00000  1.52685e-06  7.64646e+07
       699.10000  1.52685e-06  7.63272e+07
       699.20000  1.52685e-06  7.61745e+07
       699.30000  1.52685e-06  7.60524e+07
       699.40000  1.52685e-06  7.59149e+07
       699.50000  1.38837e-06  6.89189e+07
       699.60000  1.38837e-06  6.88078e+07
       699.70000  1.38837e-06  6.87106e+07
       699.80000  1.38837e-06  6.86134e+07
       699.90000  1.38837e-06  6.85162e+07
       700.00000  1.38837e-06  6.84329e+07
       700.10000  1.38837e-06  6.83496e+07
       700.20000  1.38837e-06  6.82663e+07
       700.30000  1.38837e-06  6.81969e+07
       700.40000  1.38837e-06  6.81275e+07
       700.50000  1.44727e-06  7.09452e+07
       700.60000  1.44727e-06  7.08873e+07
       700.70000  1.44727e-06  7.08294e+07
       700.80000  1.44727e-06  7.07860e+07
       700.90000  1.44727e-06  7.07426e+07
       701.00000  1.44727e-06  7.06992e+07
       701.10000  1.44727e-06  7.06847e+07
       701.20000  1.44727e-06  7.06702e+07
       701.30000  1.44628e-06  7.06076e+07
       701.40000  1.44628e-06  7.06076e+07
       701.50000  1.44395e-06  7.04935e+07
       701.60000  1.44395e-06  7.04935e+07
       701.70000  1.44395e-06  7.04935e+07
       701.80000  1.44395e-06  7.05079e+07
       701.90000  1.44395e-06  7.05079e+07
       702.00000  1.44395e-06  7.05224e+07
       702.10000  1.44395e-06  7.05512e+07
       702.20000  1.44395e-06  7.05657e+07
       702.30000  1.44395e-06  7.05946e+07
       702.40000  1.44395e-06  7.06090e+07
       702.50000  1.42804e-06  6.98596e+07
       702.60000  1.42804e-06  6.99024e+07
       702.70000  1.42804e-06  6.99310e+07
       702.80000  1.42804e-06  6.99738e+07
       702.90000  1.42804e-06  7.00167e+07
       703.00000  1.42804e-06  7.00595e+07
       703.10000  1.42804e-06  7.01881e+07
       703.20000  1.42804e-06  7.03166e+07
       703.30000  1.42804e-06  7.04308e+07
       703.40000  1.42804e-06  7.05451e+07
       703.50000  1.36930e-06  6.77394e+07
       703.60000  1.36930e-06  6.78489e+07
       703.70000  1.36930e-06  6.79311e+07
       703.80000  1.36562e-06  6.78438e+07
       703.90000  1.36562e-06  6.79258e+07
       704.00000  1.36562e-06  6.79941e+07
       704.10000  1.36562e-06  6.80760e+07
       704.20000  1.36562e-06  6.81443e+07
       704.30000  1.36562e-06  6.81989e+07
       704.40000  1.36562e-06  6.82535e+07
       704.50000  1.28768e-06  6.44100e+07
       704.60000  1.28768e-06  6.44615e+07
       704.70000  1.28768e-06  6.45001e+07
       704.80000  1.28768e-06  6.45258e+07
       704.90000  1.28768e-06  6.45645e+07
       705.00000  1.28768e-06  6.45902e+07
       705.10000  1.28768e-06  6.46031e+07
       705.20000  1.28768e-06  6.46160e+07
       705.30000  1.28768e-06  6.46289e+07
       705.40000  1.28768e-06  6.46417e+07
       705.50000  1.46336e-06  7.34605e+07
       705.60000  1.46336e-06  7.34605e+07
       705.70000  1.46336e-06  7.34459e+07
       705.80000  1.46336e-06  7.34312e+07
       705.90000  1.46336e-06  7.34166e+07
       706.00000  1.46336e-06  7.33873e+07
       706.10000  1.46336e-06  7.33581e+07
       706.20000  1.46336e-06  7.33142e+07
       706.30000  1.46446e-06  7.33253e+07
       706.40000  1.46446e-06  7.32814e+07
       706.50000  1.31978e-06  6.59891e+07
       706.60000  1.31978e-06  6.59363e+07
       706.70000  1.31978e-06  6.58835e+07
       706.80000  1.31978e-06  6.58175e+07
       706.90000  1.31978e-06  6.57515e+07
       707.00000  1.31978e-06  6.56856e+07
       707.10000  1.31978e-06  6.56328e+07
       707.20000  1.31978e-06  6.55932e+07
       707.30000  1.31978e-06  6.55404e+07
       707.40000  1.31978e-06  6.55008e+07
       707.50000  1.13660e-06  5.63754e+07
       707.60000  1.13660e-06  5.63413e+07
       707.70000  1.13660e-06  5.63185e+07
       707.80000  1.13660e-06  5.62844e+07
       707.90000  1.13660e-06  5.62617e+07
       708.00000  1.13660e-06  5.62390e+07
       708.10000  1.13660e-06  5.62162e+07
       708.20000  1.13660e-06  5.61935e+07
       708.30000  1.13660e-06  5.61708e+07
       708.40000  1.13660e-06  5.61480e+07
       708.50000  1.28787e-06  6.36080e+07
       708.60000  1.28787e-06  6.35822e+07
       708.70000  1.28787e-06  6.35693e+07
       708.80000  1.28349e-06  6.33401e+07
       708.90000  1.28349e-06  6.33272e+07
       709.00000  1.28349e-06  6.33272e+07
       709.10000  1.28349e-06  6.33529e+07
       709.20000  1.28349e-06  6.33786e+07
       709.30000  1.28349e-06  6.33914e+07
       709.40000  1.28349e-06  6.34171e+07
       709.50000  1.22441e-06  6.05103e+07
       709.60000  1.22441e-06  6.05348e+07
       709.70000  1.22441e-06  6.05470e+07
       709.80000  1.22441e-06  6.05593e+07
       709.90000  1.22441e-06  6.05715e+07
       710.00000  1.22441e-06  6.05837e+07
       710.10000  1.22441e-06  6.05960e+07
       710.20000  1.22441e-06  6.06082e+07
       710.30000  1.22441e-06  6.06082e+07
       710.40000  1.22441e-06  6.06205e+07
       710.50000  1.20904e-06  5.98597e+07
       710.60000  1.20904e-06  5.98597e+07
       710.70000  1.20904e-06  5.98597e+07
       710.80000  1.20904e-06  5.98597e+07
       710.90000  1.20904e-06  5.98597e+07
       711.00000  1.20904e-06  5.98597e+07
       711.10000  1.20904e-06  5.98597e+07
       711.20000  1.20904e-06  5.98476e+07
       711.30000  1.20930e-06  5.98605e+07
       711.40000  1.20930e-06  5.98484e+07
       711.50000  1.18506e-06  5.86367e+07
       711.60000  1.18506e-06  5.86249e+07
       711.70000  1.18506e-06  5.86130e+07
       711.80000  1.18506e-06  5.86012e+07
       711.90000  1.18506e-06  5.85893e+07
       712.00000  1.18506e-06  5.85656e+07
       712.10000  1.18506e-06  5.85538e+07
       712.20000  1.18506e-06  5.85301e+07
       712.30000  1.18506e-06  5.85182e+07
       712.40000  1.18506e-06  5.84945e+07
       712.50000  1.20017e-06  5.92165e+07
       712.60000  1.20017e-06  5.91925e+07
       712.70000  1.20017e-06  5.91565e+07
       712.80000  1.20017e-06  5.91325e+07
       712.90000  1.20017e-06  5.91085e+07
       713.00000  1.20017e-06  5.90725e+07
       713.10000  1.20017e-06  5.90725e+07
       713.20000  1.20017e-06  5.90725e+07
       713.30000  1.20017e-06  5.90725e+07
       713.40000  1.20017e-06  5.90605e+07
       713.50000  1.10511e-06  5.43826e+07
       713.60000  1.10511e-06  5.43826e+07
       713.70000  1.10511e-06  5.43715e+07
       713.80000  1.10485e-06  5.43588e+07
       713.90000  1.10485e-06  5.43478e+07
       714.00000  1.10485e-06  5.43478e+07
       714.10000  1.10485e-06  5.43368e+07
       714.20000  1.10485e-06  5.43257e+07
       714.30000  1.10485e-06  5.43257e+07
       714.40000  1.10485e-06  5.43147e+07
       714.50000  1.20418e-06  5.91856e+07
       714.60000  1.20418e-06  5.91735e+07
       714.70000  1.20418e-06  5.91735e+07
       714.80000  1.20418e-06  5.91615e+07
       714.90000  1.20418e-06  5.91495e+07
       715.00000  1.20418e-06  5.91374e+07
       715.10000  1.20418e-06  5.91254e+07
       715.20000  1.20418e-06  5.91254e+07
       715.30000  1.20418e-06  5.91254e+07
       715.40000  1.20418e-06  5.91133e+07
       715.50000  1.12895e-06  5.54090e+07
       715.60000  1.12895e-06  5.53977e+07
       715.70000  1.12895e-06  5.53865e+07
       715.80000  1.12895e-06  5.53752e+07
       715.90000  1.12895e-06  5.53639e+07
       716.00000  1.12895e-06  5.53413e+07
       716.10000  1.12895e-06  5.53300e+07
       716.20000  1.12895e-06  5.53074e+07
       716.30000  1.12733e-06  5.52051e+07
       716.40000  1.12733e-06  5.51826e+07
       716.50000  1.21367e-06  5.93849e+07
       716.60000  1.21367e-06  5.93606e+07
       716.70000  1.21367e-06  5.93363e+07
       716.80000  1.21367e-06  5.92999e+07
       716.90000  1.21367e-06  5.92756e+07
       717.00000  1.21367e-06  5.92392e+07
       717.10000  1.21367e-06  5.92028e+07
       717.20000  1.21367e-06  5.91664e+07
       717.30000  1.21367e-06  5.91300e+07
       717.40000  1.21367e-06  5.90936e+07
       717.50000  1.22937e-06  5.98213e+07
       717.60000  1.22937e-06  5.97722e+07
       717.70000  1.22937e-06  5.97353e+07
       717.80000  1.22937e-06  5.96861e+07
       717.90000  1.22937e-06  5.96369e+07
       718.00000  1.22937e-06  5.95878e+07
       718.10000  1.22937e-06  5.95386e+07
       718.20000  1.22937e-06  5.94894e+07
       718.30000  1.22937e-06  5.94402e+07
       718.40000  1.22937e-06  5.93788e+07
       718.50000  1.23754e-06  5.97235e+07
       718.60000  1.23754e-06  5.96616e+07
       718.70000  1.23754e-06  5.95997e+07
       718.80000  1.23245e-06  5.92933e+07
       718.90000  1.23245e-06  5.92317e+07
       719.00000  1.23245e-06  5.91701e+07
       719.10000  1.23245e-06  5.91701e+07
       719.20000  1.23245e-06  5.91701e+07
       719.30000  1.23245e-06  5.91701e+07
       719.40000  1.23245e-06  5.91824e+07
       719.50000  1.15248e-06  5.53422e+07
       719.60000  1.15248e-06  5.53538e+07
       719.70000  1.15248e-06  5.53538e+07
       719.80000  1.15248e-06  5.53653e+07
       719.90000  1.15248e-06  5.53768e+07
       720.00000  1.15248e-06  5.53999e+07
       720.10000  1.15248e-06  5.54114e+07
       720.20000  1.15248e-06  5.54229e+07
       720.30000  1.15248e-06  5.54460e+07
       720.40000  1.15248e-06  5.54575e+07
       720.50000  1.05168e-06  5.06280e+07
       720.60000  1.05168e-06  5.06490e+07
       720.70000  1.05168e-06  5.06700e+07
       720.80000  1.05168e-06  5.06911e+07
       720.90000  1.05168e-06  5.07226e+07
       721.00000  1.05168e-06  5.07437e+07
       721.10000  1.05168e-06  5.07962e+07
       721.20000  1.05168e-06  5.08488e+07
       721.30000  1.04954e-06  5.07978e+07
       721.40000  1.04954e-06  5.08398e+07
       721.50000  7.58780e-07  3.67932e+07
       721.60000  7.58780e-07  3.68236e+07
       721.70000  7.58780e-07  3.68539e+07
       721.80000  7.58780e-07  3.68919e+07
       721.90000  7.58780e-07  3.69222e+07
       722.00000  7.58780e-07  3.69450e+07
       722.10000  7.58780e-07  3.69753e+07
       722.20000  7.58780e-07  3.70057e+07
       722.30000  7.58780e-07  3.70284e+07
       722.40000  7.58780e-07  3.70512e+07
       722.50000  8.86348e-07  4.33069e+07
       722.60000  8.86348e-07  4.33424e+07
       722.70000  8.86348e-07  4.33601e+07
       722.80000  8.86348e-07  4.33867e+07
       722.90000  8.86348e-07  4.34133e+07
       723.00000  8.86348e-07  4.34310e+07
       723.10000  8.86348e-07  4.34576e+07
       723.20000  8.86348e-07  4.34753e+07
       723.30000  8.86348e-07  4.34931e+07
       723.40000  8.86348e-07  4.35108e+07
       723.50000  7.52978e-07  3.69787e+07
       723.60000  7.52978e-07  3.69863e+07
       723.70000  7.52978e-07  3.70013e+07
       723.80000  7.50668e-07  3.68953e+07
       723.90000  7.50668e-07  3.69028e+07
       724.00000  7.50668e-07  3.69103e+07
       724.10000  7.50668e-07  3.69178e+07
       724.20000  7.50668e-07  3.69253e+07
       724.30000  7.50668e-07  3.69328e+07
       724.40000  7.50668e-07  3.69404e+07
       724.50000  6.30190e-07  3.10117e+07
       724.60000  6.30190e-07  3.10117e+07
       724.70000  6.30190e-07  3.10117e+07
       724.80000  6.30190e-07  3.10117e+07
       724.90000  6.30190e-07  3.10117e+07
       725.00000  6.30190e-07  3.10117e+07
       725.10000  6.30190e-07  3.10243e+07
       725.20000  6.30190e-07  3.10369e+07
       725.30000  6.30190e-07  3.10432e+07
       725.40000  6.30190e-07  3.10558e+07
       725.50000  4.89214e-07  2.41134e+07
       725.60000  4.89214e-07  2.41183e+07
       725.70000  4.89214e-07  2.41183e+07
       725.80000  4.89214e-07  2.41232e+07
       725.90000  4.89214e-07  2.41232e+07
       726.00000  4.89214e-07  2.41232e+07
       726.10000  4.89214e-07  2.41232e+07
       726.20000  4.89214e-07  2.41232e+07
       726.30000  4.87941e-07  2.40555e+07
       726.40000  4.87941e-07  2.40506e+07
       726.50000  6.09193e-07  3.00210e+07
       726.60000  6.09193e-07  3.00149e+07
       726.70000  6.09193e-07  3.00088e+07
       726.80000  6.09193e-07  2.99967e+07
       726.90000  6.09193e-07  2.99845e+07
       727.00000  6.09193e-07  2.99723e+07
       727.10000  6.09193e-07  2.99296e+07
       727.20000  6.09193e-07  2.98870e+07
       727.30000  6.09193e-07  2.98444e+07
       727.40000  6.09193e-07  2.98078e+07
       727.50000  4.03518e-07  1.97199e+07
       727.60000  4.03518e-07  1.96957e+07
       727.70000  4.03518e-07  1.96755e+07
       727.80000  4.03518e-07  1.96554e+07
       727.90000  4.03518e-07  1.96352e+07
       728.00000  4.03518e-07  1.96190e+07
       728.10000  4.03518e-07  1.96029e+07
       728.20000  4.03518e-07  1.95868e+07
       728.30000  4.03518e-07  1.95706e+07
       728.40000  4.03518e-07  1.95585e+07
       728.50000  3.96386e-07  1.92009e+07
       728.60000  3.96386e-07  1.91930e+07
       728.70000  3.96386e-07  1.91811e+07
       728.80000  3.96470e-07  1.91812e+07
       728.90000  3.96470e-07  1.91733e+07
       729.00000  3.96470e-07  1.91693e+07
       729.10000  3.96470e-07  1.91653e+07
       729.20000  3.96470e-07  1.91614e+07
       729.30000  3.96470e-07  1.91614e+07
       729.40000  3.96470e-07  1.91574e+07
       729.50000  4.08549e-07  1.97452e+07
       729.60000  4.08549e-07  1.97452e+07
       729.70000  4.08549e-07  1.97493e+07
       729.80000  4.08549e-07  1.97533e+07
       729.90000  4.08549e-07  1.97615e+07
       730.00000  4.08549e-07  1.97697e+07
       730.10000  4.08549e-07  1.97778e+07
       730.20000  4.08549e-07  1.97860e+07
       730.30000  4.08549e-07  1.97983e+07
       730.40000  4.08549e-07  1.98105e+07
       730.50000  3.44248e-07  1.67029e+07
       730.60000  3.44248e-07  1.67167e+07
       730.70000  3.44248e-07  1.67304e+07
       730.80000  3.44248e-07  1.67442e+07
       730.90000  3.44248e-07  1.67614e+07
       731.00000  3.44248e-07  1.67786e+07
       731.10000  3.44248e-07  1.67752e+07
       731.20000  3.44248e-07  1.67718e+07
       731.30000  3.43995e-07  1.67560e+07
       731.40000  3.43995e-07  1.67560e+07
       731.50000  4.96757e-07  2.41921e+07
       731.60000  4.96757e-07  2.41871e+07
       731.70000  4.96757e-07  2.41821e+07
       731.80000  4.96757e-07  2.41821e+07
       731.90000  4.96757e-07  2.41772e+07
       732.00000  4.96757e-07  2.41722e+07
       732.10000  4.96757e-07  2.41672e+07
       732.20000  4.96757e-07  2.41623e+07
       732.30000  4.96757e-07  2.41623e+07
       732.40000  4.96757e-07  2.41573e+07
       732.50000  3.14371e-07  1.52847e+07
       732.60000  3.14371e-07  1.52816e+07
       732.70000  3.14371e-07  1.52784e+07
       732.80000  3.14371e-07  1.52753e+07
       732.90000  3.14371e-07  1.52722e+07
       733.00000  3.14371e-07  1.52690e+07
       733.10000  3.14371e-07  1.52659e+07
       733.20000  3.14371e-07  1.52596e+07
       733.30000  3.14371e-07  1.52564e+07
       733.40000  3.14371e-07  1.52502e+07
       733.50000  2.94329e-07  1.42750e+07
       733.60000  2.94329e-07  1.42720e+07
       733.70000  2.94329e-07  1.42661e+07
       733.80000  2.93843e-07  1.42396e+07
       733.90000  2.93843e-07  1.42367e+07
       734.00000  2.93843e-07  1.42338e+07
       734.10000  2.93843e-07  1.42308e+07
       734.20000  2.93843e-07  1.42279e+07
       734.30000  2.93843e-07  1.42249e+07
       734.40000  2.93843e-07  1.42249e+07
       734.50000  2.34124e-07  1.13316e+07
       734.60000  2.34124e-07  1.13292e+07
       734.70000  2.34124e-07  1.13292e+07
       734.80000  2.34124e-07  1.13269e+07
       734.90000  2.34124e-07  1.13269e+07
       735.00000  2.34124e-07  1.13246e+07
       735.10000  2.34124e-07  1.13246e+07
       735.20000  2.34124e-07  1.13246e+07
       735.30000  2.34124e-07  1.13246e+07
       735.40000  2.34124e-07  1.13222e+07
       735.50000  2.60562e-07  1.26008e+07
       735.60000  2.60562e-07  1.26008e+07
       735.70000  2.60562e-07  1.26008e+07
       735.80000  2.60562e-07  1.26034e+07
       735.90000  2.60562e-07  1.26034e+07
       736.00000  2.60562e-07  1.26034e+07
       736.10000  2.60562e-07  1.26034e+07
       736.20000  2.60562e-07  1.26060e+07
       736.30000  2.60065e-07  1.25819e+07
       736.40000  2.60065e-07  1.25845e+07
       736.50000  2.13452e-07  1.03289e+07
       736.60000  2.13452e-07  1.03311e+07
       736.70000  2.13452e-07  1.03332e+07
       736.80000  2.13452e-07  1.03332e+07
       736.90000  2.13452e-07  1.03353e+07
       737.00000  2.13452e-07  1.03375e+07
       737.10000  2.13452e-07  1.03268e+07
       737.20000  2.13452e-07  1.03140e+07
       737.30000  2.13452e-07  1.03033e+07
       737.40000  2.13452e-07  1.02926e+07
       737.50000  2.98218e-07  1.43622e+07
       737.60000  2.98218e-07  1.43472e+07
       737.70000  2.98218e-07  1.43323e+07
       737.80000  2.98218e-07  1.43174e+07
       737.90000  2.98218e-07  1.43055e+07
       738.00000  2.98218e-07  1.42906e+07
       738.10000  2.98218e-07  1.42757e+07
       738.20000  2.98218e-07  1.42608e+07
       738.30000  2.98218e-07  1.42488e+07
       738.40000  2.98218e-07  1.42369e+07
       738.50000  2.49097e-07  1.18794e+07
       738.60000  2.49097e-07  1.18695e+07
       738.70000  2.49097e-07  1.18595e+07
       738.80000  2.48050e-07  1.17998e+07
       738.90000  2.48050e-07  1.17898e+07
       739.00000  2.48050e-07  1.17799e+07
       739.10000  2.48050e-07  1.17601e+07
       739.20000  2.48050e-07  1.17427e+07
       739.30000  2.48050e-07  1.17278e+07
       739.40000  2.48050e-07  1.17129e+07
       739.50000  2.44935e-07  1.15512e+07
       739.60000  2.44935e-07  1.15389e+07
       739.70000  2.44935e-07  1.15291e+07
       739.80000  2.44935e-07  1.15169e+07
       739.90000  2.44935e-07  1.15095e+07
       740.00000  2.44935e-07  1.14997e+07
       740.10000  2.44935e-07  1.14948e+07
       740.20000  2.44935e-07  1.14875e+07
       740.30000  2.44935e-07  1.14826e+07
       740.40000  2.44935e-07  1.14801e+07
       740.50000  2.15212e-07  1.00848e+07
       740.60000  2.15212e-07  1.00827e+07
       740.70000  2.15212e-07  1.00827e+07
       740.80000  2.15212e-07  1.00827e+07
       740.90000  2.15212e-07  1.00848e+07
       741.00000  2.15212e-07  1.00870e+07
       741.10000  2.15212e-07  1.00913e+07
       741.20000  2.15212e-07  1.00956e+07
       741.30000  2.15065e-07  1.00930e+07
       741.40000  2.15065e-07  1.00995e+07
       741.50000  2.28884e-07  1.07552e+07
       741.60000  2.28884e-07  1.07644e+07
       741.70000  2.28884e-07  1.07758e+07
       741.80000  2.28884e-07  1.07850e+07
       741.90000  2.28884e-07  1.07987e+07
       742.00000  2.28884e-07  1.08102e+07
       742.10000  2.28884e-07  1.08239e+07
       742.20000  2.28884e-07  1.08399e+07
       742.30000  2.28884e-07  1.08559e+07
       742.40000  2.28884e-07  1.08720e+07
       742.50000  3.15789e-07  1.50252e+07
       742.60000  3.15789e-07  1.50505e+07
       742.70000  3.15789e-07  1.50789e+07
       742.80000  3.15789e-07  1.51074e+07
       742.90000  3.15789e-07  1.51389e+07
       743.00000  3.15789e-07  1.51705e+07
       743.10000  3.15789e-07  1.51642e+07
       743.20000  3.15789e-07  1.51610e+07
       743.30000  3.15789e-07  1.51579e+07
       743.40000  3.15789e-07  1.51516e+07
       743.50000  3.56445e-08  1.70987e+06
       743.60000  3.56445e-08  1.70951e+06
       743.70000  3.56445e-08  1.70915e+06
       743.80000  3.56286e-08  1.70803e+06
       743.90000  3.56286e-08  1.70768e+06
       744.00000  3.56286e-08  1.70732e+06
       744.10000  3.56286e-08  1.70732e+06
       744.20000  3.56286e-08  1.70696e+06
       744.30000  3.56286e-08  1.70696e+06
       744.40000  3.56286e-08  1.70696e+06
       744.50000  9.85510e-08  4.72059e+06
       744.60000  9.85510e-08  4.72059e+06
       744.70000  9.85510e-08  4.72059e+06
       744.80000  9.85510e-08  4.72059e+06
       744.90000  9.85510e-08  4.72158e+06
       745.00000  9.85510e-08  4.72158e+06
       745.10000  9.85510e-08  4.72454e+06
       745.20000  9.85510e-08  4.72749e+06
       745.30000  9.85510e-08  4.72946e+06
       745.40000  9.85510e-08  4.73242e+06
       745.50000  3.54128e-07  1.70123e+07
       745.60000  3.54128e-07  1.70194e+07
       745.70000  3.54128e-07  1.70265e+07
       745.80000  3.54128e-07  1.70336e+07
       745.90000  3.54128e-07  1.70371e+07
       746.00000  3.54128e-07  1.70442e+07
       746.10000  3.54128e-07  1.70477e+07
       746.20000  3.54128e-07  1.70513e+07
       746.30000  3.52513e-07  1.69770e+07
       746.40000  3.52513e-07  1.69806e+07
       746.50000  2.22199e-07  1.07056e+07
       746.60000  2.22199e-07  1.07056e+07
       746.70000  2.22199e-07  1.07078e+07
       746.80000  2.22199e-07  1.07078e+07
       746.90000  2.22199e-07  1.07078e+07
       747.00000  2.22199e-07  1.07078e+07
       747.10000  2.22199e-07  1.07011e+07
       747.20000  2.22199e-07  1.06967e+07
       747.30000  2.22199e-07  1.06922e+07
       747.40000  2.22199e-07  1.06878e+07
       747.50000  1.94218e-07  9.33802e+06
       747.60000  1.94218e-07  9.33414e+06
       747.70000  1.94218e-07  9.33025e+06
       747.80000  1.94218e-07  9.32637e+06
       747.90000  1.94218e-07  9.32248e+06
       748.00000  1.94218e-07  9.31860e+06
       748.10000  1.94218e-07  9.31666e+06
       748.20000  1.94218e-07  9.31277e+06
       748.30000  1.94218e-07  9.30889e+06
       748.40000  1.94218e-07  9.30694e+06
       748.50000  1.69596e-07  8.12366e+06
       748.60000  1.69596e-07  8.12027e+06
       748.70000  1.69596e-07  8.11857e+06
       748.80000  1.68998e-07  8.08657e+06
       748.90000  1.68998e-07  8.08488e+06
       749.00000  1.68998e-07  8.08319e+06
       749.10000  1.68998e-07  8.07981e+06
       749.20000  1.68998e-07  8.07812e+06
       749.30000  1.68998e-07  8.07643e+06
       749.40000  1.68998e-07  8.07474e+06
       749.50000  2.74860e-07  1.31301e+07
       749.60000  2.74860e-07  1.31273e+07
       749.70000  2.74860e-07  1.31218e+07
       749.80000  2.74860e-07  1.31191e+07
       749.90000  2.74860e-07  1.31191e+07
       750.00000  2.74860e-07  1.31163e+07
       750.10000  2.74860e-07  1.31136e+07
       750.20000  2.74860e-07  1.31108e+07
       750.30000  2.74860e-07  1.31081e+07
       750.40000  2.74860e-07  1.31081e+07
       750.50000  3.20610e-07  1.52867e+07
       750.60000  3.20610e-07  1.52835e+07
       750.70000  3.20610e-07  1.52835e+07
       750.80000  3.20610e-07  1.52802e+07
       750.90000  3.20610e-07  1.52802e+07
       751.00000  3.20610e-07  1.52770e+07
       751.10000  3.20610e-07  1.52770e+07
       751.20000  3.20610e-07  1.52770e+07
       751.30000  3.19892e-07  1.52397e+07
       751.40000  3.19892e-07  1.52397e+07
       751.50000  2.83523e-07  1.35071e+07
       751.60000  2.83523e-07  1.35071e+07
       751.70000  2.83523e-07  1.35071e+07
       751.80000  2.83523e-07  1.35071e+07
       751.90000  2.83523e-07  1.35071e+07
       752.00000  2.83523e-07  1.35071e+07
       752.10000  2.83523e-07  1.35071e+07
       752.20000  2.83523e-07  1.35071e+07
       752.30000  2.83523e-07  1.35071e+07
       752.40000  2.83523e-07  1.35071e+07
       752.50000  2.45658e-07  1.17056e+07
       752.60000  2.45658e-07  1.17056e+07
       752.70000  2.45658e-07  1.17056e+07
       752.80000  2.45658e-07  1.17080e+07
       752.90000  2.45658e-07  1.17080e+07
       753.00000  2.45658e-07  1.17105e+07
       753.10000  2.45658e-07  1.17105e+07
       753.20000  2.45658e-07  1.17105e+07
       753.30000  2.45658e-07  1.17105e+07
       753.40000  2.45658e-07  1.17105e+07
       753.50000  3.33646e-07  1.59049e+07
       753.60000  3.33646e-07  1.59049e+07
       753.70000  3.33646e-07  1.59049e+07
       753.80000  3.33477e-07  1.58969e+07
       753.90000  3.33477e-07  1.58969e+07
       754.00000  3.33477e-07  1.58969e+07
       754.10000  3.33477e-07  1.58969e+07
       754.20000  3.33477e-07  1.58935e+07
       754.30000  3.33477e-07  1.58935e+07
       754.40000  3.33477e-07  1.58935e+07
       754.50000  2.26238e-07  1.07825e+07
       754.60000  2.26238e-07  1.07825e+07
       754.70000  2.26238e-07  1.07802e+07
       754.80000  2.26238e-07  1.07802e+07
       754.90000  2.26238e-07  1.07780e+07
       755.00000  2.26238e-07  1.07780e+07
       755.10000  2.26238e-07  1.07757e+07
       755.20000  2.26238e-07  1.07757e+07
       755.30000  2.26238e-07  1.07734e+07
       755.40000  2.26238e-07  1.07734e+07
       755.50000  2.53050e-07  1.20477e+07
       755.60000  2.53050e-07  1.20452e+07
       755.70000  2.53050e-07  1.20452e+07
       755.80000  2.53050e-07  1.20426e+07
       755.90000  2.53050e-07  1.20401e+07
       756.00000  2.53050e-07  1.20401e+07
       756.10000  2.53050e-07  1.20376e+07
       756.20000  2.53050e-07  1.20351e+07
       756.30000  2.52647e-07  1.20134e+07
       756.40000  2.52647e-07  1.20134e+07
       756.50000  2.95274e-07  1.40373e+07
       756.60000  2.95274e-07  1.40344e+07
       756.70000  2.95274e-07  1.40314e+07
       756.80000  2.95274e-07  1.40314e+07
       756.90000  2.95274e-07  1.40285e+07
       757.00000  2.95274e-07  1.40255e+07
       757.10000  2.95274e-07  1.40226e+07
       757.20000  2.95274e-07  1.40196e+07
       757.30000  2.95274e-07  1.40196e+07
       757.40000  2.95274e-07  1.40167e+07
       757.50000  3.21273e-07  1.52476e+07
       757.60000  3.21273e-07  1.52444e+07
       757.70000  3.21273e-07  1.52412e+07
       757.80000  3.21273e-07  1.52380e+07
       757.90000  3.21273e-07  1.52348e+07
       758.00000  3.21273e-07  1.52348e+07
       758.10000  3.21273e-07  1.52315e+07
       758.20000  3.21273e-07  1.52283e+07
       758.30000  3.21273e-07  1.52251e+07
       758.40000  3.21273e-07  1.52219e+07
       758.50000  2.62533e-07  1.24362e+07
       758.60000  2.62533e-07  1.24336e+07
       758.70000  2.62533e-07  1.24309e+07
       758.80000  2.61824e-07  1.23948e+07
       758.90000  2.61824e-07  1.23921e+07
       759.00000  2.61824e-07  1.23895e+07
       759.10000  2.61824e-07  1.23895e+07
       759.20000  2.61824e-07  1.23869e+07
       759.30000  2.61824e-07  1.23869e+07
       759.40000  2.61824e-07  1.23843e+07
       759.50000  2.82394e-07  1.33572e+07
       759.60000  2.82394e-07  1.33572e+07
       759.70000  2.82394e-07  1.33544e+07
       759.80000  2.82394e-07  1.33544e+07
       759.90000  2.82394e-07  1.33544e+07
       760.00000  2.82394e-07  1.33544e+07
       760.10000  2.82394e-07  1.33544e+07
       760.20000  2.82394e-07  1.33544e+07
       760.30000  2.82394e-07  1.33572e+07
       760.40000  2.82394e-07  1.33572e+07
       760.50000  2.66476e-07  1.26043e+07
       760.60000  2.66476e-07  1.26070e+07
       760.70000  2.66476e-07  1.26070e+07
       760.80000  2.66476e-07  1.26096e+07
       760.90000  2.66476e-07  1.26096e+07
       761.00000  2.66476e-07  1.26123e+07
       761.10000  2.66476e-07  1.26229e+07
       761.20000  2.66476e-07  1.26309e+07
       761.30000  2.65922e-07  1.26127e+07
       761.40000  2.65922e-07  1.26206e+07
       761.50000  3.06554e-07  1.45582e+07
       761.60000  3.06554e-07  1.45644e+07
       761.70000  3.06554e-07  1.45705e+07
       761.80000  3.06554e-07  1.45766e+07
       761.90000  3.06554e-07  1.45828e+07
       762.00000  3.06554e-07  1.45858e+07
       762.10000  3.06554e-07  1.45920e+07
       762.20000  3.06554e-07  1.45950e+07
       762.30000  3.06554e-07  1.45981e+07
       762.40000  3.06554e-07  1.45981e+07
       762.50000  2.13412e-07  1.01627e+07
       762.60000  2.13412e-07  1.01648e+07
       762.70000  2.13412e-07  1.01648e+07
       762.80000  2.13412e-07  1.01627e+07
       762.90000  2.13412e-07  1.01627e+07
       763.00000  2.13412e-07  1.01606e+07
       763.10000  2.13412e-07  1.01584e+07
       763.20000  2.13412e-07  1.01563e+07
       763.30000  2.13412e-07  1.01520e+07
       763.40000  2.13412e-07  1.01477e+07
       763.50000  2.72491e-07  1.29515e+07
       763.60000  2.72491e-07  1.29460e+07
       763.70000  2.72491e-07  1.29406e+07
       763.80000  2.71794e-07  1.28993e+07
       763.90000  2.71794e-07  1.28912e+07
       764.00000  2.71794e-07  1.28830e+07
       764.10000  2.71794e-07  1.28749e+07
       764.20000  2.71794e-07  1.28640e+07
       764.30000  2.71794e-07  1.28531e+07
       764.40000  2.71794e-07  1.28422e+07
       764.50000  2.59554e-07  1.22535e+07
       764.60000  2.59554e-07  1.22432e+07
       764.70000  2.59554e-07  1.22302e+07
       764.80000  2.59554e-07  1.22172e+07
       764.90000  2.59554e-07  1.22042e+07
       765.00000  2.59554e-07  1.21887e+07
       765.10000  2.59554e-07  1.21601e+07
       765.20000  2.59554e-07  1.21316e+07
       765.30000  2.59554e-07  1.21056e+07
       765.40000  2.59554e-07  1.20796e+07
       765.50000  2.85830e-07  1.32768e+07
       765.60000  2.85830e-07  1.32539e+07
       765.70000  2.85830e-07  1.32282e+07
       765.80000  2.85830e-07  1.32082e+07
       765.90000  2.85830e-07  1.31882e+07
       766.00000  2.85830e-07  1.31682e+07
       766.10000  2.85830e-07  1.31510e+07
       766.20000  2.85830e-07  1.31339e+07
       766.30000  2.85822e-07  1.31192e+07
       766.40000  2.85822e-07  1.31078e+07
       766.50000  3.44348e-07  1.57780e+07
       766.60000  3.44348e-07  1.57642e+07
       766.70000  3.44348e-07  1.57573e+07
       766.80000  3.44348e-07  1.57470e+07
       766.90000  3.44348e-07  1.57401e+07
       767.00000  3.44348e-07  1.57367e+07
       767.10000  3.44348e-07  1.57539e+07
       767.20000  3.44348e-07  1.57746e+07
       767.30000  3.44348e-07  1.57918e+07
       767.40000  3.44348e-07  1.58090e+07
       767.50000  3.64709e-07  1.67620e+07
       767.60000  3.64709e-07  1.67803e+07
       767.70000  3.64709e-07  1.67985e+07
       767.80000  3.64709e-07  1.68131e+07
       767.90000  3.64709e-07  1.68313e+07
       768.00000  3.64709e-07  1.68459e+07
       768.10000  3.64709e-07  1.68605e+07
       768.20000  3.64709e-07  1.68751e+07
       768.30000  3.64709e-07  1.68860e+07
       768.40000  3.64709e-07  1.69006e+07
       768.50000  3.21950e-07  1.49288e+07
       768.60000  3.21950e-07  1.49385e+07
       768.70000  3.21950e-07  1.49481e+07
       768.80000  3.21779e-07  1.49498e+07
       768.90000  3.21779e-07  1.49595e+07
       769.00000  3.21779e-07  1.49659e+07
       769.10000  3.21779e-07  1.49756e+07
       769.20000  3.21779e-07  1.49820e+07
       769.30000  3.21779e-07  1.49885e+07
       769.40000  3.21779e-07  1.49949e+07
       769.50000  2.90418e-07  1.35364e+07
       769.60000  2.90418e-07  1.35422e+07
       769.70000  2.90418e-07  1.35451e+07
       769.80000  2.90418e-07  1.35509e+07
       769.90000  2.90418e-07  1.35538e+07
       770.00000  2.90418e-07  1.35538e+07
       770.10000  2.90418e-07  1.35567e+07
       770.20000  2.90418e-07  1.35596e+07
       770.30000  2.90418e-07  1.35596e+07
       770.40000  2.90418e-07  1.35596e+07
       770.50000  2.40548e-07  1.12312e+07
       770.60000  2.40548e-07  1.12312e+07
       770.70000  2.40548e-07  1.12312e+07
       770.80000  2.40548e-07  1.12312e+07
       770.90000  2.40548e-07  1.12288e+07
       771.00000  2.40548e-07  1.12264e+07
       771.10000  2.40548e-07  1.12360e+07
       771.20000  2.40548e-07  1.12432e+07
       771.30000  2.39812e-07  1.12160e+07
       771.40000  2.39812e-07  1.12232e+07
       771.50000  2.38108e-07  1.11506e+07
       771.60000  2.38108e-07  1.11554e+07
       771.70000  2.38108e-07  1.11625e+07
       771.80000  2.38108e-07  1.11673e+07
       771.90000  2.38108e-07  1.11697e+07
       772.00000  2.38108e-07  1.11744e+07
       772.10000  2.38108e-07  1.11768e+07
       772.20000  2.38108e-07  1.11792e+07
       772.30000  2.38108e-07  1.11816e+07
       772.40000  2.38108e-07  1.11840e+07
       772.50000  4.19280e-07  1.96936e+07
       772.60000  4.19280e-07  1.96936e+07
       772.70000  4.19280e-07  1.96936e+07
       772.80000  4.19280e-07  1.96894e+07
       772.90000  4.19280e-07  1.96894e+07
       773.00000  4.19280e-07  1.96852e+07
       773.10000  4.19280e-07  1.96601e+07
       773.20000  4.19280e-07  1.96391e+07
       773.30000  4.19280e-07  1.96139e+07
       773.40000  4.19280e-07  1.95930e+07
       773.50000  3.87022e-07  1.80662e+07
       773.60000  3.87022e-07  1.80507e+07
       773.70000  3.87022e-07  1.80352e+07
       773.80000  3.85491e-07  1.79485e+07
       773.90000  3.85491e-07  1.79331e+07
       774.00000  3.85491e-07  1.79176e+07
       774.10000  3.85491e-07  1.79061e+07
       774.20000  3.85491e-07  1.78945e+07
       774.30000  3.85491e-07  1.78868e+07
       774.40000  3.85491e-07  1.78752e+07
       774.50000  2.96051e-07  1.37220e+07
       774.60000  2.96051e-07  1.37190e+07
       774.70000  2.96051e-07  1.37131e+07
       774.80000  2.96051e-07  1.37101e+07
       774.90000  2.96051e-07  1.37072e+07
       775.00000  2.96051e-07  1.37042e+07
       775.10000  2.96051e-07  1.37042e+07
       775.20000  2.96051e-07  1.37042e+07
       775.30000  2.96051e-07  1.37042e+07
       775.40000  2.96051e-07  1.37042e+07
       775.50000  3.51623e-07  1.62802e+07
       775.60000  3.51623e-07  1.62837e+07
       775.70000  3.51623e-07  1.62872e+07
       775.80000  3.51623e-07  1.62907e+07
       775.90000  3.51623e-07  1.62977e+07
       776.00000  3.51623e-07  1.63048e+07
       776.10000  3.51623e-07  1.63118e+07
       776.20000  3.51623e-07  1.63224e+07
       776.30000  3.50732e-07  1.62915e+07
       776.40000  3.50732e-07  1.63020e+07
       776.50000  2.93661e-07  1.36582e+07
       776.60000  2.93661e-07  1.36699e+07
       776.70000  2.93661e-07  1.36817e+07
       776.80000  2.93661e-07  1.36934e+07
       776.90000  2.93661e-07  1.37081e+07
       777.00000  2.93661e-07  1.37198e+07
       777.10000  2.93661e-07  1.37140e+07
       777.20000  2.93661e-07  1.37110e+07
       777.30000  2.93661e-07  1.37051e+07
       777.40000  2.93661e-07  1.36993e+07
       777.50000  4.01170e-07  1.87066e+07
       777.60000  4.01170e-07  1.87025e+07
       777.70000  4.01170e-07  1.86945e+07
       777.80000  4.01170e-07  1.86905e+07
       777.90000  4.01170e-07  1.86865e+07
       778.00000  4.01170e-07  1.86785e+07
       778.10000  4.01170e-07  1.86745e+07
       778.20000  4.01170e-07  1.86705e+07
       778.30000  4.01170e-07  1.86664e+07
       778.40000  4.01170e-07  1.86624e+07
       778.50000  4.11107e-07  1.91247e+07
       778.60000  4.11107e-07  1.91206e+07
       778.70000  4.11107e-07  1.91165e+07
       778.80000  4.10066e-07  1.90681e+07
       778.90000  4.10066e-07  1.90681e+07
       779.00000  4.10066e-07  1.90640e+07
       779.10000  4.10066e-07  1.90722e+07
       779.20000  4.10066e-07  1.90763e+07
       779.30000  4.10066e-07  1.90845e+07
       779.40000  4.10066e-07  1.90886e+07
       779.50000  4.37491e-07  2.03696e+07
       779.60000  4.37491e-07  2.03739e+07
       779.70000  4.37491e-07  2.03783e+07
       779.80000  4.37491e-07  2.03827e+07
       779.90000  4.37491e-07  2.03871e+07
       780.00000  4.37491e-07  2.03914e+07
       780.10000  4.37491e-07  2.03914e+07
       780.20000  4.37491e-07  2.03958e+07
       780.30000  4.37491e-07  2.03958e+07
       780.40000  4.37491e-07  2.03958e+07
       780.50000  2.76539e-07  1.28922e+07
       780.60000  2.76539e-07  1.28922e+07
       780.70000  2.76539e-07  1.28922e+07
       780.80000  2.76539e-07  1.28922e+07
       780.90000  2.76539e-07  1.28922e+07
       781.00000  2.76539e-07  1.28895e+07
       781.10000  2.76539e-07  1.28895e+07
       781.20000  2.76539e-07  1.28867e+07
       781.30000  2.75001e-07  1.28123e+07
       781.40000  2.75001e-07  1.28096e+07
       781.50000  3.68684e-07  1.71696e+07
       781.60000  3.68684e-07  1.71659e+07
       781.70000  3.68684e-07  1.71623e+07
       781.80000  3.68684e-07  1.71586e+07
       781.90000  3.68684e-07  1.71512e+07
       782.00000  3.68684e-07  1.71475e+07
       782.10000  3.68684e-07  1.71401e+07
       782.20000  3.68684e-07  1.71328e+07
       782.30000  3.68684e-07  1.71291e+07
       782.40000  3.68684e-07  1.71217e+07
       782.50000  3.05995e-07  1.42043e+07
       782.60000  3.05995e-07  1.41951e+07
       782.70000  3.05995e-07  1.41890e+07
       782.80000  3.05995e-07  1.41829e+07
       782.90000  3.05995e-07  1.41737e+07
       783.00000  3.05995e-07  1.41676e+07
       783.10000  3.05995e-07  1.41737e+07
       783.20000  3.05995e-07  1.41798e+07
       783.30000  3.05995e-07  1.41859e+07
       783.40000  3.05995e-07  1.41890e+07
       783.50000  3.93009e-07  1.82317e+07
       783.60000  3.93009e-07  1.82396e+07
       783.70000  3.93009e-07  1.82435e+07
       783.80000  3.91006e-07  1.81583e+07
       783.90000  3.91006e-07  1.81661e+07
       784.00000  3.91006e-07  1.81700e+07
       784.10000  3.91006e-07  1.81740e+07
       784.20000  3.91006e-07  1.81818e+07
       784.30000  3.91006e-07  1.81857e+07
       784.40000  3.91006e-07  1.81896e+07
       784.50000  3.79501e-07  1.76582e+07
       784.60000  3.79501e-07  1.76620e+07
       784.70000  3.79501e-07  1.76658e+07
       784.80000  3.79501e-07  1.76696e+07
       784.90000  3.79501e-07  1.76734e+07
       785.00000  3.79501e-07  1.76734e+07
       785.10000  3.79501e-07  1.76734e+07
       785.20000  3.79501e-07  1.76734e+07
       785.30000  3.79501e-07  1.76734e+07
       785.40000  3.79501e-07  1.76734e+07
       785.50000  2.96761e-07  1.38201e+07
       785.60000  2.96761e-07  1.38201e+07
       785.70000  2.96761e-07  1.38201e+07
       785.80000  2.96761e-07  1.38201e+07
       785.90000  2.96761e-07  1.38201e+07
       786.00000  2.96761e-07  1.38201e+07
       786.10000  2.96761e-07  1.38201e+07
       786.20000  2.96761e-07  1.38201e+07
       786.30000  2.96263e-07  1.37970e+07
       786.40000  2.96263e-07  1.37970e+07
       786.50000  3.64580e-07  1.69785e+07
       786.60000  3.64580e-07  1.69785e+07
       786.70000  3.64580e-07  1.69785e+07
       786.80000  3.64580e-07  1.69785e+07
       786.90000  3.64580e-07  1.69785e+07
       787.00000  3.64580e-07  1.69785e+07
       787.10000  3.64580e-07  1.69785e+07
       787.20000  3.64580e-07  1.69785e+07
       787.30000  3.64580e-07  1.69785e+07
       787.40000  3.64580e-07  1.69785e+07
       787.50000  4.49585e-07  2.09372e+07
       787.60000  4.49585e-07  2.09372e+07
       787.70000  4.49585e-07  2.09372e+07
       787.80000  4.49585e-07  2.09372e+07
       787.90000  4.49585e-07  2.09372e+07
       788.00000  4.49585e-07  2.09372e+07
       788.10000  4.49585e-07  2.09372e+07
       788.20000  4.49585e-07  2.09372e+07
       788.30000  4.49585e-07  2.09372e+07
       788.40000  4.49585e-07  2.09372e+07
       788.50000  3.87996e-07  1.80690e+07
       788.60000  3.87996e-07  1.80690e+07
       788.70000  3.87996e-07  1.80690e+07
       788.80000  3.88064e-07  1.80721e+07
       788.90000  3.88064e-07  1.80721e+07
       789.00000  3.88064e-07  1.80721e+07
       789.10000  3.88064e-07  1.80644e+07
       789.20000  3.88064e-07  1.80527e+07
       789.30000  3.88064e-07  1.80411e+07
       789.40000  3.88064e-07  1.80333e+07
       789.50000  3.31637e-07  1.54012e+07
       789.60000  3.31637e-07  1.53913e+07
       789.70000  3.31637e-07  1.53846e+07
       789.80000  3.31637e-07  1.53747e+07
       789.90000  3.31637e-07  1.53647e+07
       790.00000  3.31637e-07  1.53581e+07
       790.10000  3.31637e-07  1.53482e+07
       790.20000  3.31637e-07  1.53415e+07
       790.30000  3.31637e-07  1.53316e+07
       790.40000  3.31637e-07  1.53249e+07
       790.50000  3.96995e-07  1.83332e+07
       790.60000  3.96995e-07  1.83213e+07
       790.70000  3.96995e-07  1.83134e+07
       790.80000  3.96995e-07  1.83015e+07
       790.90000  3.96995e-07  1.82935e+07
       791.00000  3.96995e-07  1.82816e+07
       791.10000  3.96995e-07  1.82697e+07
       791.20000  3.96995e-07  1.82618e+07
       791.30000  3.95838e-07  1.81967e+07
       791.40000  3.95838e-07  1.81848e+07
       791.50000  4.16913e-07  1.91405e+07
       791.60000  4.16913e-07  1.91280e+07
       791.70000  4.16913e-07  1.91196e+07
       791.80000  4.16913e-07  1.91071e+07
       791.90000  4.16913e-07  1.90988e+07
       792.00000  4.16913e-07  1.90863e+07
       792.10000  4.16913e-07  1.90779e+07
       792.20000  4.16913e-07  1.90696e+07
       792.30000  4.16913e-07  1.90571e+07
       792.40000  4.16913e-07  1.90488e+07
       792.50000  3.65138e-07  1.66759e+07
       792.60000  3.65138e-07  1.66685e+07
       792.70000  3.65138e-07  1.66612e+07
       792.80000  3.65138e-07  1.66539e+07
       792.90000  3.65138e-07  1.66466e+07
       793.00000  3.65138e-07  1.66393e+07
       793.10000  3.65138e-07  1.66284e+07
       793.20000  3.65138e-07  1.66138e+07
       793.30000  3.65138e-07  1.66028e+07
       793.40000  3.65138e-07  1.65919e+07
       793.50000  3.71688e-07  1.68783e+07
       793.60000  3.71688e-07  1.68709e+07
       793.70000  3.71688e-07  1.68598e+07
       793.80000  3.70627e-07  1.68079e+07
       793.90000  3.70627e-07  1.68005e+07
       794.00000  3.70627e-07  1.67968e+07
       794.10000  3.70627e-07  1.67894e+07
       794.20000  3.70627e-07  1.67894e+07
       794.30000  3.70627e-07  1.67857e+07
       794.40000  3.70627e-07  1.67857e+07
       794.50000  3.76614e-07  1.70568e+07
       794.60000  3.76614e-07  1.70568e+07
       794.70000  3.76614e-07  1.70606e+07
       794.80000  3.76614e-07  1.70606e+07
       794.90000  3.76614e-07  1.70644e+07
       795.00000  3.76614e-07  1.70719e+07
       795.10000  3.76614e-07  1.70983e+07
       795.20000  3.76614e-07  1.71246e+07
       795.30000  3.76614e-07  1.71510e+07
       795.40000  3.76614e-07  1.71774e+07
       795.50000  4.01808e-07  1.83506e+07
       795.60000  4.01808e-07  1.83747e+07
       795.70000  4.01808e-07  1.83948e+07
       795.80000  4.01808e-07  1.84148e+07
       795.90000  4.01808e-07  1.84349e+07
       796.00000  4.01808e-07  1.84510e+07
       796.10000  4.01808e-07  1.84671e+07
       796.20000  4.01808e-07  1.84831e+07
       796.30000  4.01273e-07  1.84706e+07
       796.40000  4.01273e-07  1.84826e+07
       796.50000  4.20202e-07  1.93671e+07
       796.60000  4.20202e-07  1.93755e+07
       796.70000  4.20202e-07  1.93839e+07
       796.80000  4.20202e-07  1.93881e+07
       796.90000  4.20202e-07  1.93923e+07
       797.00000  4.20202e-07  1.93965e+07
       797.10000  4.20202e-07  1.94007e+07
       797.20000  4.20202e-07  1.94007e+07
       797.30000  4.20202e-07  1.94007e+07
       797.40000  4.20202e-07  1.93965e+07
       797.50000  5.22350e-07  2.41065e+07
       797.60000  5.22350e-07  2.41012e+07
       797.70000  5.22350e-07  2.40908e+07
       797.80000  5.22350e-07  2.40803e+07
       797.90000  5.22350e-07  2.40699e+07
       798.00000  5.22350e-07  2.40542e+07
       798.10000  5.22350e-07  2.40386e+07
       798.20000  5.22350e-07  2.40229e+07
       798.30000  5.22350e-07  2.40020e+07
       798.40000  5.22350e-07  2.39811e+07
       798.50000  2.46141e-07  1.12905e+07
       798.60000  2.46141e-07  1.12782e+07
       798.70000  2.46141e-07  1.12659e+07
       798.80000  2.45578e-07  1.12278e+07
       798.90000  2.45578e-07  1.12131e+07
       799.00000  2.45578e-07  1.11984e+07
       799.10000  2.45578e-07  1.12057e+07
       799.20000  2.45578e-07  1.12156e+07
       799.30000  2.45578e-07  1.12254e+07
       799.40000  2.45578e-07  1.12328e+07
       799.50000  8.48387e-08  3.88307e+06
       799.60000  8.48387e-08  3.88561e+06
       799.70000  8.48387e-08  3.88816e+06
       799.80000  8.48387e-08  3.88985e+06
       799.90000  8.48387e-08  3.89155e+06
       800.00000  8.48387e-08  3.89325e+06
       800.10000  8.48387e-08  3.89494e+06
       800.20000  8.48387e-08  3.89664e+06
       800.30000  8.48387e-08  3.89834e+06
       800.40000  8.48387e-08  3.89919e+06
       800.50000  2.14143e-07  9.84415e+06
       800.60000  2.14143e-07  9.84629e+06
       800.70000  2.14143e-07  9.84629e+06
       800.80000  2.14143e-07  9.84843e+06
       800.90000  2.14143e-07  9.84843e+06
       801.00000  2.14143e-07  9.84843e+06
       801.10000  2.14143e-07  9.84415e+06
       801.20000  2.14143e-07  9.83987e+06
       801.30000  2.13514e-07  9.80671e+06
       801.40000  2.13514e-07  9.80244e+06
       801.50000  1.60552e-07  7.36773e+06
       801.60000  1.60552e-07  7.36452e+06
       801.70000  1.60552e-07  7.36131e+06
       801.80000  1.60552e-07  7.35810e+06
       801.90000  1.60552e-07  7.35489e+06
       802.00000  1.60552e-07  7.35168e+06
       802.10000  1.60552e-07  7.34846e+06
       802.20000  1.60552e-07  7.34525e+06
       802.30000  1.60552e-07  7.34204e+06
       802.40000  1.60552e-07  7.33883e+06
       802.50000  2.25194e-07  1.02891e+07
       802.60000  2.25194e-07  1.02846e+07
       802.70000  2.25194e-07  1.02801e+07
       802.80000  2.25194e-07  1.02734e+07
       802.90000  2.25194e-07  1.02688e+07
       803.00000  2.25194e-07  1.02643e+07
       803.10000  2.25194e-07  1.02598e+07
       803.20000  2.25194e-07  1.02553e+07
       803.30000  2.25194e-07  1.02508e+07
       803.40000  2.25194e-07  1.02441e+07
       803.50000  2.26616e-07  1.03042e+07
       803.60000  2.26616e-07  1.02997e+07
       803.70000  2.26616e-07  1.02951e+07
       803.80000  2.25912e-07  1.02586e+07
       803.90000  2.25912e-07  1.02519e+07
       804.00000  2.25912e-07  1.02473e+07
       804.10000  2.25912e-07  1.02428e+07
       804.20000  2.25912e-07  1.02383e+07
       804.30000  2.25912e-07  1.02315e+07
       804.40000  2.25912e-07  1.02270e+07
       804.50000  1.92918e-07  8.72954e+06
       804.60000  1.92918e-07  8.72376e+06
       804.70000  1.92918e-07  8.71990e+06
       804.80000  1.92918e-07  8.71604e+06
       804.90000  1.92918e-07  8.71025e+06
       805.00000  1.92918e-07  8.70639e+06
       805.10000  1.92918e-07  8.71411e+06
       805.20000  1.92918e-07  8.72376e+06
       805.30000  1.92918e-07  8.72954e+06
       805.40000  1.92918e-07  8.73726e+06
       805.50000  2.18713e-07  9.91208e+06
       805.60000  2.18713e-07  9.91864e+06
       805.70000  2.18713e-07  9.92521e+06
       805.80000  2.18713e-07  9.92958e+06
       805.90000  2.18713e-07  9.93396e+06
       806.00000  2.18713e-07  9.93833e+06
       806.10000  2.18713e-07  9.94052e+06
       806.20000  2.18713e-07  9.94270e+06
       806.30000  2.18286e-07  9.92544e+06
       806.40000  2.18286e-07  9.92763e+06
       806.50000  1.79771e-07  8.17599e+06
       806.60000  1.79771e-07  8.17599e+06
       806.70000  1.79771e-07  8.17420e+06
       806.80000  1.79771e-07  8.17420e+06
       806.90000  1.79771e-07  8.17240e+06
       807.00000  1.79771e-07  8.16880e+06
       807.10000  1.79771e-07  8.15442e+06
       807.20000  1.79771e-07  8.13824e+06
       807.30000  1.79771e-07  8.12386e+06
       807.40000  1.79771e-07  8.11128e+06
       807.50000  1.71147e-07  7.71016e+06
       807.60000  1.71147e-07  7.69818e+06
       807.70000  1.71147e-07  7.68791e+06
       807.80000  1.71147e-07  7.67935e+06
       807.90000  1.71147e-07  7.67079e+06
       808.00000  1.71147e-07  7.66224e+06
       808.10000  1.71147e-07  7.65539e+06
       808.20000  1.71147e-07  7.64854e+06
       808.30000  1.71147e-07  7.64170e+06
       808.40000  1.71147e-07  7.63656e+06
       808.50000  1.51632e-07  6.76278e+06
       808.60000  1.51632e-07  6.75975e+06
       808.70000  1.51632e-07  6.75672e+06
       808.80000  1.51488e-07  6.74881e+06
       808.90000  1.51488e-07  6.74730e+06
       809.00000  1.51488e-07  6.74730e+06
       809.10000  1.51488e-07  6.74730e+06
       809.20000  1.51488e-07  6.74881e+06
       809.30000  1.51488e-07  6.75033e+06
       809.40000  1.51488e-07  6.75184e+06
       809.50000  2.01832e-07  8.99970e+06
       809.60000  2.01832e-07  9.00575e+06
       809.70000  2.01832e-07  9.01181e+06
       809.80000  2.01832e-07  9.01786e+06
       809.90000  2.01832e-07  9.02594e+06
       810.00000  2.01832e-07  9.03401e+06
       810.10000  2.01832e-07  9.04410e+06
       810.20000  2.01832e-07  9.05419e+06
       810.30000  2.01832e-07  9.06428e+06
       810.40000  2.01832e-07  9.07640e+06
       810.50000  2.25581e-07  1.01602e+07
       810.60000  2.25581e-07  1.01737e+07
       810.70000  2.25581e-07  1.01918e+07
       810.80000  2.25581e-07  1.02098e+07
       810.90000  2.25581e-07  1.02279e+07
       811.00000  2.25581e-07  1.02482e+07
       811.10000  2.25581e-07  1.02504e+07
       811.20000  2.25581e-07  1.02549e+07
       811.30000  2.25433e-07  1.02504e+07
       811.40000  2.25433e-07  1.02549e+07
       811.50000  2.46544e-07  1.12177e+07
       811.60000  2.46544e-07  1.12202e+07
       811.70000  2.46544e-07  1.12227e+07
       811.80000  2.46544e-07  1.12251e+07
       811.90000  2.46544e-07  1.12276e+07
       812.00000  2.46544e-07  1.12301e+07
       812.10000  2.46544e-07  1.12301e+07
       812.20000  2.46544e-07  1.12325e+07
       812.30000  2.46544e-07  1.12350e+07
       812.40000  2.46544e-07  1.12350e+07
       812.50000  2.83728e-07  1.29295e+07
       812.60000  2.83728e-07  1.29323e+07
       812.70000  2.83728e-07  1.29323e+07
       812.80000  2.83728e-07  1.29323e+07
       812.90000  2.83728e-07  1.29323e+07
       813.00000  2.83728e-07  1.29323e+07
       813.10000  2.83728e-07  1.29267e+07
       813.20000  2.83728e-07  1.29238e+07
       813.30000  2.83728e-07  1.29181e+07
       813.40000  2.83728e-07  1.29153e+07
       813.50000  2.44512e-07  1.11253e+07
       813.60000  2.44512e-07  1.11228e+07
       813.70000  2.44512e-07  1.11204e+07
       813.80000  2.44485e-07  1.11167e+07
       813.90000  2.44485e-07  1.11143e+07
       814.00000  2.44485e-07  1.11094e+07
       814.10000  2.44485e-07  1.11070e+07
       814.20000  2.44485e-07  1.11045e+07
       814.30000  2.44485e-07  1.11021e+07
       814.40000  2.44485e-07  1.11021e+07
       814.50000  1.87700e-07  8.52159e+06
       814.60000  1.87700e-07  8.51972e+06
       814.70000  1.87700e-07  8.51784e+06
       814.80000  1.87700e-07  8.51596e+06
       814.90000  1.87700e-07  8.51596e+06
       815.00000  1.87700e-07  8.51409e+06
       815.10000  1.87700e-07  8.52159e+06
       815.20000  1.87700e-07  8.52722e+06
       815.30000  1.87700e-07  8.53286e+06
       815.40000  1.87700e-07  8.53661e+06
       815.50000  2.73105e-07  1.24290e+07
       815.60000  2.73105e-07  1.24317e+07
       815.70000  2.73105e-07  1.24372e+07
       815.80000  2.73105e-07  1.24372e+07
       815.90000  2.73105e-07  1.24399e+07
       816.00000  2.73105e-07  1.24399e+07
       816.10000  2.73105e-07  1.24399e+07
       816.20000  2.73105e-07  1.24372e+07
       816.30000  2.73097e-07  1.24341e+07
       816.40000  2.73097e-07  1.24314e+07
       816.50000  2.41463e-07  1.09866e+07
       816.60000  2.41463e-07  1.09817e+07
       816.70000  2.41463e-07  1.09745e+07
       816.80000  2.41463e-07  1.09673e+07
       816.90000  2.41463e-07  1.09600e+07
       817.00000  2.41463e-07  1.09504e+07
       817.10000  2.41463e-07  1.09166e+07
       817.20000  2.41463e-07  1.08852e+07
       817.30000  2.41463e-07  1.08562e+07
       817.40000  2.41463e-07  1.08272e+07
       817.50000  2.43045e-07  1.08714e+07
       817.60000  2.43045e-07  1.08471e+07
       817.70000  2.43045e-07  1.08228e+07
       817.80000  2.43045e-07  1.07985e+07
       817.90000  2.43045e-07  1.07790e+07
       818.00000  2.43045e-07  1.07572e+07
       818.10000  2.43045e-07  1.07402e+07
       818.20000  2.43045e-07  1.07231e+07
       818.30000  2.43045e-07  1.07061e+07
       818.40000  2.43045e-07  1.06940e+07
       818.50000  3.40467e-07  1.49601e+07
       818.60000  3.40467e-07  1.49465e+07
       818.70000  3.40467e-07  1.49329e+07
       818.80000  3.40416e-07  1.49170e+07
       818.90000  3.40416e-07  1.49102e+07
       819.00000  3.40416e-07  1.49000e+07
       819.10000  3.40416e-07  1.48966e+07
       819.20000  3.40416e-07  1.48932e+07
       819.30000  3.40416e-07  1.48898e+07
       819.40000  3.40416e-07  1.48898e+07
       819.50000  2.29583e-07  1.00443e+07
       819.60000  2.29583e-07  1.00466e+07
       819.70000  2.29583e-07  1.00512e+07
       819.80000  2.29583e-07  1.00580e+07
       819.90000  2.29583e-07  1.00649e+07
       820.00000  2.29583e-07  1.00741e+07
       820.10000  2.29583e-07  1.00833e+07
       820.20000  2.29583e-07  1.00948e+07
       820.30000  2.29583e-07  1.01086e+07
       820.40000  2.29583e-07  1.01223e+07
       820.50000  2.26632e-07  1.00081e+07
       820.60000  2.26632e-07  1.00239e+07
       820.70000  2.26632e-07  1.00421e+07
       820.80000  2.26632e-07  1.00602e+07
       820.90000  2.26632e-07  1.00806e+07
       821.00000  2.26632e-07  1.01033e+07
       821.10000  2.26632e-07  1.00987e+07
       821.20000  2.26632e-07  1.00965e+07
       821.30000  2.27282e-07  1.01209e+07
       821.40000  2.27282e-07  1.01186e+07
       821.50000  2.52220e-07  1.12238e+07
       821.60000  2.52220e-07  1.12212e+07
       821.70000  2.52220e-07  1.12187e+07
       821.80000  2.52220e-07  1.12137e+07
       821.90000  2.52220e-07  1.12112e+07
       822.00000  2.52220e-07  1.12086e+07
       822.10000  2.52220e-07  1.12086e+07
       822.20000  2.52220e-07  1.12061e+07
       822.30000  2.52220e-07  1.12036e+07
       822.40000  2.52220e-07  1.12036e+07
       822.50000  2.89078e-07  1.28380e+07
       822.60000  2.89078e-07  1.28380e+07
       822.70000  2.89078e-07  1.28351e+07
       822.80000  2.89078e-07  1.28351e+07
       822.90000  2.89078e-07  1.28351e+07
       823.00000  2.89078e-07  1.28351e+07
       823.10000  2.89078e-07  1.28351e+07
       823.20000  2.89078e-07  1.28351e+07
       823.30000  2.89078e-07  1.28351e+07
       823.40000  2.89078e-07  1.28351e+07
       823.50000  1.51992e-07  6.74998e+06
       823.60000  1.51992e-07  6.74998e+06
       823.70000  1.51992e-07  6.75150e+06
       823.80000  1.52407e-07  6.76992e+06
       823.90000  1.52407e-07  6.77144e+06
       824.00000  1.52407e-07  6.77297e+06
       824.10000  1.52407e-07  6.77449e+06
       824.20000  1.52407e-07  6.77602e+06
       824.30000  1.52407e-07  6.77754e+06
       824.40000  1.52407e-07  6.78059e+06
       824.50000  1.77336e-07  7.89145e+06
       824.60000  1.77336e-07  7.89499e+06
       824.70000  1.77336e-07  7.89677e+06
       824.80000  1.77336e-07  7.90032e+06
       824.90000  1.77336e-07  7.90386e+06
       825.00000  1.77336e-07  7.90741e+06
       825.10000  1.77336e-07  7.91096e+06
       825.20000  1.77336e-07  7.91450e+06
       825.30000  1.77336e-07  7.91982e+06
       825.40000  1.77336e-07  7.92337e+06
       825.50000  1.52058e-07  6.79850e+06
       825.60000  1.52058e-07  6.80154e+06
       825.70000  1.52058e-07  6.80610e+06
       825.80000  1.52058e-07  6.81067e+06
       825.90000  1.52058e-07  6.81523e+06
       826.00000  1.52058e-07  6.81979e+06
       826.10000  1.52058e-07  6.82435e+06
       826.20000  1.52058e-07  6.82739e+06
       826.30000  1.52159e-07  6.83650e+06
       826.40000  1.52159e-07  6.83954e+06
       826.50000  1.79292e-07  8.06096e+06
       826.60000  1.79292e-07  8.06454e+06
       826.70000  1.79292e-07  8.06813e+06
       826.80000  1.79292e-07  8.06992e+06
       826.90000  1.79292e-07  8.07172e+06
       827.00000  1.79292e-07  8.07351e+06
       827.10000  1.79292e-07  8.07351e+06
       827.20000  1.79292e-07  8.07530e+06
       827.30000  1.79292e-07  8.07530e+06
       827.40000  1.79292e-07  8.07530e+06
       827.50000  1.11269e-07  5.01154e+06
       827.60000  1.11269e-07  5.01154e+06
       827.70000  1.11269e-07  5.01043e+06
       827.80000  1.11269e-07  5.00932e+06
       827.90000  1.11269e-07  5.00820e+06
       828.00000  1.11269e-07  5.00709e+06
       828.10000  1.11269e-07  5.00375e+06
       828.20000  1.11269e-07  4.99930e+06
       828.30000  1.11269e-07  4.99485e+06
       828.40000  1.11269e-07  4.99040e+06
       828.50000  1.91776e-07  8.59541e+06
       828.60000  1.91776e-07  8.58774e+06
       828.70000  1.91776e-07  8.58198e+06
       828.80000  1.91621e-07  8.56927e+06
       828.90000  1.91621e-07  8.56160e+06
       829.00000  1.91621e-07  8.55586e+06
       829.10000  1.91621e-07  8.55011e+06
       829.20000  1.91621e-07  8.54436e+06
       829.30000  1.91621e-07  8.53861e+06
       829.40000  1.91621e-07  8.53286e+06
       829.50000  1.84728e-07  8.22038e+06
       829.60000  1.84728e-07  8.21483e+06
       829.70000  1.84728e-07  8.20929e+06
       829.80000  1.84728e-07  8.20375e+06
       829.90000  1.84728e-07  8.20006e+06
       830.00000  1.84728e-07  8.19451e+06
       830.10000  1.84728e-07  8.19082e+06
       830.20000  1.84728e-07  8.18528e+06
       830.30000  1.84728e-07  8.18158e+06
       830.40000  1.84728e-07  8.17604e+06
       830.50000  1.58313e-07  7.00377e+06
       830.60000  1.58313e-07  7.00060e+06
       830.70000  1.58313e-07  6.99586e+06
       830.80000  1.58313e-07  6.99269e+06
       830.90000  1.58313e-07  6.98952e+06
       831.00000  1.58313e-07  6.98636e+06
       831.10000  1.58313e-07  6.98319e+06
       831.20000  1.58313e-07  6.98002e+06
       831.30000  1.58742e-07  6.99736e+06
       831.40000  1.58742e-07  6.99418e+06
       831.50000  2.03008e-07  8.94046e+06
       831.60000  2.03008e-07  8.93842e+06
       831.70000  2.03008e-07  8.93436e+06
       831.80000  2.03008e-07  8.93030e+06
       831.90000  2.03008e-07  8.92827e+06
       832.00000  2.03008e-07  8.92624e+06
       832.10000  2.03008e-07  8.91812e+06
       832.20000  2.03008e-07  8.91000e+06
       832.30000  2.03008e-07  8.90391e+06
       832.40000  2.03008e-07  8.89782e+06
       832.50000  1.38931e-07  6.08516e+06
       832.60000  1.38931e-07  6.08238e+06
       832.70000  1.38931e-07  6.07960e+06
       832.80000  1.38931e-07  6.07544e+06
       832.90000  1.38931e-07  6.07405e+06
       833.00000  1.38931e-07  6.07127e+06
       833.10000  1.38931e-07  6.06849e+06
       833.20000  1.38931e-07  6.06710e+06
       833.30000  1.38931e-07  6.06571e+06
       833.40000  1.38931e-07  6.06432e+06
       833.50000  1.71357e-07  7.47972e+06
       833.60000  1.71357e-07  7.47800e+06
       833.70000  1.71357e-07  7.47800e+06
       833.80000  1.71535e-07  7.48581e+06
       833.90000  1.71535e-07  7.48752e+06
       834.00000  1.71535e-07  7.48752e+06
       834.10000  1.71535e-07  7.49610e+06
       834.20000  1.71535e-07  7.50296e+06
       834.30000  1.71535e-07  7.51154e+06
       834.40000  1.71535e-07  7.51840e+06
       834.50000  2.16862e-07  9.51374e+06
       834.60000  2.16862e-07  9.52241e+06
       834.70000  2.16862e-07  9.52892e+06
       834.80000  2.16862e-07  9.53543e+06
       834.90000  2.16862e-07  9.54410e+06
       835.00000  2.16862e-07  9.55061e+06
       835.10000  2.16862e-07  9.55494e+06
       835.20000  2.16862e-07  9.56145e+06
       835.30000  2.16862e-07  9.56579e+06
       835.40000  2.16862e-07  9.57012e+06
       835.50000  2.31952e-07  1.02407e+07
       835.60000  2.31952e-07  1.02453e+07
       835.70000  2.31952e-07  1.02477e+07
       835.80000  2.31952e-07  1.02523e+07
       835.90000  2.31952e-07  1.02546e+07
       836.00000  2.31952e-07  1.02569e+07
       836.10000  2.31952e-07  1.02523e+07
       836.20000  2.31952e-07  1.02500e+07
       836.30000  2.31847e-07  1.02407e+07
       836.40000  2.31847e-07  1.02384e+07
       836.50000  2.45621e-07  1.08442e+07
       836.60000  2.45621e-07  1.08392e+07
       836.70000  2.45621e-07  1.08368e+07
       836.80000  2.45621e-07  1.08343e+07
       836.90000  2.45621e-07  1.08294e+07
       837.00000  2.45621e-07  1.08270e+07
       837.10000  2.45621e-07  1.08245e+07
       837.20000  2.45621e-07  1.08220e+07
       837.30000  2.45621e-07  1.08196e+07
       837.40000  2.45621e-07  1.08171e+07
       837.50000  3.03512e-07  1.33636e+07
       837.60000  3.03512e-07  1.33606e+07
       837.70000  3.03512e-07  1.33576e+07
       837.80000  3.03512e-07  1.33545e+07
       837.90000  3.03512e-07  1.33545e+07
       838.00000  3.03512e-07  1.33515e+07
       838.10000  3.03512e-07  1.33485e+07
       838.20000  3.03512e-07  1.33485e+07
       838.30000  3.03512e-07  1.33485e+07
       838.40000  3.03512e-07  1.33485e+07
       838.50000  2.26715e-07  9.96864e+06
       838.60000  2.26715e-07  9.96864e+06
       838.70000  2.26715e-07  9.96864e+06
       838.80000  2.26029e-07  9.93624e+06
       838.90000  2.26029e-07  9.93624e+06
       839.00000  2.26029e-07  9.93624e+06
       839.10000  2.26029e-07  9.93398e+06
       839.20000  2.26029e-07  9.93398e+06
       839.30000  2.26029e-07  9.93398e+06
       839.40000  2.26029e-07  9.93171e+06
       839.50000  2.04008e-07  8.96409e+06
       839.60000  2.04008e-07  8.96409e+06
       839.70000  2.04008e-07  8.96205e+06
       839.80000  2.04008e-07  8.96205e+06
       839.90000  2.04008e-07  8.96205e+06
       840.00000  2.04008e-07  8.96001e+06
       840.10000  2.04008e-07  8.96001e+06
       840.20000  2.04008e-07  8.96001e+06
       840.30000  2.04008e-07  8.95797e+06
       840.40000  2.04008e-07  8.95797e+06
       840.50000  2.06737e-07  9.07782e+06
       840.60000  2.06737e-07  9.07575e+06
       840.70000  2.06737e-07  9.07575e+06
       840.80000  2.06737e-07  9.07575e+06
       840.90000  2.06737e-07  9.07368e+06
       841.00000  2.06737e-07  9.07368e+06
       841.10000  2.06737e-07  9.07368e+06
       841.20000  2.06737e-07  9.07368e+06
       841.30000  2.06726e-07  9.07112e+06
       841.40000  2.06726e-07  9.07112e+06
       841.50000  2.51119e-07  1.10191e+07
       841.60000  2.51119e-07  1.10166e+07
       841.70000  2.51119e-07  1.10166e+07
       841.80000  2.51119e-07  1.10166e+07
       841.90000  2.51119e-07  1.10141e+07
       842.00000  2.51119e-07  1.10141e+07
       842.10000  2.51119e-07  1.10040e+07
       842.20000  2.51119e-07  1.09965e+07
       842.30000  2.51119e-07  1.09890e+07
       842.40000  2.51119e-07  1.09789e+07
       842.50000  1.70590e-07  7.45308e+06
       842.60000  1.70590e-07  7.44967e+06
       842.70000  1.70590e-07  7.44455e+06
       842.80000  1.70590e-07  7.44114e+06
       842.90000  1.70590e-07  7.43602e+06
       843.00000  1.70590e-07  7.43261e+06
       843.10000  1.70590e-07  7.42920e+06
       843.20000  1.70590e-07  7.42578e+06
       843.30000  1.70590e-07  7.42408e+06
       843.40000  1.70590e-07  7.42067e+06
       843.50000  1.61661e-07  7.03066e+06
       843.60000  1.61661e-07  7.02904e+06
       843.70000  1.61661e-07  7.02742e+06
       843.80000  1.61895e-07  7.03594e+06
       843.90000  1.61895e-07  7.03594e+06
       844.00000  1.61895e-07  7.03432e+06
       844.10000  1.61895e-07  7.03918e+06
       844.20000  1.61895e-07  7.04241e+06
       844.30000  1.61895e-07  7.04565e+06
       844.40000  1.61895e-07  7.04889e+06
       844.50000  1.72866e-07  7.53006e+06
       844.60000  1.72866e-07  7.53352e+06
       844.70000  1.72866e-07  7.53524e+06
       844.80000  1.72866e-07  7.53870e+06
       844.90000  1.72866e-07  7.54043e+06
       845.00000  1.72866e-07  7.54389e+06
       845.10000  1.72866e-07  7.54562e+06
       845.20000  1.72866e-07  7.54734e+06
       845.30000  1.72866e-07  7.55080e+06
       845.40000  1.72866e-07  7.55253e+06
       845.50000  9.71601e-08  4.24493e+06
       845.60000  9.71601e-08  4.24590e+06
       845.70000  9.71601e-08  4.24687e+06
       845.80000  9.71601e-08  4.24784e+06
       845.90000  9.71601e-08  4.24784e+06
       846.00000  9.71601e-08  4.24881e+06
       846.10000  9.71601e-08  4.24881e+06
       846.20000  9.71601e-08  4.24881e+06
       846.30000  9.74158e-08  4.25999e+06
       846.40000  9.74158e-08  4.26097e+06
       846.50000  1.50235e-07  6.57127e+06
       846.60000  1.50235e-07  6.56977e+06
       846.70000  1.50235e-07  6.56977e+06
       846.80000  1.50235e-07  6.56977e+06
       846.90000  1.50235e-07  6.56826e+06
       847.00000  1.50235e-07  6.56826e+06
       847.10000  1.50235e-07  6.56676e+06
       847.20000  1.50235e-07  6.56676e+06
       847.30000  1.50235e-07  6.56526e+06
       847.40000  1.50235e-07  6.56376e+06
       847.50000  1.63239e-07  7.13026e+06
       847.60000  1.63239e-07  7.12863e+06
       847.70000  1.63239e-07  7.12700e+06
       847.80000  1.63239e-07  7.12536e+06
       847.90000  1.63239e-07  7.12210e+06
       848.00000  1.63239e-07  7.12047e+06
       848.10000  1.63239e-07  7.08619e+06
       848.20000  1.63239e-07  7.05517e+06
       848.30000  1.63239e-07  7.02415e+06
       848.40000  1.63239e-07  6.99477e+06
       848.50000  8.00918e-08  3.41832e+06
       848.60000  8.00918e-08  3.40630e+06
       848.70000  8.00918e-08  3.39429e+06
       848.80000  8.03975e-08  3.39599e+06
       848.90000  8.03975e-08  3.38554e+06
       849.00000  8.03975e-08  3.37589e+06
       849.10000  8.03975e-08  3.36624e+06
       849.20000  8.03975e-08  3.35820e+06
       849.30000  8.03975e-08  3.35097e+06
       849.40000  8.03975e-08  3.34373e+06
       849.50000  2.94722e-06  1.22368e+08
       849.60000  2.94722e-06  1.22162e+08
       849.70000  2.94722e-06  1.22015e+08
       849.80000  2.94722e-06  1.21867e+08
       849.90000  2.94722e-06  1.21750e+08
       850.00000  2.94722e-06  1.21661e+08
       850.10000  2.94722e-06  1.22310e+08
       850.20000  2.94722e-06  1.22928e+08
       850.30000  2.94722e-06  1.23488e+08
       850.40000  2.94722e-06  1.23989e+08
       850.50000  1.94490e-06  8.21331e+07
       850.60000  1.94490e-06  8.24054e+07
       850.70000  1.94490e-06  8.26388e+07
       850.80000  1.94490e-06  8.28527e+07
       850.90000  1.94490e-06  8.30277e+07
       851.00000  1.94490e-06  8.31833e+07
       851.10000  1.94490e-06  8.33000e+07
       851.20000  1.94490e-06  8.33973e+07
       851.30000  1.94696e-06  8.35440e+07
       851.40000  1.94696e-06  8.35634e+07
       851.50000  1.93024e-06  8.28461e+07
       851.60000  1.93024e-06  8.28075e+07
       851.70000  1.93024e-06  8.27496e+07
       851.80000  1.93024e-06  8.26531e+07
       851.90000  1.93024e-06  8.25180e+07
       852.00000  1.93024e-06  8.23635e+07
       852.10000  1.93024e-06  8.21705e+07
       852.20000  1.93024e-06  8.19582e+07
       852.30000  1.93024e-06  8.17073e+07
       852.40000  1.93024e-06  8.14370e+07
       852.50000  3.82876e-06  1.60884e+08
       852.60000  3.82876e-06  1.60233e+08
       852.70000  3.82876e-06  1.59468e+08
       852.80000  3.82876e-06  1.58702e+08
       852.90000  3.82876e-06  1.57821e+08
       853.00000  3.82876e-06  1.56902e+08
       853.10000  3.82876e-06  1.55907e+08
       853.20000  3.82876e-06  1.54873e+08
       853.30000  3.82876e-06  1.53763e+08
       853.40000  3.82876e-06  1.52614e+08
       853.50000  1.89937e-06  7.51010e+07
       853.60000  1.89937e-06  7.44552e+07
       853.70000  1.89937e-06  7.37905e+07
       853.80000  1.90191e-06  7.31854e+07
       853.90000  1.90191e-06  7.24626e+07
       854.00000  1.90191e-06  7.17019e+07
       854.10000  1.90191e-06  7.22344e+07
       854.20000  1.90191e-06  7.27670e+07
       854.30000  1.90191e-06  7.32805e+07
       854.40000  1.90191e-06  7.37750e+07
       854.50000  2.83445e-06  1.10657e+08
       854.60000  2.83445e-06  1.11366e+08
       854.70000  2.83445e-06  1.12046e+08
       854.80000  2.83445e-06  1.12698e+08
       854.90000  2.83445e-06  1.13350e+08
       855.00000  2.83445e-06  1.13973e+08
       855.10000  2.83445e-06  1.14569e+08
       855.20000  2.83445e-06  1.15135e+08
       855.30000  2.83445e-06  1.15702e+08
       855.40000  2.83445e-06  1.16213e+08
       855.50000  1.87437e-06  7.72055e+07
       855.60000  1.87437e-06  7.75241e+07
       855.70000  1.87437e-06  7.78428e+07
       855.80000  1.87437e-06  7.81427e+07
       855.90000  1.87437e-06  7.84238e+07
       856.00000  1.87437e-06  7.86863e+07
       856.10000  1.87437e-06  7.88924e+07
       856.20000  1.87437e-06  7.90799e+07
       856.30000  1.87648e-06  7.93563e+07
       856.40000  1.87648e-06  7.95440e+07
       856.50000  2.79460e-06  1.18715e+08
       856.60000  2.79460e-06  1.18966e+08
       856.70000  2.79460e-06  1.19190e+08
       856.80000  2.79460e-06  1.19413e+08
       856.90000  2.79460e-06  1.19609e+08
       857.00000  2.79460e-06  1.19805e+08
       857.10000  2.79460e-06  1.20000e+08
       857.20000  2.79460e-06  1.20168e+08
       857.30000  2.79460e-06  1.20336e+08
       857.40000  2.79460e-06  1.20475e+08
       857.50000  1.84683e-06  7.97092e+07
       857.60000  1.84683e-06  7.98016e+07
       857.70000  1.84683e-06  7.98755e+07
       857.80000  1.84683e-06  7.99493e+07
       857.90000  1.84683e-06  8.00047e+07
       858.00000  1.84683e-06  8.00786e+07
       858.10000  1.84683e-06  8.01155e+07
       858.20000  1.84683e-06  8.01525e+07
       858.30000  1.84683e-06  8.01894e+07
       858.40000  1.84683e-06  8.02079e+07
       858.50000  1.83354e-06  7.96489e+07
       858.60000  1.83354e-06  7.96672e+07
       858.70000  1.83354e-06  7.96672e+07
       858.80000  1.83909e-06  7.99083e+07
       858.90000  1.83909e-06  7.98899e+07
       859.00000  1.83909e-06  7.98715e+07
       859.10000  1.83909e-06  7.98531e+07
       859.20000  1.83909e-06  7.98164e+07
       859.30000  1.83909e-06  7.97796e+07
       859.40000  1.83909e-06  7.97244e+07
       859.50000  2.73868e-06  1.18640e+08
       859.60000  2.73868e-06  1.18557e+08
       859.70000  2.73868e-06  1.18448e+08
       859.80000  2.73868e-06  1.18311e+08
       859.90000  2.73868e-06  1.18201e+08
       860.00000  2.73868e-06  1.18065e+08
       860.10000  2.73868e-06  1.18037e+08
       860.20000  2.73868e-06  1.18010e+08
       860.30000  2.73868e-06  1.18010e+08
       860.40000  2.73868e-06  1.18010e+08
       860.50000  2.71744e-06  1.17067e+08
       860.60000  2.71744e-06  1.17067e+08
       860.70000  2.71744e-06  1.17067e+08
       860.80000  2.71744e-06  1.17067e+08
       860.90000  2.71744e-06  1.17067e+08
       861.00000  2.71744e-06  1.17067e+08
       861.10000  2.71744e-06  1.17067e+08
       861.20000  2.71744e-06  1.17067e+08
       861.30000  2.72638e-06  1.17452e+08
       861.40000  2.72638e-06  1.17480e+08
       861.50000  1.80109e-06  7.76090e+07
       861.60000  1.80109e-06  7.76090e+07
       861.70000  1.80109e-06  7.76270e+07
       861.80000  1.80109e-06  7.76450e+07
       861.90000  1.80109e-06  7.76450e+07
       862.00000  1.80109e-06  7.76630e+07
       862.10000  1.80109e-06  7.79152e+07
       862.20000  1.80109e-06  7.81313e+07
       862.30000  1.80109e-06  7.83294e+07
       862.40000  1.80109e-06  7.85096e+07
       862.50000  1.78881e-06  7.81172e+07
       862.60000  1.78881e-06  7.82424e+07
       862.70000  1.78881e-06  7.83498e+07
       862.80000  1.78881e-06  7.84392e+07
       862.90000  1.78881e-06  7.84929e+07
       863.00000  1.78881e-06  7.85286e+07
       863.10000  1.78881e-06  7.85465e+07
       863.20000  1.78881e-06  7.85465e+07
       863.30000  1.78881e-06  7.85107e+07
       863.40000  1.78881e-06  7.84571e+07
       863.50000  1.77399e-06  7.77364e+07
       863.60000  1.77399e-06  7.76300e+07
       863.70000  1.77399e-06  7.75058e+07
       863.80000  1.77896e-06  7.75803e+07
       863.90000  1.77896e-06  7.74202e+07
       864.00000  1.77896e-06  7.72245e+07
       864.10000  1.77896e-06  7.70110e+07
       864.20000  1.77896e-06  7.67798e+07
       864.30000  1.77896e-06  7.65129e+07
       864.40000  1.77896e-06  7.62461e+07
       864.50000  1.76404e-06  7.52894e+07
       864.60000  1.76404e-06  7.49718e+07
       864.70000  1.76404e-06  7.46190e+07
       864.80000  1.76404e-06  7.42662e+07
       864.90000  1.76404e-06  7.38605e+07
       865.00000  1.76404e-06  7.34548e+07
       865.10000  1.76404e-06  7.30137e+07
       865.20000  1.76404e-06  7.25551e+07
       865.30000  1.76404e-06  7.20788e+07
       865.40000  1.76404e-06  7.15672e+07
       865.50000  1.74973e-06  7.04615e+07
       865.60000  1.74973e-06  6.99191e+07
       865.70000  1.74973e-06  6.93592e+07
       865.80000  1.74973e-06  6.87643e+07
       865.90000  1.74973e-06  6.81519e+07
       866.00000  1.74973e-06  6.75220e+07
       866.10000  1.74973e-06  6.77669e+07
       866.20000  1.74973e-06  6.79944e+07
       866.30000  1.75490e-06  6.84411e+07
       866.40000  1.75490e-06  6.86692e+07
       866.50000  1.74077e-06  6.83427e+07
       866.60000  1.74077e-06  6.85690e+07
       866.70000  1.74077e-06  6.87953e+07
       866.80000  1.74077e-06  6.90216e+07
       866.90000  1.74077e-06  6.92305e+07
       867.00000  1.74077e-06  6.94394e+07
       867.10000  1.74077e-06  6.96483e+07
       867.20000  1.74077e-06  6.98572e+07
       867.30000  1.74077e-06  7.00661e+07
       867.40000  1.74077e-06  7.02575e+07
       867.50000  2.58796e-06  1.04735e+08
       867.60000  2.58796e-06  1.05020e+08
       867.70000  2.58796e-06  1.05304e+08
       867.80000  2.58796e-06  1.05589e+08
       867.90000  2.58796e-06  1.05848e+08
       868.00000  2.58796e-06  1.06107e+08
       868.10000  2.58796e-06  1.06391e+08
       868.20000  2.58796e-06  1.06676e+08
       868.30000  2.58796e-06  1.06935e+08
       868.40000  2.58796e-06  1.07193e+08
       868.50000  1.71242e-06  7.10996e+07
       868.60000  1.71242e-06  7.12538e+07
       868.70000  1.71242e-06  7.14250e+07
       868.80000  1.71671e-06  7.17413e+07
       868.90000  1.71671e-06  7.18958e+07
       869.00000  1.71671e-06  7.20331e+07
       869.10000  1.71671e-06  7.21704e+07
       869.20000  1.71671e-06  7.23078e+07
       869.30000  1.71671e-06  7.24451e+07
       869.40000  1.71671e-06  7.25653e+07
       869.50000  1.70151e-06  7.20420e+07
       869.60000  1.70151e-06  7.21441e+07
       869.70000  1.70151e-06  7.22462e+07
       869.80000  1.70151e-06  7.23483e+07
       869.90000  1.70151e-06  7.24504e+07
       870.00000  1.70151e-06  7.25525e+07
       870.10000  1.70151e-06  7.26375e+07
       870.20000  1.70151e-06  7.27226e+07
       870.30000  1.70151e-06  7.27907e+07
       870.40000  1.70151e-06  7.28587e+07
       870.50000  1.68827e-06  7.23592e+07
       870.60000  1.68827e-06  7.24267e+07
       870.70000  1.68827e-06  7.24774e+07
       870.80000  1.68827e-06  7.25449e+07
       870.90000  1.68827e-06  7.25786e+07
       871.00000  1.68827e-06  7.26293e+07
       871.10000  1.68827e-06  7.26631e+07
       871.20000  1.68827e-06  7.26968e+07
       871.30000  1.69808e-06  7.31535e+07
       871.40000  1.69808e-06  7.31705e+07
       871.50000  1.68266e-06  7.25227e+07
       871.60000  1.68266e-06  7.25395e+07
       871.70000  1.68266e-06  7.25395e+07
       871.80000  1.68266e-06  7.25563e+07
       871.90000  1.68266e-06  7.25395e+07
       872.00000  1.68266e-06  7.25395e+07
       872.10000  1.68266e-06  7.24890e+07
       872.20000  1.68266e-06  7.24553e+07
       872.30000  1.68266e-06  7.24049e+07
       872.40000  1.68266e-06  7.23712e+07
       872.50000  1.66813e-06  7.16963e+07
       872.60000  1.66813e-06  7.16629e+07
       872.70000  1.66813e-06  7.16296e+07
       872.80000  1.66813e-06  7.15962e+07
       872.90000  1.66813e-06  7.15462e+07
       873.00000  1.66813e-06  7.15128e+07
       873.10000  1.66813e-06  7.14794e+07
       873.20000  1.66813e-06  7.14461e+07
       873.30000  1.66813e-06  7.14127e+07
       873.40000  1.66813e-06  7.13794e+07
       873.50000  1.65301e-06  7.06992e+07
       873.60000  1.65301e-06  7.06661e+07
       873.70000  1.65301e-06  7.06331e+07
       873.80000  1.66174e-06  7.09895e+07
       873.90000  1.66174e-06  7.09563e+07
       874.00000  1.66174e-06  7.09230e+07
       874.10000  1.66174e-06  7.08732e+07
       874.20000  1.66174e-06  7.08233e+07
       874.30000  1.66174e-06  7.07901e+07
       874.40000  1.66174e-06  7.07402e+07
       874.50000  1.64614e-06  7.00434e+07
       874.60000  1.64614e-06  7.00104e+07
       874.70000  1.64614e-06  6.99775e+07
       874.80000  1.64614e-06  6.99611e+07
       874.90000  1.64614e-06  6.99281e+07
       875.00000  1.64614e-06  6.99117e+07
       875.10000  1.64614e-06  6.98952e+07
       875.20000  1.64614e-06  6.98788e+07
       875.30000  1.64614e-06  6.98788e+07
       875.40000  1.64614e-06  6.98623e+07
       875.50000  1.63195e-06  6.92599e+07
       875.60000  1.63195e-06  6.92599e+07
       875.70000  1.63195e-06  6.92599e+07
       875.80000  1.63195e-06  6.92762e+07
       875.90000  1.63195e-06  6.92762e+07
       876.00000  1.63195e-06  6.92925e+07
       876.10000  1.63195e-06  6.93088e+07
       876.20000  1.63195e-06  6.93251e+07
       876.30000  1.64055e-06  6.97068e+07
       876.40000  1.64055e-06  6.97396e+07
       876.50000  1.62611e-06  6.91586e+07
       876.60000  1.62611e-06  6.91911e+07
       876.70000  1.62611e-06  6.92236e+07
       876.80000  1.62611e-06  6.92561e+07
       876.90000  1.62611e-06  6.93049e+07
       877.00000  1.62611e-06  6.93537e+07
       877.10000  1.62611e-06  6.94025e+07
       877.20000  1.62611e-06  6.94513e+07
       877.30000  1.62611e-06  6.95000e+07
       877.40000  1.62611e-06  6.95651e+07
       877.50000  1.61222e-06  6.90351e+07
       877.60000  1.61222e-06  6.90996e+07
       877.70000  1.61222e-06  6.91641e+07
       877.80000  1.61222e-06  6.92286e+07
       877.90000  1.61222e-06  6.93092e+07
       878.00000  1.61222e-06  6.93898e+07
       878.10000  1.61222e-06  6.92931e+07
       878.20000  1.61222e-06  6.92125e+07
       878.30000  1.61222e-06  6.91319e+07
       878.40000  1.61222e-06  6.90512e+07
       878.50000  1.59699e-06  6.83193e+07
       878.60000  1.59699e-06  6.82554e+07
       878.70000  1.59699e-06  6.81756e+07
       878.80000  1.60416e-06  6.84174e+07
       878.90000  1.60416e-06  6.83532e+07
       879.00000  1.60416e-06  6.82890e+07
       879.10000  1.60416e-06  6.82249e+07
       879.20000  1.60416e-06  6.81767e+07
       879.30000  1.60416e-06  6.81126e+07
       879.40000  1.60416e-06  6.80644e+07
       879.50000  1.58746e-06  6.73084e+07
       879.60000  1.58746e-06  6.72608e+07
       879.70000  1.58746e-06  6.72132e+07
       879.80000  1.58746e-06  6.71814e+07
       879.90000  1.58746e-06  6.71338e+07
       880.00000  1.58746e-06  6.71021e+07
       880.10000  1.58746e-06  6.70862e+07
       880.20000  1.58746e-06  6.70544e+07
       880.30000  1.58746e-06  6.70386e+07
       880.40000  1.58746e-06  6.70068e+07
       880.50000  1.57333e-06  6.63945e+07
       880.60000  1.57333e-06  6.63788e+07
       880.70000  1.57333e-06  6.63631e+07
       880.80000  1.57333e-06  6.63631e+07
       880.90000  1.57333e-06  6.63473e+07
       881.00000  1.57333e-06  6.63316e+07
       881.10000  1.57333e-06  6.63316e+07
       881.20000  1.57333e-06  6.63316e+07
       881.30000  1.58276e-06  6.67292e+07
       881.40000  1.58276e-06  6.67134e+07
       881.50000  1.56827e-06  6.61182e+07
       881.60000  1.56827e-06  6.61182e+07
       881.70000  1.56827e-06  6.61182e+07
       881.80000  1.56827e-06  6.61339e+07
       881.90000  1.56827e-06  6.61339e+07
       882.00000  1.56827e-06  6.61496e+07
       882.10000  1.56827e-06  6.62280e+07
       882.20000  1.56827e-06  6.62907e+07
       882.30000  1.56827e-06  6.63535e+07
       882.40000  1.56827e-06  6.64162e+07
       882.50000  1.55322e-06  6.58409e+07
       882.60000  1.55322e-06  6.58875e+07
       882.70000  1.55322e-06  6.59341e+07
       882.80000  1.55322e-06  6.59807e+07
       882.90000  1.55322e-06  6.60117e+07
       883.00000  1.55322e-06  6.60428e+07
       883.10000  1.55322e-06  6.60739e+07
       883.20000  1.55322e-06  6.61049e+07
       883.30000  1.55322e-06  6.61205e+07
       883.40000  1.55322e-06  6.61360e+07
       883.50000  7.68932e-07  3.27488e+07
       883.60000  7.68932e-07  3.27488e+07
       883.70000  7.68932e-07  3.27488e+07
       883.80000  7.71733e-07  3.28681e+07
       883.90000  7.71733e-07  3.28604e+07
       884.00000  7.71733e-07  3.28527e+07
       884.10000  7.71733e-07  3.28064e+07
       884.20000  7.71733e-07  3.27601e+07
       884.30000  7.71733e-07  3.27138e+07
       884.40000  7.71733e-07  3.26675e+07
       884.50000  7.64270e-07  3.23057e+07
       884.60000  7.64270e-07  3.22675e+07
       884.70000  7.64270e-07  3.22293e+07
       884.80000  7.64270e-07  3.21987e+07
       884.90000  7.64270e-07  3.21605e+07
       885.00000  7.64270e-07  3.21299e+07
       885.10000  7.64270e-07  3.21070e+07
       885.20000  7.64270e-07  3.20764e+07
       885.30000  7.64270e-07  3.20535e+07
       885.40000  7.64270e-07  3.20306e+07
       885.50000  7.57153e-07  3.17171e+07
       885.60000  7.57153e-07  3.16944e+07
       885.70000  7.57153e-07  3.16793e+07
       885.80000  7.57153e-07  3.16717e+07
       885.90000  7.57153e-07  3.16566e+07
       886.00000  7.57153e-07  3.16490e+07
       886.10000  7.57153e-07  3.16414e+07
       886.20000  7.57153e-07  3.16338e+07
       886.30000  7.59071e-07  3.17140e+07
       886.40000  7.59071e-07  3.17140e+07
       886.50000  1.50161e-06  6.27373e+07
       886.60000  1.50161e-06  6.27523e+07
       886.70000  1.50161e-06  6.27673e+07
       886.80000  1.50161e-06  6.27823e+07
       886.90000  1.50161e-06  6.27973e+07
       887.00000  1.50161e-06  6.28273e+07
       887.10000  1.50161e-06  6.28574e+07
       887.20000  1.50161e-06  6.28874e+07
       887.30000  1.50161e-06  6.29174e+07
       887.40000  1.50161e-06  6.29625e+07
       887.50000  7.43521e-07  3.11981e+07
       887.60000  7.43521e-07  3.12279e+07
       887.70000  7.43521e-07  3.12502e+07
       887.80000  7.43521e-07  3.12799e+07
       887.90000  7.43521e-07  3.13171e+07
       888.00000  7.43521e-07  3.13468e+07
       888.10000  7.43521e-07  3.13840e+07
       888.20000  7.43521e-07  3.14137e+07
       888.30000  7.43521e-07  3.14509e+07
       888.40000  7.43521e-07  3.14807e+07
       888.50000  1.47142e-06  6.23586e+07
       888.60000  1.47142e-06  6.24028e+07
       888.70000  1.47142e-06  6.24469e+07
       888.80000  1.47764e-06  6.27554e+07
       888.90000  1.47764e-06  6.27998e+07
       889.00000  1.47764e-06  6.28441e+07
       889.10000  1.47764e-06  6.28736e+07
       889.20000  1.47764e-06  6.29032e+07
       889.30000  1.47764e-06  6.29327e+07
       889.40000  1.47764e-06  6.29475e+07
       889.50000  7.31335e-07  3.11695e+07
       889.60000  7.31335e-07  3.11768e+07
       889.70000  7.31335e-07  3.11841e+07
       889.80000  7.31335e-07  3.11841e+07
       889.90000  7.31335e-07  3.11841e+07
       890.00000  7.31335e-07  3.11841e+07
       890.10000  7.31335e-07  3.11622e+07
       890.20000  7.31335e-07  3.11403e+07
       890.30000  7.31335e-07  3.11183e+07
       890.40000  7.31335e-07  3.10964e+07
       890.50000  7.23763e-07  3.07527e+07
       890.60000  7.23763e-07  3.07310e+07
       890.70000  7.23763e-07  3.07093e+07
       890.80000  7.23763e-07  3.06875e+07
       890.90000  7.23763e-07  3.06658e+07
       891.00000  7.23763e-07  3.06514e+07
       891.10000  7.23763e-07  3.06296e+07
       891.20000  7.23763e-07  3.06152e+07
       891.30000  7.27276e-07  3.07420e+07
       891.40000  7.27276e-07  3.07274e+07
       891.50000  1.43898e-06  6.07682e+07
       891.60000  1.43898e-06  6.07394e+07
       891.70000  1.43898e-06  6.07106e+07
       891.80000  1.43898e-06  6.06818e+07
       891.90000  1.43898e-06  6.06530e+07
       892.00000  1.43898e-06  6.06243e+07
       892.10000  1.43898e-06  6.05955e+07
       892.20000  1.43898e-06  6.05811e+07
       892.30000  1.43898e-06  6.05523e+07
       892.40000  1.43898e-06  6.05379e+07
       892.50000  1.42318e-06  5.98447e+07
       892.60000  1.42318e-06  5.98304e+07
       892.70000  1.42318e-06  5.98162e+07
       892.80000  1.42318e-06  5.98020e+07
       892.90000  1.42318e-06  5.97877e+07
       893.00000  1.42318e-06  5.97735e+07
       893.10000  1.42318e-06  5.97593e+07
       893.20000  1.42318e-06  5.97450e+07
       893.30000  1.42318e-06  5.97308e+07
       893.40000  1.42318e-06  5.97308e+07
       893.50000  7.03940e-07  2.95373e+07
       893.60000  7.03940e-07  2.95373e+07
       893.70000  7.03940e-07  2.95303e+07
       893.80000  7.10073e-07  2.97876e+07
       893.90000  7.10073e-07  2.97876e+07
       894.00000  7.10073e-07  2.97876e+07
       894.10000  7.10073e-07  2.98089e+07
       894.20000  7.10073e-07  2.98231e+07
       894.30000  7.10073e-07  2.98444e+07
       894.40000  7.10073e-07  2.98586e+07
       894.50000  7.02183e-07  2.95479e+07
       894.60000  7.02183e-07  2.95619e+07
       894.70000  7.02183e-07  2.95760e+07
       894.80000  7.02183e-07  2.95900e+07
       894.90000  7.02183e-07  2.96040e+07
       895.00000  7.02183e-07  2.96181e+07
       895.10000  7.02183e-07  2.96251e+07
       895.20000  7.02183e-07  2.96392e+07
       895.30000  7.02183e-07  2.96462e+07
       895.40000  7.02183e-07  2.96532e+07
       895.50000  6.94688e-07  2.93506e+07
       895.60000  6.94688e-07  2.93575e+07
       895.70000  6.94688e-07  2.93645e+07
       895.80000  6.94688e-07  2.93645e+07
       895.90000  6.94688e-07  2.93714e+07
       896.00000  6.94688e-07  2.93784e+07
       896.10000  6.94688e-07  2.93853e+07
       896.20000  6.94688e-07  2.93853e+07
       896.30000  6.99432e-07  2.95930e+07
       896.40000  6.99432e-07  2.95930e+07
       896.50000  6.91554e-07  2.92597e+07
       896.60000  6.91554e-07  2.92597e+07
       896.70000  6.91554e-07  2.92597e+07
       896.80000  6.91554e-07  2.92597e+07
       896.90000  6.91554e-07  2.92597e+07
       897.00000  6.91554e-07  2.92528e+07
       897.10000  6.91554e-07  2.92528e+07
       897.20000  6.91554e-07  2.92458e+07
       897.30000  6.91554e-07  2.92389e+07
       897.40000  6.91554e-07  2.92320e+07
       897.50000  6.83322e-07  2.88704e+07
       897.60000  6.83322e-07  2.88635e+07
       897.70000  6.83322e-07  2.88498e+07
       897.80000  6.83322e-07  2.88430e+07
       897.90000  6.83322e-07  2.88294e+07
       898.00000  6.83322e-07  2.88157e+07
       898.10000  6.83322e-07  2.87952e+07
       898.20000  6.83322e-07  2.87815e+07
       898.30000  6.83322e-07  2.87679e+07
       898.40000  6.83322e-07  2.87474e+07
       898.50000  6.75927e-07  2.84160e+07
       898.60000  6.75927e-07  2.83957e+07
       898.70000  6.75927e-07  2.83754e+07
       898.80000  6.80765e-07  2.85581e+07
       898.90000  6.80765e-07  2.85309e+07
       899.00000  6.80765e-07  2.85104e+07
       899.10000  6.80765e-07  2.84832e+07
       899.20000  6.80765e-07  2.84560e+07
       899.30000  6.80765e-07  2.84288e+07
       899.40000  6.80765e-07  2.84015e+07
       899.50000  6.72955e-07  2.80488e+07
       899.60000  6.72955e-07  2.80151e+07
       899.70000  6.72955e-07  2.79882e+07
       899.80000  6.72955e-07  2.79546e+07
       899.90000  6.72955e-07  2.79209e+07
       900.00000  6.72955e-07  2.78873e+07
       900.10000  6.72955e-07  2.78065e+07
       900.20000  6.72955e-07  2.77392e+07
       900.30000  6.72955e-07  2.76652e+07
       900.40000  6.72955e-07  2.76046e+07
       900.50000  6.66203e-07  2.72677e+07
       900.60000  6.66203e-07  2.72144e+07
       900.70000  6.66203e-07  2.71611e+07
       900.80000  6.66203e-07  2.71211e+07
       900.90000  6.66203e-07  2.70811e+07
       901.00000  6.66203e-07  2.70412e+07
       901.10000  6.66203e-07  2.70145e+07
       901.20000  6.66203e-07  2.69879e+07
       901.30000  6.68916e-07  2.70710e+07
       901.40000  6.68916e-07  2.70577e+07
       901.50000  6.62200e-07  2.67728e+07
       901.60000  6.62200e-07  2.67661e+07
       901.70000  6.62200e-07  2.67595e+07
       901.80000  6.62200e-07  2.67595e+07
       901.90000  6.62200e-07  2.67661e+07
       902.00000  6.62200e-07  2.67794e+07
       902.10000  6.62200e-07  2.68721e+07
       902.20000  6.62200e-07  2.69582e+07
       902.30000  6.62200e-07  2.70443e+07
       902.40000  6.62200e-07  2.71237e+07
       902.50000  6.55479e-07  2.69271e+07
       902.60000  6.55479e-07  2.69992e+07
       902.70000  6.55479e-07  2.70713e+07
       902.80000  6.55479e-07  2.71368e+07
       902.90000  6.55479e-07  2.72024e+07
       903.00000  6.55479e-07  2.72614e+07
       903.10000  6.55479e-07  2.73204e+07
       903.20000  6.55479e-07  2.73728e+07
       903.30000  6.55479e-07  2.74187e+07
       903.40000  6.55479e-07  2.74646e+07
       903.50000  6.30854e-07  2.64706e+07
       903.60000  6.30854e-07  2.65085e+07
       903.70000  6.30854e-07  2.65463e+07
       903.80000  6.34196e-07  2.67123e+07
       903.90000  6.34196e-07  2.67440e+07
       904.00000  6.34196e-07  2.67631e+07
       904.10000  6.34196e-07  2.67821e+07
       904.20000  6.34196e-07  2.68011e+07
       904.30000  6.34196e-07  2.68138e+07
       904.40000  6.34196e-07  2.68201e+07
       904.50000  6.45725e-07  2.73142e+07
       904.60000  6.45725e-07  2.73206e+07
       904.70000  6.45725e-07  2.73206e+07
       904.80000  6.45725e-07  2.73142e+07
       904.90000  6.45725e-07  2.73077e+07
       905.00000  6.45725e-07  2.72948e+07
       905.10000  6.45725e-07  2.72819e+07
       905.20000  6.45725e-07  2.72625e+07
       905.30000  6.45725e-07  2.72431e+07
       905.40000  6.45725e-07  2.72173e+07
       905.50000  5.04140e-07  2.12243e+07
       905.60000  5.04140e-07  2.11991e+07
       905.70000  5.04140e-07  2.11739e+07
       905.80000  5.04140e-07  2.11436e+07
       905.90000  5.04140e-07  2.11083e+07
       906.00000  5.04140e-07  2.10730e+07
       906.10000  5.04140e-07  2.10529e+07
       906.20000  5.04140e-07  2.10378e+07
       906.30000  5.06466e-07  2.11196e+07
       906.40000  5.06466e-07  2.10994e+07
       906.50000  4.99646e-07  2.08002e+07
       906.60000  4.99646e-07  2.07853e+07
       906.70000  4.99646e-07  2.07703e+07
       906.80000  4.99646e-07  2.07553e+07
       906.90000  4.99646e-07  2.07403e+07
       907.00000  4.99646e-07  2.07253e+07
       907.10000  4.99646e-07  2.07103e+07
       907.20000  4.99646e-07  2.06953e+07
       907.30000  4.99646e-07  2.06803e+07
       907.40000  4.99646e-07  2.06653e+07
       907.50000  6.14562e-07  2.53998e+07
       907.60000  6.14562e-07  2.53876e+07
       907.70000  6.14562e-07  2.53691e+07
       907.80000  6.14562e-07  2.53507e+07
       907.90000  6.14562e-07  2.53384e+07
       908.00000  6.14562e-07  2.53199e+07
       908.10000  6.14562e-07  2.52954e+07
       908.20000  6.14562e-07  2.52769e+07
       908.30000  6.14562e-07  2.52523e+07
       908.40000  6.14562e-07  2.52339e+07
       908.50000  6.21939e-07  2.55182e+07
       908.60000  6.21939e-07  2.54995e+07
       908.70000  6.21939e-07  2.54871e+07
       908.80000  6.24078e-07  2.55560e+07
       908.90000  6.24078e-07  2.55435e+07
       909.00000  6.24078e-07  2.55310e+07
       909.10000  6.24078e-07  2.55185e+07
       909.20000  6.24078e-07  2.55061e+07
       909.30000  6.24078e-07  2.54936e+07
       909.40000  6.24078e-07  2.54873e+07
       909.50000  6.17224e-07  2.52013e+07
       909.60000  6.17224e-07  2.51951e+07
       909.70000  6.17224e-07  2.51889e+07
       909.80000  6.17224e-07  2.51827e+07
       909.90000  6.17224e-07  2.51827e+07
       910.00000  6.17224e-07  2.51766e+07
       910.10000  6.17224e-07  2.51766e+07
       910.20000  6.17224e-07  2.51766e+07
       910.30000  6.17224e-07  2.51827e+07
       910.40000  6.17224e-07  2.51827e+07
       910.50000  5.48840e-07  2.23982e+07
       910.60000  5.48840e-07  2.23982e+07
       910.70000  5.48840e-07  2.24037e+07
       910.80000  5.48840e-07  2.24146e+07
       910.90000  5.48840e-07  2.24201e+07
       911.00000  5.48840e-07  2.24256e+07
       911.10000  5.48840e-07  2.24366e+07
       911.20000  5.48840e-07  2.24476e+07
       911.30000  5.49349e-07  2.24794e+07
       911.40000  5.49349e-07  2.24904e+07
       911.50000  4.09638e-07  1.67829e+07
       911.60000  4.09638e-07  1.67911e+07
       911.70000  4.09638e-07  1.68034e+07
       911.80000  4.09638e-07  1.68156e+07
       911.90000  4.09638e-07  1.68279e+07
       912.00000  4.09638e-07  1.68443e+07
       912.10000  4.09638e-07  1.68648e+07
       912.20000  4.09638e-07  1.68812e+07
       912.30000  4.09638e-07  1.68976e+07
       912.40000  4.09638e-07  1.69140e+07
       912.50000  4.99691e-07  2.06522e+07
       912.60000  4.99691e-07  2.06722e+07
       912.70000  4.99691e-07  2.06922e+07
       912.80000  4.99691e-07  2.07072e+07
       912.90000  4.99691e-07  2.07222e+07
       913.00000  4.99691e-07  2.07372e+07
       913.10000  4.99691e-07  2.07522e+07
       913.20000  4.99691e-07  2.07622e+07
       913.30000  4.99691e-07  2.07771e+07
       913.40000  4.99691e-07  2.07871e+07
       913.50000  5.90773e-07  2.45880e+07
       913.60000  5.90773e-07  2.45998e+07
       913.70000  5.90773e-07  2.46057e+07
       913.80000  5.93924e-07  2.47429e+07
       913.90000  5.93924e-07  2.47548e+07
       914.00000  5.93924e-07  2.47607e+07
       914.10000  5.93924e-07  2.47488e+07
       914.20000  5.93924e-07  2.47429e+07
       914.30000  5.93924e-07  2.47369e+07
       914.40000  5.93924e-07  2.47310e+07
       914.50000  5.51570e-07  2.29619e+07
       914.60000  5.51570e-07  2.29508e+07
       914.70000  5.51570e-07  2.29453e+07
       914.80000  5.51570e-07  2.29398e+07
       914.90000  5.51570e-07  2.29343e+07
       915.00000  5.51570e-07  2.29288e+07
       915.10000  5.51570e-07  2.29233e+07
       915.20000  5.51570e-07  2.29177e+07
       915.30000  5.51570e-07  2.29122e+07
       915.40000  5.51570e-07  2.29067e+07
       915.50000  5.75547e-07  2.38967e+07
       915.60000  5.75547e-07  2.38909e+07
       915.70000  5.75547e-07  2.38852e+07
       915.80000  5.75547e-07  2.38794e+07
       915.90000  5.75547e-07  2.38737e+07
       916.00000  5.75547e-07  2.38679e+07
       916.10000  5.75547e-07  2.38622e+07
       916.20000  5.75547e-07  2.38564e+07
       916.30000  5.79653e-07  2.40208e+07
       916.40000  5.79653e-07  2.40150e+07
       916.50000  5.77687e-07  2.39278e+07
       916.60000  5.77687e-07  2.39278e+07
       916.70000  5.77687e-07  2.39220e+07
       916.80000  5.77687e-07  2.39162e+07
       916.90000  5.77687e-07  2.39104e+07
       917.00000  5.77687e-07  2.39047e+07
       917.10000  5.77687e-07  2.39047e+07
       917.20000  5.77687e-07  2.38989e+07
       917.30000  5.77687e-07  2.38931e+07
       917.40000  5.77687e-07  2.38873e+07
       917.50000  5.54006e-07  2.29081e+07
       917.60000  5.54006e-07  2.29026e+07
       917.70000  5.54006e-07  2.28971e+07
       917.80000  5.54006e-07  2.28971e+07
       917.90000  5.54006e-07  2.28915e+07
       918.00000  5.54006e-07  2.28860e+07
       918.10000  5.54006e-07  2.28971e+07
       918.20000  5.54006e-07  2.29081e+07
       918.30000  5.54006e-07  2.29192e+07
       918.40000  5.54006e-07  2.29248e+07
       918.50000  5.45957e-07  2.25971e+07
       918.60000  5.45957e-07  2.26026e+07
       918.70000  5.45957e-07  2.26026e+07
       918.80000  5.51036e-07  2.28129e+07
       918.90000  5.51036e-07  2.28129e+07
       919.00000  5.51036e-07  2.28129e+07
       919.10000  5.51036e-07  2.28074e+07
       919.20000  5.51036e-07  2.28019e+07
       919.30000  5.51036e-07  2.27964e+07
       919.40000  5.51036e-07  2.27854e+07
       919.50000  4.88148e-07  2.01752e+07
       919.60000  4.88148e-07  2.01654e+07
       919.70000  4.88148e-07  2.01556e+07
       919.80000  4.88148e-07  2.01410e+07
       919.90000  4.88148e-07  2.01312e+07
       920.00000  4.88148e-07  2.01166e+07
       920.10000  4.88148e-07  2.00726e+07
       920.20000  4.88148e-07  2.00336e+07
       920.30000  4.88148e-07  1.99945e+07
       920.40000  4.88148e-07  1.99555e+07
       920.50000  5.24244e-07  2.13891e+07
       920.60000  5.24244e-07  2.13524e+07
       920.70000  5.24244e-07  2.13157e+07
       920.80000  5.24244e-07  2.12843e+07
       920.90000  5.24244e-07  2.12476e+07
       921.00000  5.24244e-07  2.12161e+07
       921.10000  5.24244e-07  2.11847e+07
       921.20000  5.24244e-07  2.11585e+07
       921.30000  5.26411e-07  2.12144e+07
       921.40000  5.26411e-07  2.11880e+07
       921.50000  5.50631e-07  2.21354e+07
       921.60000  5.50631e-07  2.21133e+07
       921.70000  5.50631e-07  2.20913e+07
       921.80000  5.50631e-07  2.20693e+07
       921.90000  5.50631e-07  2.20473e+07
       922.00000  5.50631e-07  2.20307e+07
       922.10000  5.50631e-07  2.20087e+07
       922.20000  5.50631e-07  2.19977e+07
       922.30000  5.50631e-07  2.19812e+07
       922.40000  5.50631e-07  2.19702e+07
       922.50000  5.13075e-07  2.04563e+07
       922.60000  5.13075e-07  2.04512e+07
       922.70000  5.13075e-07  2.04409e+07
       922.80000  5.13075e-07  2.04358e+07
       922.90000  5.13075e-07  2.04306e+07
       923.00000  5.13075e-07  2.04255e+07
       923.10000  5.13075e-07  2.04255e+07
       923.20000  5.13075e-07  2.04204e+07
       923.30000  5.13075e-07  2.04204e+07
       923.40000  5.13075e-07  2.04255e+07
       923.50000  5.36815e-07  2.13706e+07
       923.60000  5.36815e-07  2.13760e+07
       923.70000  5.36815e-07  2.13813e+07
       923.80000  5.38032e-07  2.14406e+07
       923.90000  5.38032e-07  2.14459e+07
       924.00000  5.38032e-07  2.14567e+07
       924.10000  5.38032e-07  2.14567e+07
       924.20000  5.38032e-07  2.14567e+07
       924.30000  5.38032e-07  2.14567e+07
       924.40000  5.38032e-07  2.14567e+07
       924.50000  5.31002e-07  2.11764e+07
       924.60000  5.31002e-07  2.11764e+07
       924.70000  5.31002e-07  2.11817e+07
       924.80000  5.31002e-07  2.11870e+07
       924.90000  5.31002e-07  2.11870e+07
       925.00000  5.31002e-07  2.11923e+07
       925.10000  5.31002e-07  2.12029e+07
       925.20000  5.31002e-07  2.12082e+07
       925.30000  5.31002e-07  2.12135e+07
       925.40000  5.31002e-07  2.12241e+07
       925.50000  5.23876e-07  2.09498e+07
       925.60000  5.23876e-07  2.09603e+07
       925.70000  5.23876e-07  2.09708e+07
       925.80000  5.23876e-07  2.09812e+07
       925.90000  5.23876e-07  2.09917e+07
       926.00000  5.23876e-07  2.10074e+07
       926.10000  5.23876e-07  2.10389e+07
       926.20000  5.23876e-07  2.10755e+07
       926.30000  5.26049e-07  2.11945e+07
       926.40000  5.26049e-07  2.12261e+07
       926.50000  5.19140e-07  2.09785e+07
       926.60000  5.19140e-07  2.10044e+07
       926.70000  5.19140e-07  2.10304e+07
       926.80000  5.19140e-07  2.10563e+07
       926.90000  5.19140e-07  2.10823e+07
       927.00000  5.19140e-07  2.11031e+07
       927.10000  5.19140e-07  2.11238e+07
       927.20000  5.19140e-07  2.11446e+07
       927.30000  5.19140e-07  2.11602e+07
       927.40000  5.19140e-07  2.11757e+07
       927.50000  4.66400e-07  1.90384e+07
       927.60000  4.66400e-07  1.90478e+07
       927.70000  4.66400e-07  1.90618e+07
       927.80000  4.66400e-07  1.90711e+07
       927.90000  4.66400e-07  1.90758e+07
       928.00000  4.66400e-07  1.90804e+07
       928.10000  4.66400e-07  1.90711e+07
       928.20000  4.66400e-07  1.90618e+07
       928.30000  4.66400e-07  1.90478e+07
       928.40000  4.66400e-07  1.90384e+07
       928.50000  5.05030e-07  2.06052e+07
       928.60000  5.05030e-07  2.05951e+07
       928.70000  5.05030e-07  2.05850e+07
       928.80000  5.07377e-07  2.06705e+07
       928.90000  5.07377e-07  2.06604e+07
       929.00000  5.07377e-07  2.06553e+07
       929.10000  5.07377e-07  2.06452e+07
       929.20000  5.07377e-07  2.06350e+07
       929.30000  5.07377e-07  2.06299e+07
       929.40000  5.07377e-07  2.06198e+07
       929.50000  5.00443e-07  2.03330e+07
       929.60000  5.00443e-07  2.03280e+07
       929.70000  5.00443e-07  2.03180e+07
       929.80000  5.00443e-07  2.03130e+07
       929.90000  5.00443e-07  2.03080e+07
       930.00000  5.00443e-07  2.03030e+07
       930.10000  5.00443e-07  2.03030e+07
       930.20000  5.00443e-07  2.03030e+07
       930.30000  5.00443e-07  2.02980e+07
       930.40000  5.00443e-07  2.02980e+07
       930.50000  4.93338e-07  2.00098e+07
       930.60000  4.93338e-07  2.00098e+07
       930.70000  4.93338e-07  2.00049e+07
       930.80000  4.93338e-07  2.00049e+07
       930.90000  4.93338e-07  2.00049e+07
       931.00000  4.93338e-07  2.00049e+07
       931.10000  4.93338e-07  2.00049e+07
       931.20000  4.93338e-07  1.99999e+07
       931.30000  4.95562e-07  2.00901e+07
       931.40000  4.95562e-07  2.00901e+07
       931.50000  4.64929e-07  1.88482e+07
       931.60000  4.64929e-07  1.88482e+07
       931.70000  4.64929e-07  1.88482e+07
       931.80000  4.64929e-07  1.88482e+07
       931.90000  4.64929e-07  1.88482e+07
       932.00000  4.64929e-07  1.88482e+07
       932.10000  4.64929e-07  1.88482e+07
       932.20000  4.64929e-07  1.88482e+07
       932.30000  4.64929e-07  1.88482e+07
       932.40000  4.64929e-07  1.88482e+07
       932.50000  4.81343e-07  1.95136e+07
       932.60000  4.81343e-07  1.95136e+07
       932.70000  4.81343e-07  1.95136e+07
       932.80000  4.81343e-07  1.95185e+07
       932.90000  4.81343e-07  1.95185e+07
       933.00000  4.81343e-07  1.95185e+07
       933.10000  4.81343e-07  1.95185e+07
       933.20000  4.81343e-07  1.95185e+07
       933.30000  4.81343e-07  1.95233e+07
       933.40000  4.81343e-07  1.95233e+07
       933.50000  4.74204e-07  1.92337e+07
       933.60000  4.74204e-07  1.92385e+07
       933.70000  4.74204e-07  1.92385e+07
       933.80000  4.75992e-07  1.93110e+07
       933.90000  4.75992e-07  1.93158e+07
       934.00000  4.75992e-07  1.93158e+07
       934.10000  4.75992e-07  1.93015e+07
       934.20000  4.75992e-07  1.92872e+07
       934.30000  4.75992e-07  1.92729e+07
       934.40000  4.75992e-07  1.92586e+07
       934.50000  4.68812e-07  1.89541e+07
       934.60000  4.68812e-07  1.89447e+07
       934.70000  4.68812e-07  1.89353e+07
       934.80000  4.68812e-07  1.89212e+07
       934.90000  4.68812e-07  1.89119e+07
       935.00000  4.68812e-07  1.89072e+07
       935.10000  4.68812e-07  1.88978e+07
       935.20000  4.68812e-07  1.88884e+07
       935.30000  4.68812e-07  1.88837e+07
       935.40000  4.68812e-07  1.88790e+07
       935.50000  4.61710e-07  1.85885e+07
       935.60000  4.61710e-07  1.85838e+07
       935.70000  4.61710e-07  1.85792e+07
       935.80000  4.61710e-07  1.85746e+07
       935.90000  4.61710e-07  1.85746e+07
       936.00000  4.61710e-07  1.85700e+07
       936.10000  4.61710e-07  1.85838e+07
       936.20000  4.61710e-07  1.85977e+07
       936.30000  4.63317e-07  1.86763e+07
       936.40000  4.63317e-07  1.86902e+07
       936.50000  4.56179e-07  1.84114e+07
       936.60000  4.56179e-07  1.84205e+07
       936.70000  4.56179e-07  1.84296e+07
       936.80000  4.56179e-07  1.84388e+07
       936.90000  4.56179e-07  1.84433e+07
       937.00000  4.56179e-07  1.84524e+07
       937.10000  4.56179e-07  1.84570e+07
       937.20000  4.56179e-07  1.84616e+07
       937.30000  4.56179e-07  1.84616e+07
       937.40000  4.56179e-07  1.84661e+07
       937.50000  4.48985e-07  1.81749e+07
       937.60000  4.48985e-07  1.81749e+07
       937.70000  4.48985e-07  1.81749e+07
       937.80000  4.48985e-07  1.81749e+07
       937.90000  4.48985e-07  1.81704e+07
       938.00000  4.48985e-07  1.81704e+07
       938.10000  4.48985e-07  1.81659e+07
       938.20000  4.48985e-07  1.81569e+07
       938.30000  4.48985e-07  1.81524e+07
       938.40000  4.48985e-07  1.81435e+07
       938.50000  4.41901e-07  1.78528e+07
       938.60000  4.41901e-07  1.78439e+07
       938.70000  4.41901e-07  1.78307e+07
       938.80000  4.43141e-07  1.78719e+07
       938.90000  4.43141e-07  1.78586e+07
       939.00000  4.43141e-07  1.78497e+07
       939.10000  4.43141e-07  1.78364e+07
       939.20000  4.43141e-07  1.78187e+07
       939.30000  4.43141e-07  1.78054e+07
       939.40000  4.43141e-07  1.77877e+07
       939.50000  4.35906e-07  1.74798e+07
       939.60000  4.35906e-07  1.74624e+07
       939.70000  4.35906e-07  1.74450e+07
       939.80000  4.35906e-07  1.74275e+07
       939.90000  4.35906e-07  1.74057e+07
       940.00000  4.35906e-07  1.73839e+07
       940.10000  4.35906e-07  1.73534e+07
       940.20000  4.35906e-07  1.73229e+07
       940.30000  4.35906e-07  1.72968e+07
       940.40000  4.35906e-07  1.72706e+07
       940.50000  4.28637e-07  1.69569e+07
       940.60000  4.28637e-07  1.69354e+07
       940.70000  4.28637e-07  1.69140e+07
       940.80000  4.28637e-07  1.68926e+07
       940.90000  4.28637e-07  1.68711e+07
       941.00000  4.28637e-07  1.68540e+07
       941.10000  4.28637e-07  1.68369e+07
       941.20000  4.28637e-07  1.68240e+07
       941.30000  4.29189e-07  1.68328e+07
       941.40000  4.29189e-07  1.68199e+07
       941.50000  4.21943e-07  1.65233e+07
       941.60000  4.21943e-07  1.65148e+07
       941.70000  4.21943e-07  1.65064e+07
       941.80000  4.21943e-07  1.64980e+07
       941.90000  4.21943e-07  1.64895e+07
       942.00000  4.21943e-07  1.64853e+07
       942.10000  4.21943e-07  1.64980e+07
       942.20000  4.21943e-07  1.65064e+07
       942.30000  4.21943e-07  1.65191e+07
       942.40000  4.21943e-07  1.65275e+07
       942.50000  4.14880e-07  1.62591e+07
       942.60000  4.14880e-07  1.62716e+07
       942.70000  4.14880e-07  1.62799e+07
       942.80000  4.14880e-07  1.62882e+07
       942.90000  4.14880e-07  1.62965e+07
       943.00000  4.14880e-07  1.63048e+07
       943.10000  4.14880e-07  1.63172e+07
       943.20000  4.14880e-07  1.63255e+07
       943.30000  4.14880e-07  1.63338e+07
       943.40000  4.14880e-07  1.63421e+07
       943.50000  4.07581e-07  1.60628e+07
       943.60000  4.07581e-07  1.60709e+07
       943.70000  4.07581e-07  1.60791e+07
       943.80000  4.07517e-07  1.60847e+07
       943.90000  4.07517e-07  1.60929e+07
       944.00000  4.07517e-07  1.61010e+07
       944.10000  4.07517e-07  1.61092e+07
       944.20000  4.07517e-07  1.61173e+07
       944.30000  4.07517e-07  1.61214e+07
       944.40000  4.07517e-07  1.61295e+07
       944.50000  4.00314e-07  1.58524e+07
       944.60000  4.00314e-07  1.58604e+07
       944.70000  4.00314e-07  1.58645e+07
       944.80000  4.00314e-07  1.58725e+07
       944.90000  4.00314e-07  1.58805e+07
       945.00000  4.00314e-07  1.58845e+07
       945.10000  4.00314e-07  1.58925e+07
       945.20000  4.00314e-07  1.59005e+07
       945.30000  4.00314e-07  1.59045e+07
       945.40000  4.00314e-07  1.59125e+07
       945.50000  3.93048e-07  1.56276e+07
       945.60000  3.93048e-07  1.56354e+07
       945.70000  3.93048e-07  1.56394e+07
       945.80000  3.93048e-07  1.56472e+07
       945.90000  3.93048e-07  1.56512e+07
       946.00000  3.93048e-07  1.56551e+07
       946.10000  3.93048e-07  1.56630e+07
       946.20000  3.93048e-07  1.56708e+07
       946.30000  3.93165e-07  1.56834e+07
       946.40000  3.93165e-07  1.56912e+07
       946.50000  3.85934e-07  1.54104e+07
       946.60000  3.85934e-07  1.54142e+07
       946.70000  3.85934e-07  1.54219e+07
       946.80000  3.85934e-07  1.54258e+07
       946.90000  3.85934e-07  1.54297e+07
       947.00000  3.85934e-07  1.54374e+07
       947.10000  3.85934e-07  1.54412e+07
       947.20000  3.85934e-07  1.54451e+07
       947.30000  3.85934e-07  1.54490e+07
       947.40000  3.85934e-07  1.54528e+07
       947.50000  3.78794e-07  1.51669e+07
       947.60000  3.78794e-07  1.51707e+07
       947.70000  3.78794e-07  1.51745e+07
       947.80000  3.78794e-07  1.51745e+07
       947.90000  3.78794e-07  1.51783e+07
       948.00000  3.78794e-07  1.51783e+07
       948.10000  3.78794e-07  1.51783e+07
       948.20000  3.78794e-07  1.51783e+07
       948.30000  3.78794e-07  1.51745e+07
       948.40000  3.78794e-07  1.51745e+07
       948.50000  3.71456e-07  1.48768e+07
       948.60000  3.71456e-07  1.48768e+07
       948.70000  3.71456e-07  1.48768e+07
       948.80000  3.72609e-07  1.49193e+07
       948.90000  3.72609e-07  1.49193e+07
       949.00000  3.72609e-07  1.49155e+07
       949.10000  3.72609e-07  1.49155e+07
       949.20000  3.72609e-07  1.49118e+07
       949.30000  3.72609e-07  1.49118e+07
       949.40000  3.72609e-07  1.49081e+07
       949.50000  3.65419e-07  1.46204e+07
       949.60000  3.65419e-07  1.46167e+07
       949.70000  3.65419e-07  1.46131e+07
       949.80000  3.65419e-07  1.46131e+07
       949.90000  3.65419e-07  1.46094e+07
       950.00000  3.65419e-07  1.46058e+07
       950.10000  3.65419e-07  1.46058e+07
       950.20000  3.65419e-07  1.46021e+07
       950.30000  3.65419e-07  1.45985e+07
       950.40000  3.65419e-07  1.45985e+07
       950.50000  3.60833e-07  1.44117e+07
       950.60000  3.60833e-07  1.44081e+07
       950.70000  3.60833e-07  1.44045e+07
       950.80000  3.60833e-07  1.44045e+07
       950.90000  3.60833e-07  1.44009e+07
       951.00000  3.60833e-07  1.43972e+07
       951.10000  3.60833e-07  1.43936e+07
       951.20000  3.60833e-07  1.43900e+07
       951.30000  3.60489e-07  1.43763e+07
       951.40000  3.60489e-07  1.43727e+07
       951.50000  3.56189e-07  1.41977e+07
       951.60000  3.56189e-07  1.41941e+07
       951.70000  3.56189e-07  1.41906e+07
       951.80000  3.56189e-07  1.41870e+07
       951.90000  3.56189e-07  1.41835e+07
       952.00000  3.56189e-07  1.41799e+07
       952.10000  3.56189e-07  1.41514e+07
       952.20000  3.56189e-07  1.41229e+07
       952.30000  3.56189e-07  1.40980e+07
       952.40000  3.56189e-07  1.40730e+07
       952.50000  3.52057e-07  1.38851e+07
       952.60000  3.52057e-07  1.38605e+07
       952.70000  3.52057e-07  1.38394e+07
       952.80000  3.52057e-07  1.38183e+07
       952.90000  3.52057e-07  1.37971e+07
       953.00000  3.52057e-07  1.37795e+07
       953.10000  3.52057e-07  1.37619e+07
       953.20000  3.52057e-07  1.37443e+07
       953.30000  3.52057e-07  1.37302e+07
       953.40000  3.52057e-07  1.37126e+07
       953.50000  3.47798e-07  1.35328e+07
       953.60000  3.47798e-07  1.35224e+07
       953.70000  3.47798e-07  1.35085e+07
       953.80000  3.48540e-07  1.35268e+07
       953.90000  3.48540e-07  1.35164e+07
       954.00000  3.48540e-07  1.35094e+07
       954.10000  3.48540e-07  1.35059e+07
       954.20000  3.48540e-07  1.35024e+07
       954.30000  3.48540e-07  1.35024e+07
       954.40000  3.48540e-07  1.35024e+07
       954.50000  3.44227e-07  1.33319e+07
       954.60000  3.44227e-07  1.33319e+07
       954.70000  3.44227e-07  1.33319e+07
       954.80000  3.44227e-07  1.33319e+07
       954.90000  3.44227e-07  1.33354e+07
       955.00000  3.44227e-07  1.33354e+07
       955.10000  3.44227e-07  1.33388e+07
       955.20000  3.44227e-07  1.33388e+07
       955.30000  3.44227e-07  1.33422e+07
       955.40000  3.44227e-07  1.33457e+07
       955.50000  3.39961e-07  1.31837e+07
       955.60000  3.39961e-07  1.31871e+07
       955.70000  3.39961e-07  1.31905e+07
       955.80000  3.39961e-07  1.31973e+07
       955.90000  3.39961e-07  1.32007e+07
       956.00000  3.39961e-07  1.32075e+07
       956.10000  3.39961e-07  1.32143e+07
       956.20000  3.39961e-07  1.32177e+07
       956.30000  3.41116e-07  1.32694e+07
       956.40000  3.41116e-07  1.32796e+07
       956.50000  3.36837e-07  1.31198e+07
       956.60000  3.36837e-07  1.31265e+07
       956.70000  3.36837e-07  1.31366e+07
       956.80000  3.36837e-07  1.31434e+07
       956.90000  3.36837e-07  1.31535e+07
       957.00000  3.36837e-07  1.31636e+07
       957.10000  3.36837e-07  1.31737e+07
       957.20000  3.36837e-07  1.31838e+07
       957.30000  3.36837e-07  1.31973e+07
       957.40000  3.36837e-07  1.32074e+07
       957.50000  3.15394e-07  1.23760e+07
       957.60000  3.15394e-07  1.23887e+07
       957.70000  3.15394e-07  1.24013e+07
       957.80000  3.15394e-07  1.24139e+07
       957.90000  3.15394e-07  1.24265e+07
       958.00000  3.15394e-07  1.24391e+07
       958.10000  3.15394e-07  1.24391e+07
       958.20000  3.15394e-07  1.24360e+07
       958.30000  3.15394e-07  1.24360e+07
       958.40000  3.15394e-07  1.24360e+07
       958.50000  3.14324e-07  1.23938e+07
       958.60000  3.14324e-07  1.23906e+07
       958.70000  3.14324e-07  1.23906e+07
       958.80000  3.14648e-07  1.24034e+07
       958.90000  3.14648e-07  1.24003e+07
       959.00000  3.14648e-07  1.24003e+07
       959.10000  3.14648e-07  1.23972e+07
       959.20000  3.14648e-07  1.23972e+07
       959.30000  3.14648e-07  1.23940e+07
       959.40000  3.14648e-07  1.23909e+07
       959.50000  3.24348e-07  1.27728e+07
       959.60000  3.24348e-07  1.27696e+07
       959.70000  3.24348e-07  1.27696e+07
       959.80000  3.24348e-07  1.27663e+07
       959.90000  3.24348e-07  1.27631e+07
       960.00000  3.24348e-07  1.27598e+07
       960.10000  3.24348e-07  1.27566e+07
       960.20000  3.24348e-07  1.27534e+07
       960.30000  3.24348e-07  1.27501e+07
       960.40000  3.24348e-07  1.27469e+07
       960.50000  2.72466e-07  1.07052e+07
       960.60000  2.72466e-07  1.07025e+07
       960.70000  2.72466e-07  1.06997e+07
       960.80000  2.72466e-07  1.06970e+07
       960.90000  2.72466e-07  1.06943e+07
       961.00000  2.72466e-07  1.06916e+07
       961.10000  2.72466e-07  1.06888e+07
       961.20000  2.72466e-07  1.06861e+07
       961.30000  2.73001e-07  1.07044e+07
       961.40000  2.73001e-07  1.07016e+07
       961.50000  3.03765e-07  1.19046e+07
       961.60000  3.03765e-07  1.18985e+07
       961.70000  3.03765e-07  1.18954e+07
       961.80000  3.03765e-07  1.18924e+07
       961.90000  3.03765e-07  1.18894e+07
       962.00000  3.03765e-07  1.18863e+07
       962.10000  3.03765e-07  1.18803e+07
       962.20000  3.03765e-07  1.18772e+07
       962.30000  3.03765e-07  1.18742e+07
       962.40000  3.03765e-07  1.18681e+07
       962.50000  3.12135e-07  1.21920e+07
       962.60000  3.12135e-07  1.21889e+07
       962.70000  3.12135e-07  1.21826e+07
       962.80000  3.12135e-07  1.21795e+07
       962.90000  3.12135e-07  1.21733e+07
       963.00000  3.12135e-07  1.21701e+07
       963.10000  3.12135e-07  1.21670e+07
       963.20000  3.12135e-07  1.21608e+07
       963.30000  3.12135e-07  1.21577e+07
       963.40000  3.12135e-07  1.21514e+07
       963.50000  2.53698e-07  9.87393e+06
       963.60000  2.53698e-07  9.86886e+06
       963.70000  2.53698e-07  9.86632e+06
       963.80000  2.54234e-07  9.88207e+06
       963.90000  2.54234e-07  9.87699e+06
       964.00000  2.54234e-07  9.87445e+06
       964.10000  2.54234e-07  9.86936e+06
       964.20000  2.54234e-07  9.86173e+06
       964.30000  2.54234e-07  9.85665e+06
       964.40000  2.54234e-07  9.85411e+06
       964.50000  2.67725e-07  1.03717e+07
       964.60000  2.67725e-07  1.03663e+07
       964.70000  2.67725e-07  1.03636e+07
       964.80000  2.67725e-07  1.03583e+07
       964.90000  2.67725e-07  1.03556e+07
       965.00000  2.67725e-07  1.03502e+07
       965.10000  2.67725e-07  1.03476e+07
       965.20000  2.67725e-07  1.03449e+07
       965.30000  2.67725e-07  1.03422e+07
       965.40000  2.67725e-07  1.03422e+07
       965.50000  2.56209e-07  9.89479e+06
       965.60000  2.56209e-07  9.89222e+06
       965.70000  2.56209e-07  9.89222e+06
       965.80000  2.56209e-07  9.88966e+06
       965.90000  2.56209e-07  9.88966e+06
       966.00000  2.56209e-07  9.88966e+06
       966.10000  2.56209e-07  9.89222e+06
       966.20000  2.56209e-07  9.89479e+06
       966.30000  2.57049e-07  9.93238e+06
       966.40000  2.57049e-07  9.93494e+06
       966.50000  2.45833e-07  9.50392e+06
       966.60000  2.45833e-07  9.50638e+06
       966.70000  2.45833e-07  9.50884e+06
       966.80000  2.45833e-07  9.51130e+06
       966.90000  2.45833e-07  9.51376e+06
       967.00000  2.45833e-07  9.51621e+06
       967.10000  2.45833e-07  9.51867e+06
       967.20000  2.45833e-07  9.52113e+06
       967.30000  2.45833e-07  9.52359e+06
       967.40000  2.45833e-07  9.52605e+06
       967.50000  2.44068e-07  9.45763e+06
       967.60000  2.44068e-07  9.46007e+06
       967.70000  2.44068e-07  9.46252e+06
       967.80000  2.44068e-07  9.46252e+06
       967.90000  2.44068e-07  9.46496e+06
       968.00000  2.44068e-07  9.46740e+06
       968.10000  2.44068e-07  9.46740e+06
       968.20000  2.44068e-07  9.46984e+06
       968.30000  2.44068e-07  9.46984e+06
       968.40000  2.44068e-07  9.46984e+06
       968.50000  2.50965e-07  9.73996e+06
       968.60000  2.50965e-07  9.73996e+06
       968.70000  2.50965e-07  9.73996e+06
       968.80000  2.51558e-07  9.76548e+06
       968.90000  2.51558e-07  9.76548e+06
       969.00000  2.51558e-07  9.76548e+06
       969.10000  2.51558e-07  9.76548e+06
       969.20000  2.51558e-07  9.76548e+06
       969.30000  2.51558e-07  9.76548e+06
       969.40000  2.51558e-07  9.76548e+06
       969.50000  2.28315e-07  8.86317e+06
       969.60000  2.28315e-07  8.86317e+06
       969.70000  2.28315e-07  8.86317e+06
       969.80000  2.28315e-07  8.86317e+06
       969.90000  2.28315e-07  8.86317e+06
       970.00000  2.28315e-07  8.86317e+06
       970.10000  2.28315e-07  8.86545e+06
       970.20000  2.28315e-07  8.86774e+06
       970.30000  2.28315e-07  8.86774e+06
       970.40000  2.28315e-07  8.87002e+06
       970.50000  2.19834e-07  8.54054e+06
       970.60000  2.19834e-07  8.54274e+06
       970.70000  2.19834e-07  8.54274e+06
       970.80000  2.19834e-07  8.54274e+06
       970.90000  2.19834e-07  8.54274e+06
       971.00000  2.19834e-07  8.54274e+06
       971.10000  2.19834e-07  8.54274e+06
       971.20000  2.19834e-07  8.54054e+06
       971.30000  2.20190e-07  8.55438e+06
       971.40000  2.20190e-07  8.55218e+06
       971.50000  2.03394e-07  7.89983e+06
       971.60000  2.03394e-07  7.89780e+06
       971.70000  2.03394e-07  7.89577e+06
       971.80000  2.03394e-07  7.89373e+06
       971.90000  2.03394e-07  7.89170e+06
       972.00000  2.03394e-07  7.88763e+06
       972.10000  2.03394e-07  7.87949e+06
       972.20000  2.03394e-07  7.87136e+06
       972.30000  2.03394e-07  7.86526e+06
       972.40000  2.03394e-07  7.85712e+06
       972.50000  1.99899e-07  7.71611e+06
       972.60000  1.99899e-07  7.70812e+06
       972.70000  1.99899e-07  7.70212e+06
       972.80000  1.99899e-07  7.69612e+06
       972.90000  1.99899e-07  7.69013e+06
       973.00000  1.99899e-07  7.68613e+06
       973.10000  1.99899e-07  7.68013e+06
       973.20000  1.99899e-07  7.67613e+06
       973.30000  1.99899e-07  7.67214e+06
       973.40000  1.99899e-07  7.66814e+06
       973.50000  1.93088e-07  7.40300e+06
       973.60000  1.93088e-07  7.39914e+06
       973.70000  1.93088e-07  7.39721e+06
       973.80000  1.93193e-07  7.39735e+06
       973.90000  1.93193e-07  7.39542e+06
       974.00000  1.93193e-07  7.39349e+06
       974.10000  1.93193e-07  7.39542e+06
       974.20000  1.93193e-07  7.39928e+06
       974.30000  1.93193e-07  7.40122e+06
       974.40000  1.93193e-07  7.40315e+06
       974.50000  1.68665e-07  6.46492e+06
       974.60000  1.68665e-07  6.46660e+06
       974.70000  1.68665e-07  6.46829e+06
       974.80000  1.68665e-07  6.46998e+06
       974.90000  1.68665e-07  6.46998e+06
       975.00000  1.68665e-07  6.47166e+06
       975.10000  1.68665e-07  6.47335e+06
       975.20000  1.68665e-07  6.47335e+06
       975.30000  1.68665e-07  6.47504e+06
       975.40000  1.68665e-07  6.47504e+06
       975.50000  1.89952e-07  7.29227e+06
       975.60000  1.89952e-07  7.29417e+06
       975.70000  1.89952e-07  7.29417e+06
       975.80000  1.89952e-07  7.29417e+06
       975.90000  1.89952e-07  7.29417e+06
       976.00000  1.89952e-07  7.29417e+06
       976.10000  1.89952e-07  7.29227e+06
       976.20000  1.89952e-07  7.29037e+06
       976.30000  1.89825e-07  7.28357e+06
       976.40000  1.89825e-07  7.28167e+06
       976.50000  1.69114e-07  6.48723e+06
       976.60000  1.69114e-07  6.48554e+06
       976.70000  1.69114e-07  6.48385e+06
       976.80000  1.69114e-07  6.48216e+06
       976.90000  1.69114e-07  6.48216e+06
       977.00000  1.69114e-07  6.48046e+06
       977.10000  1.69114e-07  6.47877e+06
       977.20000  1.69114e-07  6.47708e+06
       977.30000  1.69114e-07  6.47708e+06
       977.40000  1.69114e-07  6.47539e+06
       977.50000  1.71517e-07  6.56566e+06
       977.60000  1.71517e-07  6.56566e+06
       977.70000  1.71517e-07  6.56395e+06
       977.80000  1.71517e-07  6.56223e+06
       977.90000  1.71517e-07  6.56223e+06
       978.00000  1.71517e-07  6.56052e+06
       978.10000  1.71517e-07  6.56052e+06
       978.20000  1.71517e-07  6.55880e+06
       978.30000  1.71517e-07  6.55880e+06
       978.40000  1.71517e-07  6.55709e+06
       978.50000  1.65706e-07  6.33327e+06
       978.60000  1.65706e-07  6.33327e+06
       978.70000  1.65706e-07  6.33327e+06
       978.80000  1.65678e-07  6.33056e+06
       978.90000  1.65678e-07  6.33056e+06
       979.00000  1.65678e-07  6.32891e+06
       979.10000  1.65678e-07  6.32891e+06
       979.20000  1.65678e-07  6.32725e+06
       979.30000  1.65678e-07  6.32725e+06
       979.40000  1.65678e-07  6.32725e+06
       979.50000  1.48542e-07  5.67132e+06
       979.60000  1.48542e-07  5.67132e+06
       979.70000  1.48542e-07  5.67132e+06
       979.80000  1.48542e-07  5.66983e+06
       979.90000  1.48542e-07  5.66983e+06
       980.00000  1.48542e-07  5.66983e+06
       980.10000  1.48542e-07  5.67280e+06
       980.20000  1.48542e-07  5.67429e+06
       980.30000  1.48542e-07  5.67726e+06
       980.40000  1.48542e-07  5.67874e+06
       980.50000  1.64761e-07  6.30210e+06
       980.60000  1.64761e-07  6.30375e+06
       980.70000  1.64761e-07  6.30540e+06
       980.80000  1.64761e-07  6.30705e+06
       980.90000  1.64761e-07  6.30869e+06
       981.00000  1.64761e-07  6.31034e+06
       981.10000  1.64761e-07  6.31199e+06
       981.20000  1.64761e-07  6.31364e+06
       981.30000  1.65645e-07  6.34751e+06
       981.40000  1.65645e-07  6.34917e+06
       981.50000  1.62375e-07  6.22382e+06
       981.60000  1.62375e-07  6.22382e+06
       981.70000  1.62375e-07  6.22544e+06
       981.80000  1.62375e-07  6.22544e+06
       981.90000  1.62375e-07  6.22544e+06
       982.00000  1.62375e-07  6.22382e+06
       982.10000  1.62375e-07  6.22219e+06
       982.20000  1.62375e-07  6.21895e+06
       982.30000  1.62375e-07  6.21732e+06
       982.40000  1.62375e-07  6.21407e+06
       982.50000  1.43668e-07  5.49675e+06
       982.60000  1.43668e-07  5.49387e+06
       982.70000  1.43668e-07  5.49244e+06
       982.80000  1.43668e-07  5.49100e+06
       982.90000  1.43668e-07  5.48813e+06
       983.00000  1.43668e-07  5.48669e+06
       983.10000  1.43668e-07  5.48525e+06
       983.20000  1.43668e-07  5.48382e+06
       983.30000  1.43668e-07  5.48238e+06
       983.40000  1.43668e-07  5.47951e+06
       983.50000  1.35311e-07  5.15943e+06
       983.60000  1.35311e-07  5.15807e+06
       983.70000  1.35311e-07  5.15672e+06
       983.80000  1.35417e-07  5.15940e+06
       983.90000  1.35417e-07  5.15804e+06
       984.00000  1.35417e-07  5.15669e+06
       984.10000  1.35417e-07  5.15669e+06
       984.20000  1.35417e-07  5.15534e+06
       984.30000  1.35417e-07  5.15398e+06
       984.40000  1.35417e-07  5.15263e+06
       984.50000  1.30799e-07  4.97690e+06
       984.60000  1.30799e-07  4.97559e+06
       984.70000  1.30799e-07  4.97429e+06
       984.80000  1.30799e-07  4.97429e+06
       984.90000  1.30799e-07  4.97298e+06
       985.00000  1.30799e-07  4.97167e+06
       985.10000  1.30799e-07  4.97167e+06
       985.20000  1.30799e-07  4.97036e+06
       985.30000  1.30799e-07  4.97036e+06
       985.40000  1.30799e-07  4.97036e+06
       985.50000  1.33894e-07  5.08662e+06
       985.60000  1.33894e-07  5.08662e+06
       985.70000  1.33894e-07  5.08662e+06
       985.80000  1.33894e-07  5.08528e+06
       985.90000  1.33894e-07  5.08528e+06
       986.00000  1.33894e-07  5.08528e+06
       986.10000  1.33894e-07  5.08394e+06
       986.20000  1.33894e-07  5.08394e+06
       986.30000  1.33127e-07  5.05482e+06
       986.40000  1.33127e-07  5.05348e+06
       986.50000  1.28856e-07  4.89008e+06
       986.60000  1.28856e-07  4.89008e+06
       986.70000  1.28856e-07  4.88879e+06
       986.80000  1.28856e-07  4.88879e+06
       986.90000  1.28856e-07  4.88751e+06
       987.00000  1.28856e-07  4.88622e+06
       987.10000  1.28856e-07  4.88493e+06
       987.20000  1.28856e-07  4.88493e+06
       987.30000  1.28856e-07  4.88364e+06
       987.40000  1.28856e-07  4.88235e+06
       987.50000  1.27346e-07  4.82388e+06
       987.60000  1.27346e-07  4.82261e+06
       987.70000  1.27346e-07  4.82133e+06
       987.80000  1.27346e-07  4.82006e+06
       987.90000  1.27346e-07  4.81879e+06
       988.00000  1.27346e-07  4.81751e+06
       988.10000  1.27346e-07  4.81369e+06
       988.20000  1.27346e-07  4.81115e+06
       988.30000  1.27346e-07  4.80733e+06
       988.40000  1.27346e-07  4.80478e+06
       988.50000  1.24843e-07  4.70784e+06
       988.60000  1.24843e-07  4.70534e+06
       988.70000  1.24843e-07  4.70285e+06
       988.80000  1.25188e-07  4.71332e+06
       988.90000  1.25188e-07  4.71082e+06
       989.00000  1.25188e-07  4.70957e+06
       989.10000  1.25188e-07  4.70832e+06
       989.20000  1.25188e-07  4.70581e+06
       989.30000  1.25188e-07  4.70456e+06
       989.40000  1.25188e-07  4.70331e+06
       989.50000  1.20448e-07  4.52404e+06
       989.60000  1.20448e-07  4.52284e+06
       989.70000  1.20448e-07  4.52284e+06
       989.80000  1.20448e-07  4.52163e+06
       989.90000  1.20448e-07  4.52163e+06
       990.00000  1.20448e-07  4.52163e+06
       990.10000  1.20448e-07  4.52043e+06
       990.20000  1.20448e-07  4.52043e+06
       990.30000  1.20448e-07  4.52163e+06
       990.40000  1.20448e-07  4.52163e+06
       990.50000  1.20722e-07  4.53189e+06
       990.60000  1.20722e-07  4.53310e+06
       990.70000  1.20722e-07  4.53310e+06
       990.80000  1.20722e-07  4.53430e+06
       990.90000  1.20722e-07  4.53551e+06
       991.00000  1.20722e-07  4.53672e+06
       991.10000  1.20722e-07  4.53792e+06
       991.20000  1.20722e-07  4.53913e+06
       991.30000  1.20977e-07  4.54996e+06
       991.40000  1.20977e-07  4.55238e+06
       991.50000  1.22897e-07  4.62584e+06
       991.60000  1.22897e-07  4.62830e+06
       991.70000  1.22897e-07  4.63076e+06
       991.80000  1.22897e-07  4.63322e+06
       991.90000  1.22897e-07  4.63568e+06
       992.00000  1.22897e-07  4.63813e+06
       992.10000  1.22897e-07  4.63936e+06
       992.20000  1.22897e-07  4.63936e+06
       992.30000  1.22897e-07  4.63936e+06
       992.40000  1.22897e-07  4.63936e+06
       992.50000  1.17088e-07  4.42123e+06
       992.60000  1.17088e-07  4.42123e+06
       992.70000  1.17088e-07  4.42123e+06
       992.80000  1.17088e-07  4.42123e+06
       992.90000  1.17088e-07  4.42123e+06
       993.00000  1.17088e-07  4.42240e+06
       993.10000  1.17088e-07  4.42240e+06
       993.20000  1.17088e-07  4.42240e+06
       993.30000  1.17088e-07  4.42240e+06
       993.40000  1.17088e-07  4.42240e+06
       993.50000  1.15126e-07  4.34829e+06
       993.60000  1.15126e-07  4.34829e+06
       993.70000  1.15126e-07  4.34829e+06
       993.80000  1.15190e-07  4.35072e+06
       993.90000  1.15190e-07  4.34957e+06
       994.00000  1.15190e-07  4.34957e+06
       994.10000  1.15190e-07  4.34957e+06
       994.20000  1.15190e-07  4.34842e+06
       994.30000  1.15190e-07  4.34842e+06
       994.40000  1.15190e-07  4.34727e+06
       994.50000  1.06198e-07  4.00792e+06
       994.60000  1.06198e-07  4.00686e+06
       994.70000  1.06198e-07  4.00686e+06
       994.80000  1.06198e-07  4.00580e+06
       994.90000  1.06198e-07  4.00580e+06
       995.00000  1.06198e-07  4.00474e+06
       995.10000  1.06198e-07  4.00474e+06
       995.20000  1.06198e-07  4.00474e+06
       995.30000  1.06198e-07  4.00368e+06
       995.40000  1.06198e-07  4.00368e+06
       995.50000  1.07784e-07  4.06345e+06
       995.60000  1.07784e-07  4.06238e+06
       995.70000  1.07784e-07  4.06238e+06
       995.80000  1.07784e-07  4.06238e+06
       995.90000  1.07784e-07  4.06238e+06
       996.00000  1.07784e-07  4.06130e+06
       996.10000  1.07784e-07  4.06238e+06
       996.20000  1.07784e-07  4.06238e+06
       996.30000  1.07910e-07  4.06712e+06
       996.40000  1.07910e-07  4.06712e+06
       996.50000  1.04969e-07  3.95627e+06
       996.60000  1.04969e-07  3.95627e+06
       996.70000  1.04969e-07  3.95627e+06
       996.80000  1.04969e-07  3.95627e+06
       996.90000  1.04969e-07  3.95627e+06
       997.00000  1.04969e-07  3.95627e+06
       997.10000  1.04969e-07  3.95627e+06
       997.20000  1.04969e-07  3.95627e+06
       997.30000  1.04969e-07  3.95627e+06
       997.40000  1.04969e-07  3.95627e+06
       997.50000  1.00076e-07  3.77185e+06
       997.60000  1.00076e-07  3.77185e+06
       997.70000  1.00076e-07  3.77185e+06
       997.80000  1.00076e-07  3.77185e+06
       997.90000  1.00076e-07  3.77185e+06
       998.00000  1.00076e-07  3.77085e+06
       998.10000  1.00076e-07  3.77085e+06
       998.20000  1.00076e-07  3.76985e+06
       998.30000  1.00076e-07  3.76985e+06
       998.40000  1.00076e-07  3.76885e+06
       998.50000  9.83359e-08  3.70235e+06
       998.60000  9.83359e-08  3.70235e+06
       998.70000  9.83359e-08  3.70136e+06
       998.80000  9.91426e-08  3.73173e+06
       998.90000  9.91426e-08  3.73173e+06
       999.00000  9.91426e-08  3.73074e+06
       999.10000  9.91426e-08  3.73074e+06
       999.20000  9.91426e-08  3.72974e+06
       999.30000  9.91426e-08  3.72974e+06
       999.40000  9.91426e-08  3.72974e+06
       999.50000  9.69579e-08  3.64659e+06
       999.60000  9.69579e-08  3.64659e+06
       999.70000  9.69579e-08  3.64659e+06
       999.80000  9.69579e-08  3.64659e+06
       999.90000  9.69579e-08  3.64659e+06
       1000.0000  9.69579e-08  3.64562e+06
       1000.1000  9.69579e-08  3.64562e+06
       1000.2000  9.69579e-08  3.64562e+06
       1000.3000  9.69579e-08  3.64562e+06
       1000.4000  9.69579e-08  3.64562e+06
       1000.5000  9.21264e-08  3.46395e+06
       1000.6000  9.21264e-08  3.46395e+06
       1000.7000  9.21264e-08  3.46395e+06
       1000.8000  9.21264e-08  3.46395e+06
       1000.9000  9.21264e-08  3.46395e+06
       1001.0000  9.21264e-08  3.46395e+06
       1001.1000  9.21264e-08  3.46395e+06
       1001.2000  9.21264e-08  3.46487e+06
       1001.3000  9.10467e-08  3.42426e+06
       1001.4000  9.10467e-08  3.42426e+06
       1001.5000  9.13979e-08  3.43748e+06
       1001.6000  9.13979e-08  3.43748e+06
       1001.7000  9.13979e-08  3.43839e+06
       1001.8000  9.13979e-08  3.43839e+06
       1001.9000  9.13979e-08  3.43839e+06
       1002.0000  9.13979e-08  3.43930e+06
       1002.1000  9.13979e-08  3.43382e+06
       1002.2000  9.13979e-08  3.42834e+06
       1002.3000  9.13979e-08  3.42377e+06
       1002.4000  9.13979e-08  3.41828e+06
       1002.5000  8.59878e-08  3.21164e+06
       1002.6000  8.59878e-08  3.20648e+06
       1002.7000  8.59878e-08  3.20218e+06
       1002.8000  8.59878e-08  3.19788e+06
       1002.9000  8.59878e-08  3.19358e+06
       1003.0000  8.59878e-08  3.18929e+06
       1003.1000  8.59878e-08  3.18499e+06
       1003.2000  8.59878e-08  3.18069e+06
       1003.3000  8.59878e-08  3.17725e+06
       1003.4000  8.59878e-08  3.17295e+06
       1003.5000  7.89564e-08  2.91033e+06
       1003.6000  7.89564e-08  2.90717e+06
       1003.7000  7.89564e-08  2.90323e+06
       1003.8000  7.89353e-08  2.89929e+06
       1003.9000  7.89353e-08  2.89614e+06
       1004.0000  7.89353e-08  2.89298e+06
       1004.1000  7.89353e-08  2.88824e+06
       1004.2000  7.89353e-08  2.88272e+06
       1004.3000  7.89353e-08  2.87877e+06
       1004.4000  7.89353e-08  2.87403e+06
       1004.5000  8.16936e-08  2.97038e+06
       1004.6000  8.16936e-08  2.96629e+06
       1004.7000  8.16936e-08  2.96303e+06
       1004.8000  8.16936e-08  2.95976e+06
       1004.9000  8.16936e-08  2.95731e+06
       1005.0000  8.16936e-08  2.95486e+06
       1005.1000  8.16936e-08  2.95241e+06
       1005.2000  8.16936e-08  2.95077e+06
       1005.3000  8.16936e-08  2.94914e+06
       1005.4000  8.16936e-08  2.94832e+06
       1005.5000  7.68636e-08  2.77324e+06
       1005.6000  7.68636e-08  2.77247e+06
       1005.7000  7.68636e-08  2.77247e+06
       1005.8000  7.68636e-08  2.77324e+06
       1005.9000  7.68636e-08  2.77324e+06
       1006.0000  7.68636e-08  2.77401e+06
       1006.1000  7.68636e-08  2.77554e+06
       1006.2000  7.68636e-08  2.77708e+06
       1006.3000  7.67038e-08  2.77284e+06
       1006.4000  7.67038e-08  2.77515e+06
       1006.5000  8.23876e-08  2.98325e+06
       1006.6000  8.23876e-08  2.98655e+06
       1006.7000  8.23876e-08  2.98985e+06
       1006.8000  8.23876e-08  2.99314e+06
       1006.9000  8.23876e-08  2.99726e+06
       1007.0000  8.23876e-08  3.00138e+06
       1007.1000  8.23876e-08  3.00632e+06
       1007.2000  8.23876e-08  3.01127e+06
       1007.3000  8.23876e-08  3.01621e+06
       1007.4000  8.23876e-08  3.02198e+06
       1007.5000  8.15883e-08  2.99837e+06
       1007.6000  8.15883e-08  3.00490e+06
       1007.7000  8.15883e-08  3.01142e+06
       1007.8000  8.15883e-08  3.01795e+06
       1007.9000  8.15883e-08  3.02529e+06
       1008.0000  8.15883e-08  3.03264e+06
       1008.1000  8.15883e-08  3.03345e+06
       1008.2000  8.15883e-08  3.03345e+06
       1008.3000  8.15883e-08  3.03345e+06
       1008.4000  8.15883e-08  3.03345e+06
       1008.5000  7.50005e-08  2.78852e+06
       1008.6000  7.50005e-08  2.78852e+06
       1008.7000  7.50005e-08  2.78852e+06
       1008.8000  7.48430e-08  2.78266e+06
       1008.9000  7.48430e-08  2.78266e+06
       1009.0000  7.48430e-08  2.78192e+06
       1009.1000  7.48430e-08  2.78192e+06
       1009.2000  7.48430e-08  2.78192e+06
       1009.3000  7.48430e-08  2.78192e+06
       1009.4000  7.48430e-08  2.78117e+06
       1009.5000  6.77335e-08  2.51698e+06
       1009.6000  6.77335e-08  2.51698e+06
       1009.7000  6.77335e-08  2.51630e+06
       1009.8000  6.77335e-08  2.51630e+06
       1009.9000  6.77335e-08  2.51562e+06
       1010.0000  6.77335e-08  2.51562e+06
       1010.1000  6.77335e-08  2.51494e+06
       1010.2000  6.77335e-08  2.51427e+06
       1010.3000  6.77335e-08  2.51359e+06
       1010.4000  6.77335e-08  2.51291e+06
       1010.5000  7.01429e-08  2.60160e+06
       1010.6000  7.01429e-08  2.60090e+06
       1010.7000  7.01429e-08  2.60020e+06
       1010.8000  7.01429e-08  2.59949e+06
       1010.9000  7.01429e-08  2.59879e+06
       1011.0000  7.01429e-08  2.59809e+06
       1011.1000  7.01429e-08  2.59809e+06
       1011.2000  7.01429e-08  2.59739e+06
       1011.3000  6.99551e-08  2.58974e+06
       1011.4000  6.99551e-08  2.58904e+06
       1011.5000  5.92310e-08  2.19155e+06
       1011.6000  5.92310e-08  2.19095e+06
       1011.7000  5.92310e-08  2.19036e+06
       1011.8000  5.92310e-08  2.18977e+06
       1011.9000  5.92310e-08  2.18918e+06
       1012.0000  5.92310e-08  2.18858e+06
       1012.1000  5.92310e-08  2.18799e+06
       1012.2000  5.92310e-08  2.18740e+06
       1012.3000  5.92310e-08  2.18681e+06
       1012.4000  5.92310e-08  2.18622e+06
       1012.5000  6.05428e-08  2.23403e+06
       1012.6000  6.05428e-08  2.23343e+06
       1012.7000  6.05428e-08  2.23282e+06
       1012.8000  6.05428e-08  2.23221e+06
       1012.9000  6.05428e-08  2.23221e+06
       1013.0000  6.05428e-08  2.23161e+06
       1013.1000  6.05428e-08  2.23100e+06
       1013.2000  6.05428e-08  2.23040e+06
       1013.3000  6.05428e-08  2.22979e+06
       1013.4000  6.05428e-08  2.22919e+06
       1013.5000  6.31567e-08  2.32480e+06
       1013.6000  6.31567e-08  2.32417e+06
       1013.7000  6.31567e-08  2.32354e+06
       1013.8000  6.31076e-08  2.32110e+06
       1013.9000  6.31076e-08  2.32047e+06
       1014.0000  6.31076e-08  2.31984e+06
       1014.1000  6.31076e-08  2.31857e+06
       1014.2000  6.31076e-08  2.31731e+06
       1014.3000  6.31076e-08  2.31605e+06
       1014.4000  6.31076e-08  2.31479e+06
       1014.5000  5.97973e-08  2.19277e+06
       1014.6000  5.97973e-08  2.19157e+06
       1014.7000  5.97973e-08  2.19038e+06
       1014.8000  5.97973e-08  2.18978e+06
       1014.9000  5.97973e-08  2.18858e+06
       1015.0000  5.97973e-08  2.18798e+06
       1015.1000  5.97973e-08  2.18679e+06
       1015.2000  5.97973e-08  2.18619e+06
       1015.3000  5.97973e-08  2.18559e+06
       1015.4000  5.97973e-08  2.18440e+06
       1015.5000  5.82268e-08  2.12644e+06
       1015.6000  5.82268e-08  2.12586e+06
       1015.7000  5.82268e-08  2.12528e+06
       1015.8000  5.82268e-08  2.12470e+06
       1015.9000  5.82268e-08  2.12411e+06
       1016.0000  5.82268e-08  2.12353e+06
       1016.1000  5.82268e-08  2.12353e+06
       1016.2000  5.82268e-08  2.12353e+06
       1016.3000  5.83210e-08  2.12697e+06
       1016.4000  5.83210e-08  2.12638e+06
       1016.5000  5.48010e-08  1.99804e+06
       1016.6000  5.48010e-08  1.99804e+06
       1016.7000  5.48010e-08  1.99804e+06
       1016.8000  5.48010e-08  1.99750e+06
       1016.9000  5.48010e-08  1.99750e+06
       1017.0000  5.48010e-08  1.99695e+06
       1017.1000  5.48010e-08  1.99695e+06
       1017.2000  5.48010e-08  1.99640e+06
       1017.3000  5.48010e-08  1.99640e+06
       1017.4000  5.48010e-08  1.99585e+06
       1017.5000  5.36714e-08  1.95471e+06
       1017.6000  5.36714e-08  1.95418e+06
       1017.7000  5.36714e-08  1.95364e+06
       1017.8000  5.36714e-08  1.95310e+06
       1017.9000  5.36714e-08  1.95257e+06
       1018.0000  5.36714e-08  1.95257e+06
       1018.1000  5.36714e-08  1.95149e+06
       1018.2000  5.36714e-08  1.95042e+06
       1018.3000  5.36714e-08  1.94935e+06
       1018.4000  5.36714e-08  1.94827e+06
       1018.5000  5.62717e-08  2.04210e+06
       1018.6000  5.62717e-08  2.04097e+06
       1018.7000  5.62717e-08  2.04041e+06
       1018.8000  5.62451e-08  2.03832e+06
       1018.9000  5.62451e-08  2.03776e+06
       1019.0000  5.62451e-08  2.03664e+06
       1019.1000  5.62451e-08  2.03607e+06
       1019.2000  5.62451e-08  2.03551e+06
       1019.3000  5.62451e-08  2.03495e+06
       1019.4000  5.62451e-08  2.03382e+06
       1019.5000  5.77490e-08  2.08763e+06
       1019.6000  5.77490e-08  2.08705e+06
       1019.7000  5.77490e-08  2.08647e+06
       1019.8000  5.77490e-08  2.08647e+06
       1019.9000  5.77490e-08  2.08590e+06
       1020.0000  5.77490e-08  2.08532e+06
       1020.1000  5.77490e-08  2.08474e+06
       1020.2000  5.77490e-08  2.08416e+06
       1020.3000  5.77490e-08  2.08416e+06
       1020.4000  5.77490e-08  2.08359e+06
       1020.5000  4.29010e-08  1.54787e+06
       1020.6000  4.29010e-08  1.54744e+06
       1020.7000  4.29010e-08  1.54744e+06
       1020.8000  4.29010e-08  1.54701e+06
       1020.9000  4.29010e-08  1.54701e+06
       1021.0000  4.29010e-08  1.54701e+06
       1021.1000  4.29010e-08  1.54701e+06
       1021.2000  4.29010e-08  1.54701e+06
       1021.3000  4.28099e-08  1.54372e+06
       1021.4000  4.28099e-08  1.54372e+06
       1021.5000  4.80584e-08  1.73299e+06
       1021.6000  4.80584e-08  1.73299e+06
       1021.7000  4.80584e-08  1.73299e+06
       1021.8000  4.80584e-08  1.73347e+06
       1021.9000  4.80584e-08  1.73347e+06
       1022.0000  4.80584e-08  1.73395e+06
       1022.1000  4.80584e-08  1.73395e+06
       1022.2000  4.80584e-08  1.73443e+06
       1022.3000  4.80584e-08  1.73491e+06
       1022.4000  4.80584e-08  1.73491e+06
       1022.5000  5.16505e-08  1.86510e+06
       1022.6000  5.16505e-08  1.86562e+06
       1022.7000  5.16505e-08  1.86613e+06
       1022.8000  5.16505e-08  1.86665e+06
       1022.9000  5.16505e-08  1.86717e+06
       1023.0000  5.16505e-08  1.86768e+06
       1023.1000  5.16505e-08  1.86872e+06
       1023.2000  5.16505e-08  1.86923e+06
       1023.3000  5.16505e-08  1.86975e+06
       1023.4000  5.16505e-08  1.87078e+06
       1023.5000  4.64621e-08  1.68332e+06
       1023.6000  4.64621e-08  1.68425e+06
       1023.7000  4.64621e-08  1.68472e+06
       1023.8000  4.63262e-08  1.68071e+06
       1023.9000  4.63262e-08  1.68164e+06
       1024.0000  4.63262e-08  1.68257e+06
       1024.1000  4.63262e-08  1.68257e+06
       1024.2000  4.63262e-08  1.68210e+06
       1024.3000  4.63262e-08  1.68210e+06
       1024.4000  4.63262e-08  1.68210e+06
       1024.5000  4.21610e-08  1.53086e+06
       1024.6000  4.21610e-08  1.53044e+06
       1024.7000  4.21610e-08  1.53044e+06
       1024.8000  4.21610e-08  1.53044e+06
       1024.9000  4.21610e-08  1.53002e+06
       1025.0000  4.21610e-08  1.53002e+06
       1025.1000  4.21610e-08  1.53002e+06
       1025.2000  4.21610e-08  1.52960e+06
       1025.3000  4.21610e-08  1.52960e+06
       1025.4000  4.21610e-08  1.52960e+06
       1025.5000  4.46689e-08  1.62014e+06
       1025.6000  4.46689e-08  1.62014e+06
       1025.7000  4.46689e-08  1.61969e+06
       1025.8000  4.46689e-08  1.61969e+06
       1025.9000  4.46689e-08  1.61925e+06
       1026.0000  4.46689e-08  1.61925e+06
       1026.1000  4.46689e-08  1.61925e+06
       1026.2000  4.46689e-08  1.61880e+06
       1026.3000  4.45094e-08  1.61302e+06
       1026.4000  4.45094e-08  1.61258e+06
       1026.5000  4.45455e-08  1.61388e+06
       1026.6000  4.45455e-08  1.61344e+06
       1026.7000  4.45455e-08  1.61299e+06
       1026.8000  4.45455e-08  1.61299e+06
       1026.9000  4.45455e-08  1.61255e+06
       1027.0000  4.45455e-08  1.61255e+06
       1027.1000  4.45455e-08  1.61210e+06
       1027.2000  4.45455e-08  1.61166e+06
       1027.3000  4.45455e-08  1.61166e+06
       1027.4000  4.45455e-08  1.61121e+06
       1027.5000  4.14713e-08  1.49960e+06
       1027.6000  4.14713e-08  1.49960e+06
       1027.7000  4.14713e-08  1.49919e+06
       1027.8000  4.14713e-08  1.49877e+06
       1027.9000  4.14713e-08  1.49836e+06
       1028.0000  4.14713e-08  1.49794e+06
       1028.1000  4.14713e-08  1.49794e+06
       1028.2000  4.14713e-08  1.49753e+06
       1028.3000  4.14713e-08  1.49712e+06
       1028.4000  4.14713e-08  1.49670e+06
       1028.5000  4.65563e-08  1.67975e+06
       1028.6000  4.65563e-08  1.67929e+06
       1028.7000  4.65563e-08  1.67882e+06
       1028.8000  4.65699e-08  1.67885e+06
       1028.9000  4.65699e-08  1.67838e+06
       1029.0000  4.65699e-08  1.67791e+06
       1029.1000  4.65699e-08  1.67745e+06
       1029.2000  4.65699e-08  1.67698e+06
       1029.3000  4.65699e-08  1.67652e+06
       1029.4000  4.65699e-08  1.67605e+06
       1029.5000  4.11624e-08  1.48102e+06
       1029.6000  4.11624e-08  1.48061e+06
       1029.7000  4.11624e-08  1.48020e+06
       1029.8000  4.11624e-08  1.47979e+06
       1029.9000  4.11624e-08  1.47938e+06
       1030.0000  4.11624e-08  1.47855e+06
       1030.1000  4.11624e-08  1.47896e+06
       1030.2000  4.11624e-08  1.47896e+06
       1030.3000  4.11624e-08  1.47896e+06
       1030.4000  4.11624e-08  1.47896e+06
       1030.5000  3.83806e-08  1.37901e+06
       1030.6000  3.83806e-08  1.37901e+06
       1030.7000  3.83806e-08  1.37863e+06
       1030.8000  3.83806e-08  1.37863e+06
       1030.9000  3.83806e-08  1.37863e+06
       1031.0000  3.83806e-08  1.37825e+06
       1031.1000  3.83806e-08  1.37825e+06
       1031.2000  3.83806e-08  1.37786e+06
       1031.3000  3.83917e-08  1.37826e+06
       1031.4000  3.83917e-08  1.37788e+06
       1031.5000  3.93744e-08  1.41275e+06
       1031.6000  3.93744e-08  1.41236e+06
       1031.7000  3.93744e-08  1.41197e+06
       1031.8000  3.93744e-08  1.41157e+06
       1031.9000  3.93744e-08  1.41118e+06
       1032.0000  3.93744e-08  1.41079e+06
       1032.1000  3.93744e-08  1.40960e+06
       1032.2000  3.93744e-08  1.40803e+06
       1032.3000  3.93744e-08  1.40685e+06
       1032.4000  3.93744e-08  1.40606e+06
       1032.5000  3.84982e-08  1.37361e+06
       1032.6000  3.84982e-08  1.37246e+06
       1032.7000  3.84982e-08  1.37169e+06
       1032.8000  3.84982e-08  1.37053e+06
       1032.9000  3.84982e-08  1.36976e+06
       1033.0000  3.84982e-08  1.36899e+06
       1033.1000  3.84982e-08  1.36822e+06
       1033.2000  3.84982e-08  1.36784e+06
       1033.3000  3.84982e-08  1.36707e+06
       1033.4000  3.84982e-08  1.36668e+06
       1033.5000  3.78493e-08  1.34289e+06
       1033.6000  3.78493e-08  1.34252e+06
       1033.7000  3.78493e-08  1.34214e+06
       1033.8000  3.79039e-08  1.34369e+06
       1033.9000  3.79039e-08  1.34369e+06
       1034.0000  3.79039e-08  1.34331e+06
       1034.1000  3.79039e-08  1.34331e+06
       1034.2000  3.79039e-08  1.34293e+06
       1034.3000  3.79039e-08  1.34293e+06
       1034.4000  3.79039e-08  1.34293e+06
       1034.5000  3.90273e-08  1.38274e+06
       1034.6000  3.90273e-08  1.38313e+06
       1034.7000  3.90273e-08  1.38313e+06
       1034.8000  3.90273e-08  1.38352e+06
       1034.9000  3.90273e-08  1.38352e+06
       1035.0000  3.90273e-08  1.38391e+06
       1035.1000  3.90273e-08  1.38430e+06
       1035.2000  3.90273e-08  1.38469e+06
       1035.3000  3.90273e-08  1.38547e+06
       1035.4000  3.90273e-08  1.38586e+06
       1035.5000  3.82693e-08  1.35971e+06
       1035.6000  3.82693e-08  1.36047e+06
       1035.7000  3.82693e-08  1.36085e+06
       1035.8000  3.82693e-08  1.36162e+06
       1035.9000  3.82693e-08  1.36277e+06
       1036.0000  3.82693e-08  1.36353e+06
       1036.1000  3.82693e-08  1.36277e+06
       1036.2000  3.82693e-08  1.36200e+06
       1036.3000  3.82060e-08  1.35899e+06
       1036.4000  3.82060e-08  1.35822e+06
       1036.5000  3.60332e-08  1.28026e+06
       1036.6000  3.60332e-08  1.27954e+06
       1036.7000  3.60332e-08  1.27918e+06
       1036.8000  3.60332e-08  1.27846e+06
       1036.9000  3.60332e-08  1.27774e+06
       1037.0000  3.60332e-08  1.27738e+06
       1037.1000  3.60332e-08  1.27702e+06
       1037.2000  3.60332e-08  1.27630e+06
       1037.3000  3.60332e-08  1.27593e+06
       1037.4000  3.60332e-08  1.27557e+06
       1037.5000  3.63357e-08  1.28592e+06
       1037.6000  3.63357e-08  1.28556e+06
       1037.7000  3.63357e-08  1.28519e+06
       1037.8000  3.63357e-08  1.28483e+06
       1037.9000  3.63357e-08  1.28447e+06
       1038.0000  3.63357e-08  1.28410e+06
       1038.1000  3.63357e-08  1.28410e+06
       1038.2000  3.63357e-08  1.28410e+06
       1038.3000  3.63357e-08  1.28447e+06
       1038.4000  3.63357e-08  1.28447e+06
       1038.5000  3.34331e-08  1.18186e+06
       1038.6000  3.34331e-08  1.18186e+06
       1038.7000  3.34331e-08  1.18186e+06
       1038.8000  3.33597e-08  1.17926e+06
       1038.9000  3.33597e-08  1.17926e+06
       1039.0000  3.33597e-08  1.17926e+06
       1039.1000  3.33597e-08  1.17926e+06
       1039.2000  3.33597e-08  1.17926e+06
       1039.3000  3.33597e-08  1.17926e+06
       1039.4000  3.33597e-08  1.17926e+06
       1039.5000  3.07120e-08  1.08567e+06
       1039.6000  3.07120e-08  1.08567e+06
       1039.7000  3.07120e-08  1.08567e+06
       1039.8000  3.07120e-08  1.08567e+06
       1039.9000  3.07120e-08  1.08567e+06
       1040.0000  3.07120e-08  1.08567e+06
       1040.1000  3.07120e-08  1.08567e+06
       1040.2000  3.07120e-08  1.08567e+06
       1040.3000  3.07120e-08  1.08567e+06
       1040.4000  3.07120e-08  1.08567e+06
       1040.5000  3.03579e-08  1.07315e+06
       1040.6000  3.03579e-08  1.07315e+06
       1040.7000  3.03579e-08  1.07315e+06
       1040.8000  3.03579e-08  1.07315e+06
       1040.9000  3.03579e-08  1.07315e+06
       1041.0000  3.03579e-08  1.07315e+06
       1041.1000  3.03579e-08  1.07315e+06
       1041.2000  3.03579e-08  1.07315e+06
       1041.3000  3.03467e-08  1.07276e+06
       1041.4000  3.03467e-08  1.07276e+06
       1041.5000  2.98564e-08  1.05542e+06
       1041.6000  2.98564e-08  1.05542e+06
       1041.7000  2.98564e-08  1.05542e+06
       1041.8000  2.98564e-08  1.05513e+06
       1041.9000  2.98564e-08  1.05513e+06
       1042.0000  2.98564e-08  1.05513e+06
       1042.1000  2.98564e-08  1.05542e+06
       1042.2000  2.98564e-08  1.05542e+06
       1042.3000  2.98564e-08  1.05572e+06
       1042.4000  2.98564e-08  1.05572e+06
       1042.5000  2.73694e-08      967780.
       1042.6000  2.73694e-08      967780.
       1042.7000  2.73694e-08      967780.
       1042.8000  2.73694e-08      967507.
       1042.9000  2.73694e-08      967507.
       1043.0000  2.73694e-08      967507.
       1043.1000  2.73694e-08      967233.
       1043.2000  2.73694e-08      966959.
       1043.3000  2.73694e-08      966959.
       1043.4000  2.73694e-08      966686.
       1043.5000  2.64305e-08      933262.
       1043.6000  2.64305e-08      932998.
       1043.7000  2.64305e-08      932734.
       1043.8000  2.65129e-08      935109.
       1043.9000  2.65129e-08      934844.
       1044.0000  2.65129e-08      934314.
       1044.1000  2.65129e-08      933253.
       1044.2000  2.65129e-08      931928.
       1044.3000  2.65129e-08      930867.
       1044.4000  2.65129e-08      929807.
       1044.5000  2.54750e-08      892390.
       1044.6000  2.54750e-08      891625.
       1044.7000  2.54750e-08      890606.
       1044.8000  2.54750e-08      889842.
       1044.9000  2.54750e-08      889078.
       1045.0000  2.54750e-08      888314.
       1045.1000  2.54750e-08      887804.
       1045.2000  2.54750e-08      887040.
       1045.3000  2.54750e-08      886530.
       1045.4000  2.54750e-08      886021.
       1045.5000  2.35030e-08      817199.
       1045.6000  2.35030e-08      816729.
       1045.7000  2.35030e-08      816494.
       1045.8000  2.35030e-08      816259.
       1045.9000  2.35030e-08      816024.
       1046.0000  2.35030e-08      815789.
       1046.1000  2.35030e-08      815789.
       1046.2000  2.35030e-08      815554.
       1046.3000  2.35613e-08      817578.
       1046.4000  2.35613e-08      817578.
       1046.5000  2.03851e-08      707567.
       1046.6000  2.03851e-08      707567.
       1046.7000  2.03851e-08      707770.
       1046.8000  2.03851e-08      707974.
       1046.9000  2.03851e-08      708178.
       1047.0000  2.03851e-08      708586.
       1047.1000  2.03851e-08      708790.
       1047.2000  2.03851e-08      709197.
       1047.3000  2.03851e-08      709605.
       1047.4000  2.03851e-08      710013.
       1047.5000  1.92514e-08      671103.
       1047.6000  1.92514e-08      671488.
       1047.7000  1.92514e-08      672065.
       1047.8000  1.92514e-08      672643.
       1047.9000  1.92514e-08      673220.
       1048.0000  1.92514e-08      673991.
       1048.1000  1.92514e-08      673991.
       1048.2000  1.92514e-08      673991.
       1048.3000  1.92514e-08      673991.
       1048.4000  1.92514e-08      673798.
       1048.5000  1.74805e-08      611816.
       1048.6000  1.74805e-08      611816.
       1048.7000  1.74805e-08      611816.
       1048.8000  1.74763e-08      611671.
       1048.9000  1.74763e-08      611671.
       1049.0000  1.74763e-08      611496.
       1049.1000  1.74763e-08      611496.
       1049.2000  1.74763e-08      611496.
       1049.3000  1.74763e-08      611322.
       1049.4000  1.74763e-08      611322.
       1049.5000  1.57126e-08      549626.
       1049.6000  1.57126e-08      549469.
       1049.7000  1.57126e-08      549469.
       1049.8000  1.57126e-08      549469.
       1049.9000  1.57126e-08      549312.
       1050.0000  1.57126e-08      549312.
       1050.1000  1.57126e-08      549154.
       1050.2000  1.57126e-08      549154.
       1050.3000  1.57126e-08      548997.
       1050.4000  1.57126e-08      548840.
       1050.5000  1.28691e-08      449519.
       1050.6000  1.28691e-08      449390.
       1050.7000  1.28691e-08      449390.
       1050.8000  1.28691e-08      449262.
       1050.9000  1.28691e-08      449133.
       1051.0000  1.28691e-08      449133.
       1051.1000  1.28691e-08      449004.
       1051.2000  1.28691e-08      449004.
       1051.3000  1.28213e-08      447206.
       1051.4000  1.28213e-08      447077.
       1051.5000  1.17910e-08      411152.
       1051.6000  1.17910e-08      411034.
       1051.7000  1.17910e-08      410916.
       1051.8000  1.17910e-08      410916.
       1051.9000  1.17910e-08      410798.
       1052.0000  1.17910e-08      410798.
       1052.1000  1.17910e-08      410680.
       1052.2000  1.17910e-08      410562.
       1052.3000  1.17910e-08      410562.
       1052.4000  1.17910e-08      410444.
       1052.5000  9.81256e-09      341477.
       1052.6000  9.81256e-09      341477.
       1052.7000  9.81256e-09      341379.
       1052.8000  9.81256e-09      341281.
       1052.9000  9.81256e-09      341281.
       1053.0000  9.81256e-09      341183.
       1053.1000  9.81256e-09      341183.
       1053.2000  9.81256e-09      341085.
       1053.3000  9.81256e-09      340986.
       1053.4000  9.81256e-09      340986.
       1053.5000  7.15933e-09      248715.
       1053.6000  7.15933e-09      248644.
       1053.7000  7.15933e-09      248644.
       1053.8000  7.11083e-09      246888.
       1053.9000  7.11083e-09      246817.
       1054.0000  7.11083e-09      246817.
       1054.1000  7.11083e-09      246959.
       1054.2000  7.11083e-09      247030.
       1054.3000  7.11083e-09      247172.
       1054.4000  7.11083e-09      247315.
       1054.5000  4.95385e-09      172345.
       1054.6000  4.95385e-09      172394.
       1054.7000  4.95385e-09      172444.
       1054.8000  4.95385e-09      172493.
       1054.9000  4.95385e-09      172543.
       1055.0000  4.95385e-09      172592.
       1055.1000  4.95385e-09      172592.
       1055.2000  4.95385e-09      172592.
       1055.3000  4.95385e-09      172642.
       1055.4000  4.95385e-09      172642.
       1055.5000  2.98296e-09      103926.
       1055.6000  2.98296e-09      103926.
       1055.7000  2.98296e-09      103926.
       1055.8000  2.98296e-09      103896.
       1055.9000  2.98296e-09      103867.
       1056.0000  2.98296e-09      103837.
       1056.1000  2.98296e-09      103747.
       1056.2000  2.98296e-09      103658.
       1056.3000  2.95272e-09      102518.
       1056.4000  2.95272e-09      102400.
       1056.5000  9.73631e-10      33736.3
       1056.6000  9.73631e-10      33716.8
       1056.7000  9.73631e-10      33687.6
       1056.8000  9.73631e-10      33658.4
       1056.9000  9.73631e-10      33629.2
       1057.0000  9.73631e-10      33609.7
