PDS_VERSION_ID         = PDS3
RECORD_TYPE            = STREAM
OBJECT                 = TEXT
  PUBLICATION_DATE     = 2014-04-25
  INTERCHANGE_FORMAT   = ASCII
  NOTE                 = "System transmission vs. wavelength."
END_OBJECT             = TEXT
END
    
The systrans directory contains the non-wavelength-integrated system 
transmission values (QE*optics*filter1*filter2) for each filter combination. 
The naming convention for these files is as follows:

<camera><filter 1><filter 2>_systrans.tab

where <camera> is "issna" or "isswa," and <filter 1> and <filter 2> represent
the filter names. For polarized filter combinations, values are given for the
parallel orientation of the filter (full transmission), with values for the 
perpendicular (blocking) orientation provided in files with subscript 
"_b_systrans.tab". 

Columns in systrans files are as follows:

 1st column: Wavelength (nm)  
 2nd column: Transmitted Flux
 3rd column: Transmitted Flux * Solar Flux (phot per cm^2-s-angstrom at 1 AU)

The solar spectrum used for this calculation is provided in solarflux.tab.

\begindata
       600.00000  0.000501344  2.67016e+10
       600.10000  0.000501344  2.66615e+10
       600.20000  0.000501344  2.66164e+10
       600.30000  0.000501344  2.65612e+10
       600.40000  0.000501344  2.64961e+10
       600.50000  0.000485262  2.55830e+10
       600.60000  0.000485262  2.56170e+10
       600.70000  0.000485262  2.56461e+10
       600.80000  0.000485262  2.56752e+10
       600.90000  0.000485262  2.56946e+10
       601.00000  0.000485262  2.57092e+10
       601.10000  0.000485262  2.57141e+10
       601.20000  0.000485262  2.57189e+10
       601.30000  0.000485199  2.57155e+10
       601.40000  0.000485199  2.57058e+10
       601.50000  0.000472151  2.50051e+10
       601.60000  0.000472151  2.48965e+10
       601.70000  0.000472151  2.48068e+10
       601.80000  0.000472151  2.47265e+10
       601.90000  0.000472151  2.46652e+10
       602.00000  0.000472151  2.46180e+10
       602.10000  0.000472151  2.45802e+10
       602.20000  0.000472151  2.45613e+10
       602.30000  0.000472151  2.45566e+10
       602.40000  0.000472151  2.45660e+10
       602.50000  0.000457910  2.38434e+10
       602.60000  0.000457910  2.38800e+10
       602.70000  0.000457910  2.39304e+10
       602.80000  0.000457910  2.39945e+10
       602.90000  0.000457910  2.40723e+10
       603.00000  0.000457910  2.41639e+10
       603.10000  0.000457910  2.42692e+10
       603.20000  0.000457910  2.43883e+10
       603.30000  0.000457910  2.45211e+10
       603.40000  0.000457910  2.46676e+10
       603.50000  0.000446401  2.42039e+10
       603.60000  0.000446401  2.41949e+10
       603.70000  0.000446401  2.41860e+10
       603.80000  0.000446211  2.41668e+10
       603.90000  0.000446211  2.41534e+10
       604.00000  0.000446211  2.41445e+10
       604.10000  0.000446211  2.41311e+10
       604.20000  0.000446211  2.41222e+10
       604.30000  0.000446211  2.41088e+10
       604.40000  0.000446211  2.40999e+10
       604.50000  0.000432808  2.33630e+10
       604.60000  0.000432808  2.33457e+10
       604.70000  0.000432808  2.33284e+10
       604.80000  0.000432808  2.33110e+10
       604.90000  0.000432808  2.32937e+10
       605.00000  0.000432808  2.32807e+10
       605.10000  0.000432808  2.32678e+10
       605.20000  0.000432808  2.32591e+10
       605.30000  0.000432808  2.32461e+10
       605.40000  0.000432808  2.32375e+10
       605.50000  0.000422242  2.26617e+10
       605.60000  0.000422242  2.26575e+10
       605.70000  0.000422242  2.26490e+10
       605.80000  0.000422242  2.26448e+10
       605.90000  0.000422242  2.26448e+10
       606.00000  0.000422242  2.26406e+10
       606.10000  0.000422242  2.26406e+10
       606.20000  0.000422242  2.26406e+10
       606.30000  0.000422253  2.26412e+10
       606.40000  0.000422253  2.26454e+10
       606.50000  0.000412271  2.21142e+10
       606.60000  0.000412271  2.21225e+10
       606.70000  0.000412271  2.21266e+10
       606.80000  0.000412271  2.21348e+10
       606.90000  0.000412271  2.21348e+10
       607.00000  0.000412271  2.21390e+10
       607.10000  0.000412271  2.21390e+10
       607.20000  0.000412271  2.21390e+10
       607.30000  0.000412271  2.21348e+10
       607.40000  0.000412271  2.21307e+10
       607.50000  0.000399460  2.14390e+10
       607.60000  0.000399460  2.14150e+10
       607.70000  0.000399460  2.13951e+10
       607.80000  0.000399460  2.13791e+10
       607.90000  0.000399460  2.13631e+10
       608.00000  0.000399460  2.13471e+10
       608.10000  0.000399460  2.13351e+10
       608.20000  0.000399460  2.13232e+10
       608.30000  0.000399460  2.13152e+10
       608.40000  0.000399460  2.13072e+10
       608.50000  0.000388988  2.07447e+10
       608.60000  0.000388988  2.07408e+10
       608.70000  0.000388988  2.07370e+10
       608.80000  0.000388904  2.07325e+10
       608.90000  0.000388904  2.07364e+10
       609.00000  0.000388904  2.07403e+10
       609.10000  0.000388904  2.07442e+10
       609.20000  0.000388904  2.07519e+10
       609.30000  0.000388904  2.07597e+10
       609.40000  0.000388904  2.07714e+10
       609.50000  0.000379455  2.02819e+10
       609.60000  0.000379455  2.01908e+10
       609.70000  0.000379455  2.01111e+10
       609.80000  0.000379455  2.00428e+10
       609.90000  0.000379455  1.99859e+10
       610.00000  0.000379455  1.99366e+10
       610.10000  0.000379455  1.98949e+10
       610.20000  0.000379455  1.98645e+10
       610.30000  0.000379455  1.98455e+10
       610.40000  0.000379455  1.98379e+10
       610.50000  0.000370975  1.93908e+10
       610.60000  0.000370975  1.94873e+10
       610.70000  0.000370975  1.95726e+10
       610.80000  0.000370975  1.96505e+10
       610.90000  0.000370975  1.97173e+10
       611.00000  0.000370975  1.97730e+10
       611.10000  0.000370975  1.98212e+10
       611.20000  0.000370975  1.98583e+10
       611.30000  0.000370976  1.98880e+10
       611.40000  0.000370976  1.99066e+10
       611.50000  0.000362665  1.94678e+10
       611.60000  0.000362665  1.94678e+10
       611.70000  0.000362665  1.94570e+10
       611.80000  0.000362665  1.94388e+10
       611.90000  0.000362665  1.94098e+10
       612.00000  0.000362665  1.93735e+10
       612.10000  0.000362665  1.93264e+10
       612.20000  0.000362665  1.92684e+10
       612.30000  0.000362665  1.92031e+10
       612.40000  0.000362665  1.91269e+10
       612.50000  0.000354354  1.86071e+10
       612.60000  0.000354354  1.85611e+10
       612.70000  0.000354354  1.85186e+10
       612.80000  0.000354354  1.84831e+10
       612.90000  0.000354354  1.84548e+10
       613.00000  0.000354354  1.84300e+10
       613.10000  0.000354354  1.84122e+10
       613.20000  0.000354354  1.83981e+10
       613.30000  0.000354354  1.83910e+10
       613.40000  0.000354354  1.83910e+10
       613.50000  0.000347880  1.80584e+10
       613.60000  0.000347880  1.81106e+10
       613.70000  0.000347880  1.81558e+10
       613.80000  0.000347500  1.81777e+10
       613.90000  0.000347500  1.82194e+10
       614.00000  0.000347500  1.82576e+10
       614.10000  0.000347500  1.82889e+10
       614.20000  0.000347500  1.83202e+10
       614.30000  0.000347500  1.83480e+10
       614.40000  0.000347500  1.83723e+10
       614.50000  0.000339457  1.79674e+10
       614.60000  0.000339457  1.79844e+10
       614.70000  0.000339457  1.79980e+10
       614.80000  0.000339457  1.80082e+10
       614.90000  0.000339457  1.80150e+10
       615.00000  0.000339457  1.80184e+10
       615.10000  0.000339457  1.80217e+10
       615.20000  0.000339457  1.80184e+10
       615.30000  0.000339457  1.80150e+10
       615.40000  0.000339457  1.80082e+10
       615.50000  0.000332645  1.76335e+10
       615.60000  0.000332645  1.74373e+10
       615.70000  0.000332645  1.72576e+10
       615.80000  0.000332645  1.71013e+10
       615.90000  0.000332645  1.69682e+10
       616.00000  0.000332645  1.68518e+10
       616.10000  0.000332645  1.67587e+10
       616.20000  0.000332645  1.66855e+10
       616.30000  0.000332693  1.66346e+10
       616.40000  0.000332693  1.66047e+10
       616.50000  0.000324036  1.61597e+10
       616.60000  0.000324036  1.62990e+10
       616.70000  0.000324036  1.64286e+10
       616.80000  0.000324036  1.65485e+10
       616.90000  0.000324036  1.66619e+10
       617.00000  0.000324036  1.67689e+10
       617.10000  0.000324036  1.68661e+10
       617.20000  0.000324036  1.69536e+10
       617.30000  0.000324036  1.70346e+10
       617.40000  0.000324036  1.71091e+10
       617.50000  0.000318013  1.68547e+10
       617.60000  0.000318013  1.69087e+10
       617.70000  0.000318013  1.69565e+10
       617.80000  0.000318013  1.69978e+10
       617.90000  0.000318013  1.70264e+10
       618.00000  0.000318013  1.70519e+10
       618.10000  0.000318013  1.70678e+10
       618.20000  0.000318013  1.70741e+10
       618.30000  0.000318013  1.70741e+10
       618.40000  0.000318013  1.70646e+10
       618.50000  0.000310147  1.66270e+10
       618.60000  0.000310147  1.65960e+10
       618.70000  0.000310147  1.65649e+10
       618.80000  0.000309835  1.65266e+10
       618.90000  0.000309835  1.65049e+10
       619.00000  0.000309835  1.64894e+10
       619.10000  0.000309835  1.64770e+10
       619.20000  0.000309835  1.64708e+10
       619.30000  0.000309835  1.64677e+10
       619.40000  0.000309835  1.64677e+10
       619.50000  0.000303070  1.61142e+10
       619.60000  0.000303070  1.61718e+10
       619.70000  0.000303070  1.62233e+10
       619.80000  0.000303070  1.62688e+10
       619.90000  0.000303070  1.63082e+10
       620.00000  0.000303070  1.63385e+10
       620.10000  0.000303070  1.63627e+10
       620.20000  0.000303070  1.63809e+10
       620.30000  0.000303070  1.63930e+10
       620.40000  0.000303070  1.63961e+10
       620.50000  0.000296050  1.60163e+10
       620.60000  0.000296050  1.59512e+10
       620.70000  0.000296050  1.58890e+10
       620.80000  0.000296050  1.58357e+10
       620.90000  0.000296050  1.57883e+10
       621.00000  0.000296050  1.57469e+10
       621.10000  0.000296050  1.57113e+10
       621.20000  0.000296050  1.56847e+10
       621.30000  0.000295670  1.56409e+10
       621.40000  0.000295670  1.56232e+10
       621.50000  0.000289073  1.52659e+10
       621.60000  0.000289073  1.53180e+10
       621.70000  0.000289073  1.53642e+10
       621.80000  0.000289073  1.54018e+10
       621.90000  0.000289073  1.54365e+10
       622.00000  0.000289073  1.54625e+10
       622.10000  0.000289073  1.54827e+10
       622.20000  0.000289073  1.54943e+10
       622.30000  0.000289073  1.55030e+10
       622.40000  0.000289073  1.55030e+10
       622.50000  0.000281784  1.51064e+10
       622.60000  0.000281784  1.50952e+10
       622.70000  0.000281784  1.50782e+10
       622.80000  0.000281784  1.50557e+10
       622.90000  0.000281784  1.50247e+10
       623.00000  0.000281784  1.49909e+10
       623.10000  0.000281784  1.49486e+10
       623.20000  0.000281784  1.48979e+10
       623.30000  0.000281784  1.48444e+10
       623.40000  0.000281784  1.47824e+10
       623.50000  0.000274846  1.43552e+10
       623.60000  0.000274846  1.43525e+10
       623.70000  0.000274846  1.43525e+10
       623.80000  0.000274255  1.43161e+10
       623.90000  0.000274255  1.43133e+10
       624.00000  0.000274255  1.43079e+10
       624.10000  0.000274255  1.42996e+10
       624.20000  0.000274255  1.42914e+10
       624.30000  0.000274255  1.42832e+10
       624.40000  0.000274255  1.42722e+10
       624.50000  0.000265207  1.37908e+10
       624.60000  0.000265207  1.37377e+10
       624.70000  0.000265207  1.36953e+10
       624.80000  0.000265207  1.36582e+10
       624.90000  0.000265207  1.36290e+10
       625.00000  0.000265207  1.36078e+10
       625.10000  0.000265207  1.35945e+10
       625.20000  0.000265207  1.35866e+10
       625.30000  0.000265207  1.35892e+10
       625.40000  0.000265207  1.35972e+10
       625.50000  0.000257290  1.32067e+10
       625.60000  0.000257290  1.32273e+10
       625.70000  0.000257290  1.32582e+10
       625.80000  0.000257290  1.32942e+10
       625.90000  0.000257290  1.33379e+10
       626.00000  0.000257290  1.33894e+10
       626.10000  0.000257290  1.34486e+10
       626.20000  0.000257290  1.35129e+10
       626.30000  0.000256885  1.35661e+10
       626.40000  0.000256885  1.36457e+10
       626.50000  0.000249326  1.33265e+10
       626.60000  0.000249326  1.33290e+10
       626.70000  0.000249326  1.33315e+10
       626.80000  0.000249326  1.33340e+10
       626.90000  0.000249326  1.33364e+10
       627.00000  0.000249326  1.33389e+10
       627.10000  0.000249326  1.33414e+10
       627.20000  0.000249326  1.33414e+10
       627.30000  0.000249326  1.33439e+10
       627.40000  0.000249326  1.33464e+10
       627.50000  0.000241257  1.29169e+10
       627.60000  0.000241257  1.29265e+10
       627.70000  0.000241257  1.29338e+10
       627.80000  0.000241257  1.29386e+10
       627.90000  0.000241257  1.29434e+10
       628.00000  0.000241257  1.29458e+10
       628.10000  0.000241257  1.29482e+10
       628.20000  0.000241257  1.29482e+10
       628.30000  0.000241257  1.29458e+10
       628.40000  0.000241257  1.29434e+10
       628.50000  0.000232154  1.24504e+10
       628.60000  0.000232154  1.24435e+10
       628.70000  0.000232154  1.24365e+10
       628.80000  0.000231664  1.24010e+10
       628.90000  0.000231664  1.23894e+10
       629.00000  0.000231664  1.23778e+10
       629.10000  0.000231664  1.23639e+10
       629.20000  0.000231664  1.23500e+10
       629.30000  0.000231664  1.23338e+10
       629.40000  0.000231664  1.23152e+10
       629.50000  0.000223518  1.18643e+10
       629.60000  0.000223518  1.18397e+10
       629.70000  0.000223518  1.18151e+10
       629.80000  0.000223518  1.17928e+10
       629.90000  0.000223518  1.17727e+10
       630.00000  0.000223518  1.17526e+10
       630.10000  0.000223518  1.17324e+10
       630.20000  0.000223518  1.17168e+10
       630.30000  0.000223518  1.16989e+10
       630.40000  0.000223518  1.16855e+10
       630.50000  0.000215020  1.12284e+10
       630.60000  0.000215020  1.12155e+10
       630.70000  0.000215020  1.12047e+10
       630.80000  0.000215020  1.11961e+10
       630.90000  0.000215020  1.11875e+10
       631.00000  0.000215020  1.11811e+10
       631.10000  0.000215020  1.11875e+10
       631.20000  0.000215020  1.11940e+10
       631.30000  0.000215010  1.12020e+10
       631.40000  0.000215010  1.12085e+10
       631.50000  0.000205747  1.07318e+10
       631.60000  0.000205747  1.07379e+10
       631.70000  0.000205747  1.07441e+10
       631.80000  0.000205747  1.07482e+10
       631.90000  0.000205747  1.07544e+10
       632.00000  0.000205747  1.07606e+10
       632.10000  0.000205747  1.07667e+10
       632.20000  0.000205747  1.07709e+10
       632.30000  0.000205747  1.07770e+10
       632.40000  0.000205747  1.07832e+10
       632.50000  0.000197868  1.03742e+10
       632.60000  0.000197868  1.03782e+10
       632.70000  0.000197868  1.03841e+10
       632.80000  0.000197868  1.03881e+10
       632.90000  0.000197868  1.03920e+10
       633.00000  0.000197868  1.03980e+10
       633.10000  0.000197868  1.04019e+10
       633.20000  0.000197868  1.04059e+10
       633.30000  0.000197868  1.04098e+10
       633.40000  0.000197868  1.04138e+10
       633.50000  0.000189646  9.98488e+09
       633.60000  0.000189646  9.98867e+09
       633.70000  0.000189646  9.99246e+09
       633.80000  0.000189617  9.99283e+09
       633.90000  0.000189617  9.99662e+09
       634.00000  0.000189617  1.00004e+10
       634.10000  0.000189617  1.00023e+10
       634.20000  0.000189617  1.00061e+10
       634.30000  0.000189617  1.00080e+10
       634.40000  0.000189617  1.00118e+10
       634.50000  0.000181657  9.59330e+09
       634.60000  0.000181657  9.59511e+09
       634.70000  0.000181657  9.59875e+09
       634.80000  0.000181657  9.60056e+09
       634.90000  0.000181657  9.60238e+09
       635.00000  0.000181657  9.60420e+09
       635.10000  0.000181657  9.60601e+09
       635.20000  0.000181657  9.60601e+09
       635.30000  0.000181657  9.60783e+09
       635.40000  0.000181657  9.60783e+09
       635.50000  0.000175232  9.26978e+09
       635.60000  0.000175232  9.27154e+09
       635.70000  0.000175232  9.27154e+09
       635.80000  0.000175232  9.27329e+09
       635.90000  0.000175232  9.27329e+09
       636.00000  0.000175232  9.27504e+09
       636.10000  0.000175232  9.27504e+09
       636.20000  0.000175232  9.27679e+09
       636.30000  0.000174194  9.22181e+09
       636.40000  0.000174194  9.22355e+09
       636.50000  0.000166762  8.83003e+09
       636.60000  0.000166762  8.83169e+09
       636.70000  0.000166762  8.83169e+09
       636.80000  0.000166762  8.83336e+09
       636.90000  0.000166762  8.83336e+09
       637.00000  0.000166762  8.83336e+09
       637.10000  0.000166762  8.83503e+09
       637.20000  0.000166762  8.83503e+09
       637.30000  0.000166762  8.83670e+09
       637.40000  0.000166762  8.83670e+09
       637.50000  0.000160048  8.48095e+09
       637.60000  0.000160048  8.48255e+09
       637.70000  0.000160048  8.48255e+09
       637.80000  0.000160048  8.48415e+09
       637.90000  0.000160048  8.48415e+09
       638.00000  0.000160048  8.48415e+09
       638.10000  0.000160048  8.48575e+09
       638.20000  0.000160048  8.48575e+09
       638.30000  0.000160048  8.48575e+09
       638.40000  0.000160048  8.48735e+09
       638.50000  0.000154143  8.17422e+09
       638.60000  0.000154143  8.17422e+09
       638.70000  0.000154143  8.17576e+09
       638.80000  0.000153132  8.12215e+09
       638.90000  0.000153132  8.12215e+09
       639.00000  0.000153132  8.12215e+09
       639.10000  0.000153132  8.10990e+09
       639.20000  0.000153132  8.09765e+09
       639.30000  0.000153132  8.08540e+09
       639.40000  0.000153132  8.07468e+09
       639.50000  0.000147274  7.75397e+09
       639.60000  0.000147274  7.74513e+09
       639.70000  0.000147274  7.73482e+09
       639.80000  0.000147274  7.72599e+09
       639.90000  0.000147274  7.71862e+09
       640.00000  0.000147274  7.70979e+09
       640.10000  0.000147274  7.70242e+09
       640.20000  0.000147274  7.69653e+09
       640.30000  0.000147274  7.69064e+09
       640.40000  0.000147274  7.68475e+09
       640.50000  0.000139780  7.28811e+09
       640.60000  0.000139780  7.28392e+09
       640.70000  0.000139780  7.27973e+09
       640.80000  0.000139780  7.27693e+09
       640.90000  0.000139780  7.27274e+09
       641.00000  0.000139780  7.27134e+09
       641.10000  0.000139780  7.27413e+09
       641.20000  0.000139780  7.27693e+09
       641.30000  0.000138834  7.23048e+09
       641.40000  0.000138834  7.23326e+09
       641.50000  0.000134035  6.98589e+09
       641.60000  0.000134035  6.98857e+09
       641.70000  0.000134035  6.99125e+09
       641.80000  0.000134035  6.99393e+09
       641.90000  0.000134035  6.99661e+09
       642.00000  0.000134035  6.99929e+09
       642.10000  0.000134035  7.00063e+09
       642.20000  0.000134035  7.00331e+09
       642.30000  0.000134035  7.00599e+09
       642.40000  0.000134035  7.00867e+09
       642.50000  0.000128894  6.74244e+09
       642.60000  0.000128894  6.74502e+09
       642.70000  0.000128894  6.74760e+09
       642.80000  0.000128894  6.75017e+09
       642.90000  0.000128894  6.75275e+09
       643.00000  0.000128894  6.75533e+09
       643.10000  0.000128894  6.75662e+09
       643.20000  0.000128894  6.75920e+09
       643.30000  0.000128894  6.76178e+09
       643.40000  0.000128894  6.76435e+09
       643.50000  0.000122612  6.43712e+09
       643.60000  0.000122612  6.43957e+09
       643.70000  0.000122612  6.44080e+09
       643.80000  0.000122448  6.43467e+09
       643.90000  0.000122448  6.43712e+09
       644.00000  0.000122448  6.43957e+09
       644.10000  0.000122448  6.44201e+09
       644.20000  0.000122448  6.44324e+09
       644.30000  0.000122448  6.44569e+09
       644.40000  0.000122448  6.44814e+09
       644.50000  0.000118796  6.25818e+09
       644.60000  0.000118796  6.25937e+09
       644.70000  0.000118796  6.26175e+09
       644.80000  0.000118796  6.26412e+09
       644.90000  0.000118796  6.26650e+09
       645.00000  0.000118796  6.26769e+09
       645.10000  0.000118796  6.26650e+09
       645.20000  0.000118796  6.26412e+09
       645.30000  0.000118796  6.26293e+09
       645.40000  0.000118796  6.26056e+09
       645.50000  0.000114553  6.03349e+09
       645.60000  0.000114553  6.03120e+09
       645.70000  0.000114553  6.02891e+09
       645.80000  0.000114553  6.02547e+09
       645.90000  0.000114553  6.02203e+09
       646.00000  0.000114553  6.01860e+09
       646.10000  0.000114553  6.01516e+09
       646.20000  0.000114553  6.01172e+09
       646.30000  0.000114482  6.00346e+09
       646.40000  0.000114482  5.99888e+09
       646.50000  0.000110504  5.78708e+09
       646.60000  0.000110504  5.78156e+09
       646.70000  0.000110504  5.77714e+09
       646.80000  0.000110504  5.77272e+09
       646.90000  0.000110504  5.76719e+09
       647.00000  0.000110504  5.76277e+09
       647.10000  0.000110504  5.74730e+09
       647.20000  0.000110504  5.73294e+09
       647.30000  0.000110504  5.71967e+09
       647.40000  0.000110504  5.70641e+09
       647.50000  0.000106811  5.50395e+09
       647.60000  0.000106811  5.49433e+09
       647.70000  0.000106811  5.48365e+09
       647.80000  0.000106811  5.47511e+09
       647.90000  0.000106811  5.46656e+09
       648.00000  0.000106811  5.45909e+09
       648.10000  0.000106811  5.45268e+09
       648.20000  0.000106811  5.44734e+09
       648.30000  0.000106811  5.44200e+09
       648.40000  0.000106811  5.43772e+09
       648.50000  0.000103411  5.26155e+09
       648.60000  0.000103411  5.25948e+09
       648.70000  0.000103411  5.25742e+09
       648.80000  0.000103518  5.26182e+09
       648.90000  0.000103518  5.26182e+09
       649.00000  0.000103518  5.26286e+09
       649.10000  0.000103518  5.26389e+09
       649.20000  0.000103518  5.26700e+09
       649.30000  0.000103518  5.26907e+09
       649.40000  0.000103518  5.27321e+09
       649.50000  0.000100406  5.11968e+09
       649.60000  0.000100406  5.12470e+09
       649.70000  0.000100406  5.13073e+09
       649.80000  0.000100406  5.13776e+09
       649.90000  0.000100406  5.14478e+09
       650.00000  0.000100406  5.15282e+09
       650.10000  0.000100406  5.16185e+09
       650.20000  0.000100406  5.17189e+09
       650.30000  0.000100406  5.18294e+09
       650.40000  0.000100406  5.19398e+09
       650.50000  9.36559e-05  4.85606e+09
       650.60000  9.36559e-05  4.86823e+09
       650.70000  9.36559e-05  4.88041e+09
       650.80000  9.36559e-05  4.89446e+09
       650.90000  9.36559e-05  4.90851e+09
       651.00000  9.36559e-05  4.92349e+09
       651.10000  9.36559e-05  4.92724e+09
       651.20000  9.36559e-05  4.93098e+09
       651.30000  9.35385e-05  4.92761e+09
       651.40000  9.35385e-05  4.93041e+09
       651.50000  9.07214e-05  4.78465e+09
       651.60000  9.07214e-05  4.78556e+09
       651.70000  9.07214e-05  4.78737e+09
       651.80000  9.07214e-05  4.78828e+09
       651.90000  9.07214e-05  4.78828e+09
       652.00000  9.07214e-05  4.78828e+09
       652.10000  9.07214e-05  4.78737e+09
       652.20000  9.07214e-05  4.78646e+09
       652.30000  9.07214e-05  4.78556e+09
       652.40000  9.07214e-05  4.78374e+09
       652.50000  8.81746e-05  4.64680e+09
       652.60000  8.81746e-05  4.64416e+09
       652.70000  8.81746e-05  4.64151e+09
       652.80000  8.81746e-05  4.63710e+09
       652.90000  8.81746e-05  4.63358e+09
       653.00000  8.81746e-05  4.62917e+09
       653.10000  8.81746e-05  4.62564e+09
       653.20000  8.81746e-05  4.62211e+09
       653.30000  8.81746e-05  4.61682e+09
       653.40000  8.81746e-05  4.61153e+09
       653.50000  8.56576e-05  4.47475e+09
       653.60000  8.56576e-05  4.46875e+09
       653.70000  8.56576e-05  4.46190e+09
       653.80000  8.55532e-05  4.44877e+09
       653.90000  8.55532e-05  4.44107e+09
       654.00000  8.55532e-05  4.43251e+09
       654.10000  8.55532e-05  4.42396e+09
       654.20000  8.55532e-05  4.41369e+09
       654.30000  8.55532e-05  4.40342e+09
       654.40000  8.55532e-05  4.39316e+09
       654.50000  8.32995e-05  4.26660e+09
       654.60000  8.32995e-05  4.25494e+09
       654.70000  8.32995e-05  4.24244e+09
       654.80000  8.32995e-05  4.22995e+09
       654.90000  8.32995e-05  4.21662e+09
       655.00000  8.32995e-05  4.20246e+09
       655.10000  8.32995e-05  4.16247e+09
       655.20000  8.32995e-05  4.12416e+09
       655.30000  8.32995e-05  4.08834e+09
       655.40000  8.32995e-05  4.05502e+09
       655.50000  8.04843e-05  3.88739e+09
       655.60000  8.04843e-05  3.85922e+09
       655.70000  8.04843e-05  3.83266e+09
       655.80000  8.04843e-05  3.80852e+09
       655.90000  8.04843e-05  3.78598e+09
       656.00000  8.04843e-05  3.76586e+09
       656.10000  8.04843e-05  3.74815e+09
       656.20000  8.04843e-05  3.73206e+09
       656.30000  8.04231e-05  3.71555e+09
       656.40000  8.04231e-05  3.70348e+09
       656.50000  7.81732e-05  3.59049e+09
       656.60000  7.81732e-05  3.58346e+09
       656.70000  7.81732e-05  3.57799e+09
       656.80000  7.81732e-05  3.57486e+09
       656.90000  7.81732e-05  3.57329e+09
       657.00000  7.81732e-05  3.57408e+09
       657.10000  7.81732e-05  3.60456e+09
       657.20000  7.81732e-05  3.63427e+09
       657.30000  7.81732e-05  3.66319e+09
       657.40000  7.81732e-05  3.69134e+09
       657.50000  7.53782e-05  3.58499e+09
       657.60000  7.53782e-05  3.61062e+09
       657.70000  7.53782e-05  3.63474e+09
       657.80000  7.53782e-05  3.65811e+09
       657.90000  7.53782e-05  3.67997e+09
       658.00000  7.53782e-05  3.70183e+09
       658.10000  7.53782e-05  3.72293e+09
       658.20000  7.53782e-05  3.74253e+09
       658.30000  7.53782e-05  3.76137e+09
       658.40000  7.53782e-05  3.77947e+09
       658.50000  7.50393e-05  3.77898e+09
       658.60000  7.50393e-05  3.79549e+09
       658.70000  7.50393e-05  3.81049e+09
       658.80000  7.49614e-05  3.82153e+09
       658.90000  7.49614e-05  3.83502e+09
       659.00000  7.49614e-05  3.84702e+09
       659.10000  7.49614e-05  3.85901e+09
       659.20000  7.49614e-05  3.87025e+09
       659.30000  7.49614e-05  3.88000e+09
       659.40000  7.49614e-05  3.88900e+09
       659.50000  7.19017e-05  3.73817e+09
       659.60000  7.19017e-05  3.74536e+09
       659.70000  7.19017e-05  3.75111e+09
       659.80000  7.19017e-05  3.75686e+09
       659.90000  7.19017e-05  3.76118e+09
       660.00000  7.19017e-05  3.76477e+09
       660.10000  7.19017e-05  3.76765e+09
       660.20000  7.19017e-05  3.76909e+09
       660.30000  7.19017e-05  3.77052e+09
       660.40000  7.19017e-05  3.77052e+09
       660.50000  6.99320e-05  3.66653e+09
       660.60000  6.99320e-05  3.66513e+09
       660.70000  6.99320e-05  3.66304e+09
       660.80000  6.99320e-05  3.65954e+09
       660.90000  6.99320e-05  3.65604e+09
       661.00000  6.99320e-05  3.65115e+09
       661.10000  6.99320e-05  3.64905e+09
       661.20000  6.99320e-05  3.64625e+09
       661.30000  6.97583e-05  3.63511e+09
       661.40000  6.97583e-05  3.63301e+09
       661.50000  6.81022e-05  3.54472e+09
       661.60000  6.81022e-05  3.54336e+09
       661.70000  6.81022e-05  3.54131e+09
       661.80000  6.81022e-05  3.53995e+09
       661.90000  6.81022e-05  3.53859e+09
       662.00000  6.81022e-05  3.53723e+09
       662.10000  6.81022e-05  3.53587e+09
       662.20000  6.81022e-05  3.53450e+09
       662.30000  6.81022e-05  3.53382e+09
       662.40000  6.81022e-05  3.53314e+09
       662.50000  6.75324e-05  3.50223e+09
       662.60000  6.75324e-05  3.50223e+09
       662.70000  6.75324e-05  3.50155e+09
       662.80000  6.75324e-05  3.50088e+09
       662.90000  6.75324e-05  3.50088e+09
       663.00000  6.75324e-05  3.50088e+09
       663.10000  6.75324e-05  3.50358e+09
       663.20000  6.75324e-05  3.50561e+09
       663.30000  6.75324e-05  3.50831e+09
       663.40000  6.75324e-05  3.51033e+09
       663.50000  6.50355e-05  3.38250e+09
       663.60000  6.50355e-05  3.38445e+09
       663.70000  6.50355e-05  3.38575e+09
       663.80000  6.48968e-05  3.38048e+09
       663.90000  6.48968e-05  3.38177e+09
       664.00000  6.48968e-05  3.38242e+09
       664.10000  6.48968e-05  3.38372e+09
       664.20000  6.48968e-05  3.38437e+09
       664.30000  6.48968e-05  3.38502e+09
       664.40000  6.48968e-05  3.38567e+09
       664.50000  6.34740e-05  3.31144e+09
       664.60000  6.34740e-05  3.31144e+09
       664.70000  6.34740e-05  3.31144e+09
       664.80000  6.34740e-05  3.31144e+09
       664.90000  6.34740e-05  3.31144e+09
       665.00000  6.34740e-05  3.31080e+09
       665.10000  6.34740e-05  3.31017e+09
       665.20000  6.34740e-05  3.30954e+09
       665.30000  6.34740e-05  3.30827e+09
       665.40000  6.34740e-05  3.30700e+09
       665.50000  6.18035e-05  3.21873e+09
       665.60000  6.18035e-05  3.21749e+09
       665.70000  6.18035e-05  3.21564e+09
       665.80000  6.18035e-05  3.21440e+09
       665.90000  6.18035e-05  3.21255e+09
       666.00000  6.18035e-05  3.21008e+09
       666.10000  6.18035e-05  3.20822e+09
       666.20000  6.18035e-05  3.20575e+09
       666.30000  6.16483e-05  3.19523e+09
       666.40000  6.16483e-05  3.19277e+09
       666.50000  5.99820e-05  3.10347e+09
       666.60000  5.99820e-05  3.10047e+09
       666.70000  5.99820e-05  3.09747e+09
       666.80000  5.99820e-05  3.09447e+09
       666.90000  5.99820e-05  3.09147e+09
       667.00000  5.99820e-05  3.08787e+09
       667.10000  5.99820e-05  3.09147e+09
       667.20000  5.99820e-05  3.09447e+09
       667.30000  5.99820e-05  3.09747e+09
       667.40000  5.99820e-05  3.10047e+09
       667.50000  5.80710e-05  3.00459e+09
       667.60000  5.80710e-05  3.00692e+09
       667.70000  5.80710e-05  3.00924e+09
       667.80000  5.80710e-05  3.01098e+09
       667.90000  5.80710e-05  3.01272e+09
       668.00000  5.80710e-05  3.01447e+09
       668.10000  5.80710e-05  3.01621e+09
       668.20000  5.80710e-05  3.01737e+09
       668.30000  5.80710e-05  3.01853e+09
       668.40000  5.80710e-05  3.01911e+09
       668.50000  5.64060e-05  2.93311e+09
       668.60000  5.64060e-05  2.93368e+09
       668.70000  5.64060e-05  2.93368e+09
       668.80000  5.63137e-05  2.92888e+09
       668.90000  5.63137e-05  2.92888e+09
       669.00000  5.63137e-05  2.92831e+09
       669.10000  5.63137e-05  2.92437e+09
       669.20000  5.63137e-05  2.92043e+09
       669.30000  5.63137e-05  2.91705e+09
       669.40000  5.63137e-05  2.91367e+09
       669.50000  5.49282e-05  2.83869e+09
       669.60000  5.49282e-05  2.83539e+09
       669.70000  5.49282e-05  2.83265e+09
       669.80000  5.49282e-05  2.82990e+09
       669.90000  5.49282e-05  2.82715e+09
       670.00000  5.49282e-05  2.82496e+09
       670.10000  5.49282e-05  2.82276e+09
       670.20000  5.49282e-05  2.82056e+09
       670.30000  5.49282e-05  2.81836e+09
       670.40000  5.49282e-05  2.81672e+09
       670.50000  5.32633e-05  2.72975e+09
       670.60000  5.32633e-05  2.72815e+09
       670.70000  5.32633e-05  2.72708e+09
       670.80000  5.32633e-05  2.72602e+09
       670.90000  5.32633e-05  2.72495e+09
       671.00000  5.32633e-05  2.72442e+09
       671.10000  5.32633e-05  2.72335e+09
       671.20000  5.32633e-05  2.72335e+09
       671.30000  5.32654e-05  2.72293e+09
       671.40000  5.32654e-05  2.72293e+09
       671.50000  5.18820e-05  2.65221e+09
       671.60000  5.18820e-05  2.65221e+09
       671.70000  5.18820e-05  2.65221e+09
       671.80000  5.18820e-05  2.65273e+09
       671.90000  5.18820e-05  2.65325e+09
       672.00000  5.18820e-05  2.65428e+09
       672.10000  5.18820e-05  2.65532e+09
       672.20000  5.18820e-05  2.65636e+09
       672.30000  5.18820e-05  2.65740e+09
       672.40000  5.18820e-05  2.65895e+09
       672.50000  5.07815e-05  2.60408e+09
       672.60000  5.07815e-05  2.60560e+09
       672.70000  5.07815e-05  2.60712e+09
       672.80000  5.07815e-05  2.60915e+09
       672.90000  5.07815e-05  2.61119e+09
       673.00000  5.07815e-05  2.61372e+09
       673.10000  5.07815e-05  2.61271e+09
       673.20000  5.07815e-05  2.61169e+09
       673.30000  5.07815e-05  2.61068e+09
       673.40000  5.07815e-05  2.61017e+09
       673.50000  4.85945e-05  2.49678e+09
       673.60000  4.85945e-05  2.49630e+09
       673.70000  4.85945e-05  2.49581e+09
       673.80000  4.86139e-05  2.49584e+09
       673.90000  4.86139e-05  2.49535e+09
       674.00000  4.86139e-05  2.49486e+09
       674.10000  4.86139e-05  2.49438e+09
       674.20000  4.86139e-05  2.49389e+09
       674.30000  4.86139e-05  2.49341e+09
       674.40000  4.86139e-05  2.49292e+09
       674.50000  4.72525e-05  2.42264e+09
       674.60000  4.72525e-05  2.42264e+09
       674.70000  4.72525e-05  2.42216e+09
       674.80000  4.72525e-05  2.42216e+09
       674.90000  4.72525e-05  2.42169e+09
       675.00000  4.72525e-05  2.42169e+09
       675.10000  4.72525e-05  2.42216e+09
       675.20000  4.72525e-05  2.42264e+09
       675.30000  4.72525e-05  2.42311e+09
       675.40000  4.72525e-05  2.42358e+09
       675.50000  4.58644e-05  2.35239e+09
       675.60000  4.58644e-05  2.35285e+09
       675.70000  4.58644e-05  2.35330e+09
       675.80000  4.58644e-05  2.35330e+09
       675.90000  4.58644e-05  2.35376e+09
       676.00000  4.58644e-05  2.35376e+09
       676.10000  4.58644e-05  2.35422e+09
       676.20000  4.58644e-05  2.35422e+09
       676.30000  4.58177e-05  2.35182e+09
       676.40000  4.58177e-05  2.35182e+09
       676.50000  4.47311e-05  2.29650e+09
       676.60000  4.47311e-05  2.29650e+09
       676.70000  4.47311e-05  2.29650e+09
       676.80000  4.47311e-05  2.29605e+09
       676.90000  4.47311e-05  2.29605e+09
       677.00000  4.47311e-05  2.29605e+09
       677.10000  4.47311e-05  2.29605e+09
       677.20000  4.47311e-05  2.29560e+09
       677.30000  4.47311e-05  2.29560e+09
       677.40000  4.47311e-05  2.29515e+09
       677.50000  4.22989e-05  2.17036e+09
       677.60000  4.22989e-05  2.16993e+09
       677.70000  4.22989e-05  2.16993e+09
       677.80000  4.22989e-05  2.16951e+09
       677.90000  4.22989e-05  2.16909e+09
       678.00000  4.22989e-05  2.16866e+09
       678.10000  4.22989e-05  2.16824e+09
       678.20000  4.22989e-05  2.16782e+09
       678.30000  4.22989e-05  2.16740e+09
       678.40000  4.22989e-05  2.16697e+09
       678.50000  4.17264e-05  2.13681e+09
       678.60000  4.17264e-05  2.13639e+09
       678.70000  4.17264e-05  2.13597e+09
       678.80000  4.17232e-05  2.13498e+09
       678.90000  4.17232e-05  2.13456e+09
       679.00000  4.17232e-05  2.13373e+09
       679.10000  4.17232e-05  2.13373e+09
       679.20000  4.17232e-05  2.13414e+09
       679.30000  4.17232e-05  2.13414e+09
       679.40000  4.17232e-05  2.13414e+09
       679.50000  3.98267e-05  2.03713e+09
       679.60000  3.98267e-05  2.03713e+09
       679.70000  3.98267e-05  2.03713e+09
       679.80000  3.98267e-05  2.03713e+09
       679.90000  3.98267e-05  2.03713e+09
       680.00000  3.98267e-05  2.03674e+09
       680.10000  3.98267e-05  2.03674e+09
       680.20000  3.98267e-05  2.03674e+09
       680.30000  3.98267e-05  2.03634e+09
       680.40000  3.98267e-05  2.03634e+09
       680.50000  3.90210e-05  1.99475e+09
       680.60000  3.90210e-05  1.99475e+09
       680.70000  3.90210e-05  1.99436e+09
       680.80000  3.90210e-05  1.99397e+09
       680.90000  3.90210e-05  1.99358e+09
       681.00000  3.90210e-05  1.99358e+09
       681.10000  3.90210e-05  1.99319e+09
       681.20000  3.90210e-05  1.99280e+09
       681.30000  3.90173e-05  1.99261e+09
       681.40000  3.90173e-05  1.99222e+09
       681.50000  3.71369e-05  1.89584e+09
       681.60000  3.71369e-05  1.89547e+09
       681.70000  3.71369e-05  1.89510e+09
       681.80000  3.71369e-05  1.89436e+09
       681.90000  3.71369e-05  1.89398e+09
       682.00000  3.71369e-05  1.89361e+09
       682.10000  3.71369e-05  1.89287e+09
       682.20000  3.71369e-05  1.89213e+09
       682.30000  3.71369e-05  1.89176e+09
       682.40000  3.71369e-05  1.89101e+09
       682.50000  3.52807e-05  1.79579e+09
       682.60000  3.52807e-05  1.79508e+09
       682.70000  3.52807e-05  1.79438e+09
       682.80000  3.52807e-05  1.79367e+09
       682.90000  3.52807e-05  1.79261e+09
       683.00000  3.52807e-05  1.79191e+09
       683.10000  3.52807e-05  1.79120e+09
       683.20000  3.52807e-05  1.79014e+09
       683.30000  3.52807e-05  1.78909e+09
       683.40000  3.52807e-05  1.78803e+09
       683.50000  3.39552e-05  1.72017e+09
       683.60000  3.39552e-05  1.71915e+09
       683.70000  3.39552e-05  1.71813e+09
       683.80000  3.39292e-05  1.71546e+09
       683.90000  3.39292e-05  1.71444e+09
       684.00000  3.39292e-05  1.71342e+09
       684.10000  3.39292e-05  1.71207e+09
       684.20000  3.39292e-05  1.71105e+09
       684.30000  3.39292e-05  1.70969e+09
       684.40000  3.39292e-05  1.70867e+09
       684.50000  3.25932e-05  1.64009e+09
       684.60000  3.25932e-05  1.63879e+09
       684.70000  3.25932e-05  1.63748e+09
       684.80000  3.25932e-05  1.63618e+09
       684.90000  3.25932e-05  1.63455e+09
       685.00000  3.25932e-05  1.63325e+09
       685.10000  3.25932e-05  1.63455e+09
       685.20000  3.25932e-05  1.63618e+09
       685.30000  3.25932e-05  1.63748e+09
       685.40000  3.25932e-05  1.63846e+09
       685.50000  3.20694e-05  1.61341e+09
       685.60000  3.20694e-05  1.61469e+09
       685.70000  3.20694e-05  1.61566e+09
       685.80000  3.20694e-05  1.61662e+09
       685.90000  3.20694e-05  1.61758e+09
       686.00000  3.20694e-05  1.61854e+09
       686.10000  3.20694e-05  1.61950e+09
       686.20000  3.20694e-05  1.62015e+09
       686.30000  3.20357e-05  1.61941e+09
       686.40000  3.20357e-05  1.62005e+09
       686.50000  2.98922e-05  1.51225e+09
       686.60000  2.98922e-05  1.51285e+09
       686.70000  2.98922e-05  1.51344e+09
       686.80000  2.98922e-05  1.51374e+09
       686.90000  2.98922e-05  1.51434e+09
       687.00000  2.98922e-05  1.51464e+09
       687.10000  2.98922e-05  1.51494e+09
       687.20000  2.98922e-05  1.51494e+09
       687.30000  2.98922e-05  1.51494e+09
       687.40000  2.98922e-05  1.51494e+09
       687.50000  2.99035e-05  1.51551e+09
       687.60000  2.99035e-05  1.51551e+09
       687.70000  2.99035e-05  1.51551e+09
       687.80000  2.99035e-05  1.51551e+09
       687.90000  2.99035e-05  1.51551e+09
       688.00000  2.99035e-05  1.51521e+09
       688.10000  2.99035e-05  1.51521e+09
       688.20000  2.99035e-05  1.51521e+09
       688.30000  2.99035e-05  1.51491e+09
       688.40000  2.99035e-05  1.51491e+09
       688.50000  2.80335e-05  1.41990e+09
       688.60000  2.80335e-05  1.41962e+09
       688.70000  2.80335e-05  1.41962e+09
       688.80000  2.79978e-05  1.41753e+09
       688.90000  2.79978e-05  1.41725e+09
       689.00000  2.79978e-05  1.41697e+09
       689.10000  2.79978e-05  1.41669e+09
       689.20000  2.79978e-05  1.41641e+09
       689.30000  2.79978e-05  1.41613e+09
       689.40000  2.79978e-05  1.41585e+09
       689.50000  2.69455e-05  1.36236e+09
       689.60000  2.69455e-05  1.36209e+09
       689.70000  2.69455e-05  1.36155e+09
       689.80000  2.69455e-05  1.36129e+09
       689.90000  2.69455e-05  1.36102e+09
       690.00000  2.69455e-05  1.36048e+09
       690.10000  2.69455e-05  1.35994e+09
       690.20000  2.69455e-05  1.35967e+09
       690.30000  2.69455e-05  1.35913e+09
       690.40000  2.69455e-05  1.35859e+09
       690.50000  2.64183e-05  1.33175e+09
       690.60000  2.64183e-05  1.33122e+09
       690.70000  2.64183e-05  1.33069e+09
       690.80000  2.64183e-05  1.33016e+09
       690.90000  2.64183e-05  1.32963e+09
       691.00000  2.64183e-05  1.32911e+09
       691.10000  2.64183e-05  1.32963e+09
       691.20000  2.64183e-05  1.32990e+09
       691.30000  2.63931e-05  1.32916e+09
       691.40000  2.63931e-05  1.32942e+09
       691.50000  2.50657e-05  1.26281e+09
       691.60000  2.50657e-05  1.26331e+09
       691.70000  2.50657e-05  1.26356e+09
       691.80000  2.50657e-05  1.26381e+09
       691.90000  2.50657e-05  1.26406e+09
       692.00000  2.50657e-05  1.26406e+09
       692.10000  2.50657e-05  1.26431e+09
       692.20000  2.50657e-05  1.26456e+09
       692.30000  2.50657e-05  1.26456e+09
       692.40000  2.50657e-05  1.26456e+09
       692.50000  2.42591e-05  1.22411e+09
       692.60000  2.42591e-05  1.22411e+09
       692.70000  2.42591e-05  1.22411e+09
       692.80000  2.42591e-05  1.22411e+09
       692.90000  2.42591e-05  1.22411e+09
       693.00000  2.42591e-05  1.22387e+09
       693.10000  2.42591e-05  1.22387e+09
       693.20000  2.42591e-05  1.22363e+09
       693.30000  2.42591e-05  1.22338e+09
       693.40000  2.42591e-05  1.22314e+09
       693.50000  2.34625e-05  1.18275e+09
       693.60000  2.34625e-05  1.18251e+09
       693.70000  2.34625e-05  1.18228e+09
       693.80000  2.33694e-05  1.17735e+09
       693.90000  2.33694e-05  1.17689e+09
       694.00000  2.33694e-05  1.17665e+09
       694.10000  2.33694e-05  1.17642e+09
       694.20000  2.33694e-05  1.17595e+09
       694.30000  2.33694e-05  1.17572e+09
       694.40000  2.33694e-05  1.17525e+09
       694.50000  2.23122e-05  1.12163e+09
       694.60000  2.23122e-05  1.12141e+09
       694.70000  2.23122e-05  1.12096e+09
       694.80000  2.23122e-05  1.12052e+09
       694.90000  2.23122e-05  1.12007e+09
       695.00000  2.23122e-05  1.11962e+09
       695.10000  2.23122e-05  1.11918e+09
       695.20000  2.23122e-05  1.11873e+09
       695.30000  2.23122e-05  1.11806e+09
       695.40000  2.23122e-05  1.11762e+09
       695.50000  2.20544e-05  1.10426e+09
       695.60000  2.20544e-05  1.10360e+09
       695.70000  2.20544e-05  1.10316e+09
       695.80000  2.20544e-05  1.10250e+09
       695.90000  2.20544e-05  1.10184e+09
       696.00000  2.20544e-05  1.10140e+09
       696.10000  2.20544e-05  1.10074e+09
       696.20000  2.20544e-05  1.10007e+09
       696.30000  2.20327e-05  1.09833e+09
       696.40000  2.20327e-05  1.09767e+09
       696.50000  2.12355e-05  1.05732e+09
       696.60000  2.12355e-05  1.05668e+09
       696.70000  2.12355e-05  1.05583e+09
       696.80000  2.12355e-05  1.05519e+09
       696.90000  2.12355e-05  1.05456e+09
       697.00000  2.12355e-05  1.05371e+09
       697.10000  2.12355e-05  1.05519e+09
       697.20000  2.12355e-05  1.05625e+09
       697.30000  2.12355e-05  1.05753e+09
       697.40000  2.12355e-05  1.05859e+09
       697.50000  2.07055e-05  1.03320e+09
       697.60000  2.07055e-05  1.03403e+09
       697.70000  2.07055e-05  1.03486e+09
       697.80000  2.07055e-05  1.03548e+09
       697.90000  2.07055e-05  1.03610e+09
       698.00000  2.07055e-05  1.03652e+09
       698.10000  2.07055e-05  1.03693e+09
       698.20000  2.07055e-05  1.03734e+09
       698.30000  2.07055e-05  1.03755e+09
       698.40000  2.07055e-05  1.03776e+09
       698.50000  1.99253e-05  9.98854e+08
       698.60000  1.99253e-05  9.98854e+08
       698.70000  1.99253e-05  9.98655e+08
       698.80000  1.98913e-05  9.96752e+08
       698.90000  1.98913e-05  9.96553e+08
       699.00000  1.98913e-05  9.96155e+08
       699.10000  1.98913e-05  9.94365e+08
       699.20000  1.98913e-05  9.92376e+08
       699.30000  1.98913e-05  9.90784e+08
       699.40000  1.98913e-05  9.88994e+08
       699.50000  1.96233e-05  9.74103e+08
       699.60000  1.96233e-05  9.72533e+08
       699.70000  1.96233e-05  9.71159e+08
       699.80000  1.96233e-05  9.69785e+08
       699.90000  1.96233e-05  9.68412e+08
       700.00000  1.96233e-05  9.67234e+08
       700.10000  1.96233e-05  9.66057e+08
       700.20000  1.96233e-05  9.64880e+08
       700.30000  1.96233e-05  9.63898e+08
       700.40000  1.96233e-05  9.62917e+08
       700.50000  1.90879e-05  9.35691e+08
       700.60000  1.90879e-05  9.34927e+08
       700.70000  1.90879e-05  9.34164e+08
       700.80000  1.90879e-05  9.33591e+08
       700.90000  1.90879e-05  9.33018e+08
       701.00000  1.90879e-05  9.32446e+08
       701.10000  1.90879e-05  9.32255e+08
       701.20000  1.90879e-05  9.32064e+08
       701.30000  1.90749e-05  9.31237e+08
       701.40000  1.90749e-05  9.31237e+08
       701.50000  1.82957e-05  8.93197e+08
       701.60000  1.82957e-05  8.93197e+08
       701.70000  1.82957e-05  8.93197e+08
       701.80000  1.82957e-05  8.93380e+08
       701.90000  1.82957e-05  8.93380e+08
       702.00000  1.82957e-05  8.93563e+08
       702.10000  1.82957e-05  8.93929e+08
       702.20000  1.82957e-05  8.94112e+08
       702.30000  1.82957e-05  8.94478e+08
       702.40000  1.82957e-05  8.94661e+08
       702.50000  1.69647e-05  8.29915e+08
       702.60000  1.69647e-05  8.30424e+08
       702.70000  1.69647e-05  8.30763e+08
       702.80000  1.69647e-05  8.31272e+08
       702.90000  1.69647e-05  8.31781e+08
       703.00000  1.69647e-05  8.32290e+08
       703.10000  1.69647e-05  8.33817e+08
       703.20000  1.69647e-05  8.35344e+08
       703.30000  1.69647e-05  8.36701e+08
       703.40000  1.69647e-05  8.38058e+08
       703.50000  1.69711e-05  8.39561e+08
       703.60000  1.69711e-05  8.40919e+08
       703.70000  1.69711e-05  8.41937e+08
       703.80000  1.69254e-05  8.40856e+08
       703.90000  1.69254e-05  8.41872e+08
       704.00000  1.69254e-05  8.42718e+08
       704.10000  1.69254e-05  8.43733e+08
       704.20000  1.69254e-05  8.44580e+08
       704.30000  1.69254e-05  8.45257e+08
       704.40000  1.69254e-05  8.45934e+08
       704.50000  1.66655e-05  8.33609e+08
       704.60000  1.66655e-05  8.34276e+08
       704.70000  1.66655e-05  8.34776e+08
       704.80000  1.66655e-05  8.35109e+08
       704.90000  1.66655e-05  8.35609e+08
       705.00000  1.66655e-05  8.35942e+08
       705.10000  1.66655e-05  8.36109e+08
       705.20000  1.66655e-05  8.36276e+08
       705.30000  1.66655e-05  8.36442e+08
       705.40000  1.66655e-05  8.36609e+08
       705.50000  1.66660e-05  8.36633e+08
       705.60000  1.66660e-05  8.36633e+08
       705.70000  1.66660e-05  8.36466e+08
       705.80000  1.66660e-05  8.36299e+08
       705.90000  1.66660e-05  8.36133e+08
       706.00000  1.66660e-05  8.35799e+08
       706.10000  1.66660e-05  8.35466e+08
       706.20000  1.66660e-05  8.34966e+08
       706.30000  1.66785e-05  8.35093e+08
       706.40000  1.66785e-05  8.34593e+08
       706.50000  1.58881e-05  7.94406e+08
       706.60000  1.58881e-05  7.93770e+08
       706.70000  1.58881e-05  7.93135e+08
       706.80000  1.58881e-05  7.92341e+08
       706.90000  1.58881e-05  7.91546e+08
       707.00000  1.58881e-05  7.90752e+08
       707.10000  1.58881e-05  7.90116e+08
       707.20000  1.58881e-05  7.89639e+08
       707.30000  1.58881e-05  7.89004e+08
       707.40000  1.58881e-05  7.88527e+08
       707.50000  1.53570e-05  7.61710e+08
       707.60000  1.53570e-05  7.61249e+08
       707.70000  1.53570e-05  7.60942e+08
       707.80000  1.53570e-05  7.60481e+08
       707.90000  1.53570e-05  7.60174e+08
       708.00000  1.53570e-05  7.59867e+08
       708.10000  1.53570e-05  7.59560e+08
       708.20000  1.53570e-05  7.59252e+08
       708.30000  1.53570e-05  7.58945e+08
       708.40000  1.53570e-05  7.58638e+08
       708.50000  1.50961e-05  7.45594e+08
       708.60000  1.50961e-05  7.45292e+08
       708.70000  1.50961e-05  7.45141e+08
       708.80000  1.50447e-05  7.42454e+08
       708.90000  1.50447e-05  7.42304e+08
       709.00000  1.50447e-05  7.42304e+08
       709.10000  1.50447e-05  7.42604e+08
       709.20000  1.50447e-05  7.42905e+08
       709.30000  1.50447e-05  7.43056e+08
       709.40000  1.50447e-05  7.43357e+08
       709.50000  1.45141e-05  7.17287e+08
       709.60000  1.45141e-05  7.17578e+08
       709.70000  1.45141e-05  7.17723e+08
       709.80000  1.45141e-05  7.17868e+08
       709.90000  1.45141e-05  7.18013e+08
       710.00000  1.45141e-05  7.18158e+08
       710.10000  1.45141e-05  7.18303e+08
       710.20000  1.45141e-05  7.18448e+08
       710.30000  1.45141e-05  7.18448e+08
       710.40000  1.45141e-05  7.18594e+08
       710.50000  1.39931e-05  6.92798e+08
       710.60000  1.39931e-05  6.92798e+08
       710.70000  1.39931e-05  6.92798e+08
       710.80000  1.39931e-05  6.92798e+08
       710.90000  1.39931e-05  6.92798e+08
       711.00000  1.39931e-05  6.92798e+08
       711.10000  1.39931e-05  6.92798e+08
       711.20000  1.39931e-05  6.92658e+08
       711.30000  1.39961e-05  6.92808e+08
       711.40000  1.39961e-05  6.92668e+08
       711.50000  1.39974e-05  6.92591e+08
       711.60000  1.39974e-05  6.92451e+08
       711.70000  1.39974e-05  6.92311e+08
       711.80000  1.39974e-05  6.92171e+08
       711.90000  1.39974e-05  6.92031e+08
       712.00000  1.39974e-05  6.91751e+08
       712.10000  1.39974e-05  6.91611e+08
       712.20000  1.39974e-05  6.91331e+08
       712.30000  1.39974e-05  6.91191e+08
       712.40000  1.39974e-05  6.90911e+08
       712.50000  1.37320e-05  6.77535e+08
       712.60000  1.37320e-05  6.77260e+08
       712.70000  1.37320e-05  6.76848e+08
       712.80000  1.37320e-05  6.76573e+08
       712.90000  1.37320e-05  6.76299e+08
       713.00000  1.37320e-05  6.75887e+08
       713.10000  1.37320e-05  6.75887e+08
       713.20000  1.37320e-05  6.75887e+08
       713.30000  1.37320e-05  6.75887e+08
       713.40000  1.37320e-05  6.75749e+08
       713.50000  1.29485e-05  6.37195e+08
       713.60000  1.29485e-05  6.37195e+08
       713.70000  1.29485e-05  6.37065e+08
       713.80000  1.29455e-05  6.36917e+08
       713.90000  1.29455e-05  6.36787e+08
       714.00000  1.29455e-05  6.36787e+08
       714.10000  1.29455e-05  6.36658e+08
       714.20000  1.29455e-05  6.36528e+08
       714.30000  1.29455e-05  6.36528e+08
       714.40000  1.29455e-05  6.36399e+08
       714.50000  1.26791e-05  6.23178e+08
       714.60000  1.26791e-05  6.23051e+08
       714.70000  1.26791e-05  6.23051e+08
       714.80000  1.26791e-05  6.22924e+08
       714.90000  1.26791e-05  6.22797e+08
       715.00000  1.26791e-05  6.22670e+08
       715.10000  1.26791e-05  6.22544e+08
       715.20000  1.26791e-05  6.22544e+08
       715.30000  1.26791e-05  6.22544e+08
       715.40000  1.26791e-05  6.22417e+08
       715.50000  1.24232e-05  6.09729e+08
       715.60000  1.24232e-05  6.09605e+08
       715.70000  1.24232e-05  6.09480e+08
       715.80000  1.24232e-05  6.09356e+08
       715.90000  1.24232e-05  6.09232e+08
       716.00000  1.24232e-05  6.08984e+08
       716.10000  1.24232e-05  6.08859e+08
       716.20000  1.24232e-05  6.08611e+08
       716.30000  1.24053e-05  6.07485e+08
       716.40000  1.24053e-05  6.07237e+08
       716.50000  1.21432e-05  5.94167e+08
       716.60000  1.21432e-05  5.93924e+08
       716.70000  1.21432e-05  5.93681e+08
       716.80000  1.21432e-05  5.93317e+08
       716.90000  1.21432e-05  5.93074e+08
       717.00000  1.21432e-05  5.92710e+08
       717.10000  1.21432e-05  5.92345e+08
       717.20000  1.21432e-05  5.91981e+08
       717.30000  1.21432e-05  5.91617e+08
       717.40000  1.21432e-05  5.91253e+08
       717.50000  1.16107e-05  5.64978e+08
       717.60000  1.16107e-05  5.64514e+08
       717.70000  1.16107e-05  5.64166e+08
       717.80000  1.16107e-05  5.63701e+08
       717.90000  1.16107e-05  5.63237e+08
       718.00000  1.16107e-05  5.62772e+08
       718.10000  1.16107e-05  5.62308e+08
       718.20000  1.16107e-05  5.61843e+08
       718.30000  1.16107e-05  5.61379e+08
       718.40000  1.16107e-05  5.60798e+08
       718.50000  1.16169e-05  5.60633e+08
       718.60000  1.16169e-05  5.60052e+08
       718.70000  1.16169e-05  5.59471e+08
       718.80000  1.15692e-05  5.56595e+08
       718.90000  1.15692e-05  5.56017e+08
       719.00000  1.15692e-05  5.55438e+08
       719.10000  1.15692e-05  5.55438e+08
       719.20000  1.15692e-05  5.55438e+08
       719.30000  1.15692e-05  5.55438e+08
       719.40000  1.15692e-05  5.55554e+08
       719.50000  1.18298e-05  5.68067e+08
       719.60000  1.18298e-05  5.68186e+08
       719.70000  1.18298e-05  5.68186e+08
       719.80000  1.18298e-05  5.68304e+08
       719.90000  1.18298e-05  5.68422e+08
       720.00000  1.18298e-05  5.68659e+08
       720.10000  1.18298e-05  5.68777e+08
       720.20000  1.18298e-05  5.68895e+08
       720.30000  1.18298e-05  5.69132e+08
       720.40000  1.18298e-05  5.69250e+08
       720.50000  1.13106e-05  5.44493e+08
       720.60000  1.13106e-05  5.44719e+08
       720.70000  1.13106e-05  5.44945e+08
       720.80000  1.13106e-05  5.45172e+08
       720.90000  1.13106e-05  5.45511e+08
       721.00000  1.13106e-05  5.45737e+08
       721.10000  1.13106e-05  5.46303e+08
       721.20000  1.13106e-05  5.46868e+08
       721.30000  1.12876e-05  5.46319e+08
       721.40000  1.12876e-05  5.46771e+08
       721.50000  1.15517e-05  5.60144e+08
       721.60000  1.15517e-05  5.60606e+08
       721.70000  1.15517e-05  5.61068e+08
       721.80000  1.15517e-05  5.61645e+08
       721.90000  1.15517e-05  5.62107e+08
       722.00000  1.15517e-05  5.62454e+08
       722.10000  1.15517e-05  5.62916e+08
       722.20000  1.15517e-05  5.63378e+08
       722.30000  1.15517e-05  5.63725e+08
       722.40000  1.15517e-05  5.64071e+08
       722.50000  1.12855e-05  5.51408e+08
       722.60000  1.12855e-05  5.51860e+08
       722.70000  1.12855e-05  5.52085e+08
       722.80000  1.12855e-05  5.52424e+08
       722.90000  1.12855e-05  5.52762e+08
       723.00000  1.12855e-05  5.52988e+08
       723.10000  1.12855e-05  5.53327e+08
       723.20000  1.12855e-05  5.53552e+08
       723.30000  1.12855e-05  5.53778e+08
       723.40000  1.12855e-05  5.54004e+08
       723.50000  1.02363e-05  5.02704e+08
       723.60000  1.02363e-05  5.02806e+08
       723.70000  1.02363e-05  5.03011e+08
       723.80000  1.02049e-05  5.01570e+08
       723.90000  1.02049e-05  5.01672e+08
       724.00000  1.02049e-05  5.01774e+08
       724.10000  1.02049e-05  5.01876e+08
       724.20000  1.02049e-05  5.01978e+08
       724.30000  1.02049e-05  5.02080e+08
       724.40000  1.02049e-05  5.02182e+08
       724.50000  1.02080e-05  5.02333e+08
       724.60000  1.02080e-05  5.02333e+08
       724.70000  1.02080e-05  5.02333e+08
       724.80000  1.02080e-05  5.02333e+08
       724.90000  1.02080e-05  5.02333e+08
       725.00000  1.02080e-05  5.02333e+08
       725.10000  1.02080e-05  5.02538e+08
       725.20000  1.02080e-05  5.02742e+08
       725.30000  1.02080e-05  5.02844e+08
       725.40000  1.02080e-05  5.03048e+08
       725.50000  1.04749e-05  5.16310e+08
       725.60000  1.04749e-05  5.16414e+08
       725.70000  1.04749e-05  5.16414e+08
       725.80000  1.04749e-05  5.16519e+08
       725.90000  1.04749e-05  5.16519e+08
       726.00000  1.04749e-05  5.16519e+08
       726.10000  1.04749e-05  5.16519e+08
       726.20000  1.04749e-05  5.16519e+08
       726.30000  1.04477e-05  5.15070e+08
       726.40000  1.04477e-05  5.14966e+08
       726.50000  9.92654e-06  4.89180e+08
       726.60000  9.92654e-06  4.89080e+08
       726.70000  9.92654e-06  4.88981e+08
       726.80000  9.92654e-06  4.88783e+08
       726.90000  9.92654e-06  4.88584e+08
       727.00000  9.92654e-06  4.88386e+08
       727.10000  9.92654e-06  4.87691e+08
       727.20000  9.92654e-06  4.86996e+08
       727.30000  9.92654e-06  4.86301e+08
       727.40000  9.92654e-06  4.85705e+08
       727.50000  9.92482e-06  4.85026e+08
       727.60000  9.92482e-06  4.84430e+08
       727.70000  9.92482e-06  4.83934e+08
       727.80000  9.92482e-06  4.83438e+08
       727.90000  9.92482e-06  4.82942e+08
       728.00000  9.92482e-06  4.82545e+08
       728.10000  9.92482e-06  4.82148e+08
       728.20000  9.92482e-06  4.81751e+08
       728.30000  9.92482e-06  4.81354e+08
       728.40000  9.92482e-06  4.81056e+08
       728.50000  9.66585e-06  4.68214e+08
       728.60000  9.66585e-06  4.68020e+08
       728.70000  9.66585e-06  4.67730e+08
       728.80000  9.66788e-06  4.67732e+08
       728.90000  9.66788e-06  4.67539e+08
       729.00000  9.66788e-06  4.67442e+08
       729.10000  9.66788e-06  4.67346e+08
       729.20000  9.66788e-06  4.67249e+08
       729.30000  9.66788e-06  4.67249e+08
       729.40000  9.66788e-06  4.67152e+08
       729.50000  9.93268e-06  4.80047e+08
       729.60000  9.93268e-06  4.80047e+08
       729.70000  9.93268e-06  4.80146e+08
       729.80000  9.93268e-06  4.80245e+08
       729.90000  9.93268e-06  4.80444e+08
       730.00000  9.93268e-06  4.80642e+08
       730.10000  9.93268e-06  4.80841e+08
       730.20000  9.93268e-06  4.81040e+08
       730.30000  9.93268e-06  4.81338e+08
       730.40000  9.93268e-06  4.81636e+08
       730.50000  9.41336e-06  4.56736e+08
       730.60000  9.41336e-06  4.57113e+08
       730.70000  9.41336e-06  4.57489e+08
       730.80000  9.41336e-06  4.57866e+08
       730.90000  9.41336e-06  4.58337e+08
       731.00000  9.41336e-06  4.58807e+08
       731.10000  9.41336e-06  4.58713e+08
       731.20000  9.41336e-06  4.58619e+08
       731.30000  9.40643e-06  4.58187e+08
       731.40000  9.40643e-06  4.58187e+08
       731.50000  9.40768e-06  4.58154e+08
       731.60000  9.40768e-06  4.58060e+08
       731.70000  9.40768e-06  4.57966e+08
       731.80000  9.40768e-06  4.57966e+08
       731.90000  9.40768e-06  4.57872e+08
       732.00000  9.40768e-06  4.57778e+08
       732.10000  9.40768e-06  4.57684e+08
       732.20000  9.40768e-06  4.57590e+08
       732.30000  9.40768e-06  4.57590e+08
       732.40000  9.40768e-06  4.57496e+08
       732.50000  9.93591e-06  4.83084e+08
       732.60000  9.93591e-06  4.82985e+08
       732.70000  9.93591e-06  4.82885e+08
       732.80000  9.93591e-06  4.82786e+08
       732.90000  9.93591e-06  4.82687e+08
       733.00000  9.93591e-06  4.82587e+08
       733.10000  9.93591e-06  4.82488e+08
       733.20000  9.93591e-06  4.82289e+08
       733.30000  9.93591e-06  4.82190e+08
       733.40000  9.93591e-06  4.81991e+08
       733.50000  9.67686e-06  4.69328e+08
       733.60000  9.67686e-06  4.69231e+08
       733.70000  9.67686e-06  4.69037e+08
       733.80000  9.66088e-06  4.68166e+08
       733.90000  9.66088e-06  4.68069e+08
       734.00000  9.66088e-06  4.67973e+08
       734.10000  9.66088e-06  4.67876e+08
       734.20000  9.66088e-06  4.67780e+08
       734.30000  9.66088e-06  4.67683e+08
       734.40000  9.66088e-06  4.67683e+08
       734.50000  9.13351e-06  4.42062e+08
       734.60000  9.13351e-06  4.41970e+08
       734.70000  9.13351e-06  4.41970e+08
       734.80000  9.13351e-06  4.41879e+08
       734.90000  9.13351e-06  4.41879e+08
       735.00000  9.13351e-06  4.41788e+08
       735.10000  9.13351e-06  4.41788e+08
       735.20000  9.13351e-06  4.41788e+08
       735.30000  9.13351e-06  4.41788e+08
       735.40000  9.13351e-06  4.41696e+08
       735.50000  9.39827e-06  4.54500e+08
       735.60000  9.39827e-06  4.54500e+08
       735.70000  9.39827e-06  4.54500e+08
       735.80000  9.39827e-06  4.54594e+08
       735.90000  9.39827e-06  4.54594e+08
       736.00000  9.39827e-06  4.54594e+08
       736.10000  9.39827e-06  4.54594e+08
       736.20000  9.39827e-06  4.54688e+08
       736.30000  9.38033e-06  4.53820e+08
       736.40000  9.38033e-06  4.53914e+08
       736.50000  9.38087e-06  4.53940e+08
       736.60000  9.38087e-06  4.54034e+08
       736.70000  9.38087e-06  4.54128e+08
       736.80000  9.38087e-06  4.54128e+08
       736.90000  9.38087e-06  4.54222e+08
       737.00000  9.38087e-06  4.54316e+08
       737.10000  9.38087e-06  4.53847e+08
       737.20000  9.38087e-06  4.53284e+08
       737.30000  9.38087e-06  4.52815e+08
       737.40000  9.38087e-06  4.52346e+08
       737.50000  8.59894e-06  4.14125e+08
       737.60000  8.59894e-06  4.13695e+08
       737.70000  8.59894e-06  4.13265e+08
       737.80000  8.59894e-06  4.12835e+08
       737.90000  8.59894e-06  4.12491e+08
       738.00000  8.59894e-06  4.12061e+08
       738.10000  8.59894e-06  4.11631e+08
       738.20000  8.59894e-06  4.11202e+08
       738.30000  8.59894e-06  4.10858e+08
       738.40000  8.59894e-06  4.10514e+08
       738.50000  8.86348e-06  4.22699e+08
       738.60000  8.86348e-06  4.22345e+08
       738.70000  8.86348e-06  4.21990e+08
       738.80000  8.82625e-06  4.19865e+08
       738.90000  8.82625e-06  4.19512e+08
       739.00000  8.82625e-06  4.19159e+08
       739.10000  8.82625e-06  4.18453e+08
       739.20000  8.82625e-06  4.17835e+08
       739.30000  8.82625e-06  4.17305e+08
       739.40000  8.82625e-06  4.16775e+08
       739.50000  9.08608e-06  4.28499e+08
       739.60000  9.08608e-06  4.28045e+08
       739.70000  9.08608e-06  4.27682e+08
       739.80000  9.08608e-06  4.27227e+08
       739.90000  9.08608e-06  4.26955e+08
       740.00000  9.08608e-06  4.26591e+08
       740.10000  9.08608e-06  4.26410e+08
       740.20000  9.08608e-06  4.26137e+08
       740.30000  9.08608e-06  4.25955e+08
       740.40000  9.08608e-06  4.25864e+08
       740.50000  8.82905e-06  4.13729e+08
       740.60000  8.82905e-06  4.13641e+08
       740.70000  8.82905e-06  4.13641e+08
       740.80000  8.82905e-06  4.13641e+08
       740.90000  8.82905e-06  4.13729e+08
       741.00000  8.82905e-06  4.13818e+08
       741.10000  8.82905e-06  4.13994e+08
       741.20000  8.82905e-06  4.14171e+08
       741.30000  8.82304e-06  4.14065e+08
       741.40000  8.82304e-06  4.14330e+08
       741.50000  8.56378e-06  4.02412e+08
       741.60000  8.56378e-06  4.02755e+08
       741.70000  8.56378e-06  4.03183e+08
       741.80000  8.56378e-06  4.03525e+08
       741.90000  8.56378e-06  4.04039e+08
       742.00000  8.56378e-06  4.04467e+08
       742.10000  8.56378e-06  4.04981e+08
       742.20000  8.56378e-06  4.05581e+08
       742.30000  8.56378e-06  4.06180e+08
       742.40000  8.56378e-06  4.06780e+08
       742.50000  8.30485e-06  3.95145e+08
       742.60000  8.30485e-06  3.95809e+08
       742.70000  8.30485e-06  3.96557e+08
       742.80000  8.30485e-06  3.97304e+08
       742.90000  8.30485e-06  3.98135e+08
       743.00000  8.30485e-06  3.98965e+08
       743.10000  8.30485e-06  3.98799e+08
       743.20000  8.30485e-06  3.98716e+08
       743.30000  8.30485e-06  3.98633e+08
       743.40000  8.30485e-06  3.98467e+08
       743.50000  8.30884e-06  3.98575e+08
       743.60000  8.30884e-06  3.98492e+08
       743.70000  8.30884e-06  3.98409e+08
       743.80000  8.30513e-06  3.98148e+08
       743.90000  8.30513e-06  3.98065e+08
       744.00000  8.30513e-06  3.97982e+08
       744.10000  8.30513e-06  3.97982e+08
       744.20000  8.30513e-06  3.97899e+08
       744.30000  8.30513e-06  3.97899e+08
       744.40000  8.30513e-06  3.97899e+08
       744.50000  8.04472e-06  3.85342e+08
       744.60000  8.04472e-06  3.85342e+08
       744.70000  8.04472e-06  3.85342e+08
       744.80000  8.04472e-06  3.85342e+08
       744.90000  8.04472e-06  3.85422e+08
       745.00000  8.04472e-06  3.85422e+08
       745.10000  8.04472e-06  3.85664e+08
       745.20000  8.04472e-06  3.85905e+08
       745.30000  8.04472e-06  3.86066e+08
       745.40000  8.04472e-06  3.86307e+08
       745.50000  8.04762e-06  3.86608e+08
       745.60000  8.04762e-06  3.86769e+08
       745.70000  8.04762e-06  3.86929e+08
       745.80000  8.04762e-06  3.87090e+08
       745.90000  8.04762e-06  3.87171e+08
       746.00000  8.04762e-06  3.87332e+08
       746.10000  8.04762e-06  3.87412e+08
       746.20000  8.04762e-06  3.87493e+08
       746.30000  8.01092e-06  3.85806e+08
       746.40000  8.01092e-06  3.85886e+08
       746.50000  8.52723e-06  4.10842e+08
       746.60000  8.52723e-06  4.10842e+08
       746.70000  8.52723e-06  4.10927e+08
       746.80000  8.52723e-06  4.10927e+08
       746.90000  8.52723e-06  4.10927e+08
       747.00000  8.52723e-06  4.10927e+08
       747.10000  8.52723e-06  4.10671e+08
       747.20000  8.52723e-06  4.10501e+08
       747.30000  8.52723e-06  4.10330e+08
       747.40000  8.52723e-06  4.10160e+08
       747.50000  8.53123e-06  4.10182e+08
       747.60000  8.53123e-06  4.10011e+08
       747.70000  8.53123e-06  4.09840e+08
       747.80000  8.53123e-06  4.09670e+08
       747.90000  8.53123e-06  4.09499e+08
       748.00000  8.53123e-06  4.09329e+08
       748.10000  8.53123e-06  4.09243e+08
       748.20000  8.53123e-06  4.09073e+08
       748.30000  8.53123e-06  4.08902e+08
       748.40000  8.53123e-06  4.08817e+08
       748.50000  8.01637e-06  3.83984e+08
       748.60000  8.01637e-06  3.83824e+08
       748.70000  8.01637e-06  3.83744e+08
       748.80000  7.98811e-06  3.82231e+08
       748.90000  7.98811e-06  3.82151e+08
       749.00000  7.98811e-06  3.82071e+08
       749.10000  7.98811e-06  3.81911e+08
       749.20000  7.98811e-06  3.81831e+08
       749.30000  7.98811e-06  3.81752e+08
       749.40000  7.98811e-06  3.81672e+08
       749.50000  8.24416e-06  3.93824e+08
       749.60000  8.24416e-06  3.93741e+08
       749.70000  8.24416e-06  3.93576e+08
       749.80000  8.24416e-06  3.93494e+08
       749.90000  8.24416e-06  3.93494e+08
       750.00000  8.24416e-06  3.93412e+08
       750.10000  8.24416e-06  3.93329e+08
       750.20000  8.24416e-06  3.93247e+08
       750.30000  8.24416e-06  3.93164e+08
       750.40000  8.24416e-06  3.93164e+08
       750.50000  7.73052e-06  3.68591e+08
       750.60000  7.73052e-06  3.68514e+08
       750.70000  7.73052e-06  3.68514e+08
       750.80000  7.73052e-06  3.68436e+08
       750.90000  7.73052e-06  3.68436e+08
       751.00000  7.73052e-06  3.68359e+08
       751.10000  7.73052e-06  3.68359e+08
       751.20000  7.73052e-06  3.68359e+08
       751.30000  7.71322e-06  3.67458e+08
       751.40000  7.71322e-06  3.67458e+08
       751.50000  7.93083e-06  3.77825e+08
       751.60000  7.93083e-06  3.77825e+08
       751.70000  7.93083e-06  3.77825e+08
       751.80000  7.93083e-06  3.77825e+08
       751.90000  7.93083e-06  3.77825e+08
       752.00000  7.93083e-06  3.77825e+08
       752.10000  7.93083e-06  3.77825e+08
       752.20000  7.93083e-06  3.77825e+08
       752.30000  7.93083e-06  3.77825e+08
       752.40000  7.93083e-06  3.77825e+08
       752.50000  8.14490e-06  3.88105e+08
       752.60000  8.14490e-06  3.88105e+08
       752.70000  8.14490e-06  3.88105e+08
       752.80000  8.14490e-06  3.88186e+08
       752.90000  8.14490e-06  3.88186e+08
       753.00000  8.14490e-06  3.88268e+08
       753.10000  8.14490e-06  3.88268e+08
       753.20000  8.14490e-06  3.88268e+08
       753.30000  8.14490e-06  3.88268e+08
       753.40000  8.14490e-06  3.88268e+08
       753.50000  8.35455e-06  3.98261e+08
       753.60000  8.35455e-06  3.98261e+08
       753.70000  8.35455e-06  3.98261e+08
       753.80000  8.35034e-06  3.98061e+08
       753.90000  8.35034e-06  3.98061e+08
       754.00000  8.35034e-06  3.98061e+08
       754.10000  8.35034e-06  3.98061e+08
       754.20000  8.35034e-06  3.97977e+08
       754.30000  8.35034e-06  3.97977e+08
       754.40000  8.35034e-06  3.97977e+08
       754.50000  7.80085e-06  3.71789e+08
       754.60000  7.80085e-06  3.71789e+08
       754.70000  7.80085e-06  3.71711e+08
       754.80000  7.80085e-06  3.71711e+08
       754.90000  7.80085e-06  3.71633e+08
       755.00000  7.80085e-06  3.71633e+08
       755.10000  7.80085e-06  3.71555e+08
       755.20000  7.80085e-06  3.71555e+08
       755.30000  7.80085e-06  3.71477e+08
       755.40000  7.80085e-06  3.71477e+08
       755.50000  7.51212e-06  3.57652e+08
       755.60000  7.51212e-06  3.57577e+08
       755.70000  7.51212e-06  3.57577e+08
       755.80000  7.51212e-06  3.57502e+08
       755.90000  7.51212e-06  3.57427e+08
       756.00000  7.51212e-06  3.57427e+08
       756.10000  7.51212e-06  3.57352e+08
       756.20000  7.51212e-06  3.57276e+08
       756.30000  7.50015e-06  3.56632e+08
       756.40000  7.50015e-06  3.56632e+08
       756.50000  8.20756e-06  3.90187e+08
       756.60000  8.20756e-06  3.90105e+08
       756.70000  8.20756e-06  3.90023e+08
       756.80000  8.20756e-06  3.90023e+08
       756.90000  8.20756e-06  3.89941e+08
       757.00000  8.20756e-06  3.89859e+08
       757.10000  8.20756e-06  3.89777e+08
       757.20000  8.20756e-06  3.89695e+08
       757.30000  8.20756e-06  3.89695e+08
       757.40000  8.20756e-06  3.89613e+08
       757.50000  8.16376e-06  3.87452e+08
       757.60000  8.16376e-06  3.87371e+08
       757.70000  8.16376e-06  3.87289e+08
       757.80000  8.16376e-06  3.87207e+08
       757.90000  8.16376e-06  3.87126e+08
       758.00000  8.16376e-06  3.87126e+08
       758.10000  8.16376e-06  3.87044e+08
       758.20000  8.16376e-06  3.86962e+08
       758.30000  8.16376e-06  3.86881e+08
       758.40000  8.16376e-06  3.86799e+08
       758.50000  6.89123e-06  3.26438e+08
       758.60000  6.89123e-06  3.26369e+08
       758.70000  6.89123e-06  3.26300e+08
       758.80000  6.87264e-06  3.25351e+08
       758.90000  6.87264e-06  3.25282e+08
       759.00000  6.87264e-06  3.25213e+08
       759.10000  6.87264e-06  3.25213e+08
       759.20000  6.87264e-06  3.25145e+08
       759.30000  6.87264e-06  3.25145e+08
       759.40000  6.87264e-06  3.25076e+08
       759.50000  7.81311e-06  3.69560e+08
       759.60000  7.81311e-06  3.69560e+08
       759.70000  7.81311e-06  3.69482e+08
       759.80000  7.81311e-06  3.69482e+08
       759.90000  7.81311e-06  3.69482e+08
       760.00000  7.81311e-06  3.69482e+08
       760.10000  7.81311e-06  3.69482e+08
       760.20000  7.81311e-06  3.69482e+08
       760.30000  7.81311e-06  3.69560e+08
       760.40000  7.81311e-06  3.69560e+08
       760.50000  7.28743e-06  3.44696e+08
       760.60000  7.28743e-06  3.44768e+08
       760.70000  7.28743e-06  3.44768e+08
       760.80000  7.28743e-06  3.44841e+08
       760.90000  7.28743e-06  3.44841e+08
       761.00000  7.28743e-06  3.44914e+08
       761.10000  7.28743e-06  3.45206e+08
       761.20000  7.28743e-06  3.45424e+08
       761.30000  7.27228e-06  3.44924e+08
       761.40000  7.27228e-06  3.45143e+08
       761.50000  6.75063e-06  3.20587e+08
       761.60000  6.75063e-06  3.20722e+08
       761.70000  6.75063e-06  3.20857e+08
       761.80000  6.75063e-06  3.20992e+08
       761.90000  6.75063e-06  3.21127e+08
       762.00000  6.75063e-06  3.21195e+08
       762.10000  6.75063e-06  3.21330e+08
       762.20000  6.75063e-06  3.21397e+08
       762.30000  6.75063e-06  3.21465e+08
       762.40000  6.75063e-06  3.21465e+08
       762.50000  7.66856e-06  3.65177e+08
       762.60000  7.66856e-06  3.65254e+08
       762.70000  7.66856e-06  3.65254e+08
       762.80000  7.66856e-06  3.65177e+08
       762.90000  7.66856e-06  3.65177e+08
       763.00000  7.66856e-06  3.65100e+08
       763.10000  7.66856e-06  3.65024e+08
       763.20000  7.66856e-06  3.64947e+08
       763.30000  7.66856e-06  3.64794e+08
       763.40000  7.66856e-06  3.64640e+08
       763.50000  7.39288e-06  3.51384e+08
       763.60000  7.39288e-06  3.51236e+08
       763.70000  7.39288e-06  3.51088e+08
       763.80000  7.37396e-06  3.49968e+08
       763.90000  7.37396e-06  3.49747e+08
       764.00000  7.37396e-06  3.49526e+08
       764.10000  7.37396e-06  3.49304e+08
       764.20000  7.37396e-06  3.49009e+08
       764.30000  7.37396e-06  3.48714e+08
       764.40000  7.37396e-06  3.48419e+08
       764.50000  6.86156e-06  3.23934e+08
       764.60000  6.86156e-06  3.23660e+08
       764.70000  6.86156e-06  3.23317e+08
       764.80000  6.86156e-06  3.22974e+08
       764.90000  6.86156e-06  3.22631e+08
       765.00000  6.86156e-06  3.22219e+08
       765.10000  6.86156e-06  3.21464e+08
       765.20000  6.86156e-06  3.20709e+08
       765.30000  6.86156e-06  3.20023e+08
       765.40000  6.86156e-06  3.19337e+08
       765.50000  7.05834e-06  3.27860e+08
       765.60000  7.05834e-06  3.27295e+08
       765.70000  7.05834e-06  3.26660e+08
       765.80000  7.05834e-06  3.26166e+08
       765.90000  7.05834e-06  3.25672e+08
       766.00000  7.05834e-06  3.25178e+08
       766.10000  7.05834e-06  3.24754e+08
       766.20000  7.05834e-06  3.24331e+08
       766.30000  7.05815e-06  3.23969e+08
       766.40000  7.05815e-06  3.23687e+08
       766.50000  7.48966e-06  3.43176e+08
       766.60000  7.48966e-06  3.42877e+08
       766.70000  7.48966e-06  3.42727e+08
       766.80000  7.48966e-06  3.42502e+08
       766.90000  7.48966e-06  3.42352e+08
       767.00000  7.48966e-06  3.42278e+08
       767.10000  7.48966e-06  3.42652e+08
       767.20000  7.48966e-06  3.43101e+08
       767.30000  7.48966e-06  3.43476e+08
       767.40000  7.48966e-06  3.43850e+08
       767.50000  6.97754e-06  3.20688e+08
       767.60000  6.97754e-06  3.21037e+08
       767.70000  6.97754e-06  3.21386e+08
       767.80000  6.97754e-06  3.21665e+08
       767.90000  6.97754e-06  3.22014e+08
       768.00000  6.97754e-06  3.22293e+08
       768.10000  6.97754e-06  3.22572e+08
       768.20000  6.97754e-06  3.22851e+08
       768.30000  6.97754e-06  3.23060e+08
       768.40000  6.97754e-06  3.23339e+08
       768.50000  6.70857e-06  3.11077e+08
       768.60000  6.70857e-06  3.11278e+08
       768.70000  6.70857e-06  3.11479e+08
       768.80000  6.70501e-06  3.11515e+08
       768.90000  6.70501e-06  3.11716e+08
       769.00000  6.70501e-06  3.11850e+08
       769.10000  6.70501e-06  3.12051e+08
       769.20000  6.70501e-06  3.12185e+08
       769.30000  6.70501e-06  3.12319e+08
       769.40000  6.70501e-06  3.12453e+08
       769.50000  7.12988e-06  3.32324e+08
       769.60000  7.12988e-06  3.32466e+08
       769.70000  7.12988e-06  3.32538e+08
       769.80000  7.12988e-06  3.32680e+08
       769.90000  7.12988e-06  3.32751e+08
       770.00000  7.12988e-06  3.32751e+08
       770.10000  7.12988e-06  3.32823e+08
       770.20000  7.12988e-06  3.32894e+08
       770.30000  7.12988e-06  3.32894e+08
       770.40000  7.12988e-06  3.32894e+08
       770.50000  6.40031e-06  2.98830e+08
       770.60000  6.40031e-06  2.98830e+08
       770.70000  6.40031e-06  2.98830e+08
       770.80000  6.40031e-06  2.98830e+08
       770.90000  6.40031e-06  2.98766e+08
       771.00000  6.40031e-06  2.98702e+08
       771.10000  6.40031e-06  2.98958e+08
       771.20000  6.40031e-06  2.99150e+08
       771.30000  6.38072e-06  2.98426e+08
       771.40000  6.38072e-06  2.98618e+08
       771.50000  6.57319e-06  3.07823e+08
       771.60000  6.57319e-06  3.07954e+08
       771.70000  6.57319e-06  3.08151e+08
       771.80000  6.57319e-06  3.08283e+08
       771.90000  6.57319e-06  3.08348e+08
       772.00000  6.57319e-06  3.08480e+08
       772.10000  6.57319e-06  3.08546e+08
       772.20000  6.57319e-06  3.08611e+08
       772.30000  6.57319e-06  3.08677e+08
       772.40000  6.57319e-06  3.08743e+08
       772.50000  6.30894e-06  2.96331e+08
       772.60000  6.30894e-06  2.96331e+08
       772.70000  6.30894e-06  2.96331e+08
       772.80000  6.30894e-06  2.96268e+08
       772.90000  6.30894e-06  2.96268e+08
       773.00000  6.30894e-06  2.96205e+08
       773.10000  6.30894e-06  2.95826e+08
       773.20000  6.30894e-06  2.95511e+08
       773.30000  6.30894e-06  2.95132e+08
       773.40000  6.30894e-06  2.94817e+08
       773.50000  6.94837e-06  3.24350e+08
       773.60000  6.94837e-06  3.24072e+08
       773.70000  6.94837e-06  3.23794e+08
       773.80000  6.92088e-06  3.22236e+08
       773.90000  6.92088e-06  3.21959e+08
       774.00000  6.92088e-06  3.21682e+08
       774.10000  6.92088e-06  3.21475e+08
       774.20000  6.92088e-06  3.21267e+08
       774.30000  6.92088e-06  3.21129e+08
       774.40000  6.92088e-06  3.20921e+08
       774.50000  6.87863e-06  3.18824e+08
       774.60000  6.87863e-06  3.18755e+08
       774.70000  6.87863e-06  3.18618e+08
       774.80000  6.87863e-06  3.18549e+08
       774.90000  6.87863e-06  3.18480e+08
       775.00000  6.87863e-06  3.18412e+08
       775.10000  6.87863e-06  3.18412e+08
       775.20000  6.87863e-06  3.18412e+08
       775.30000  6.87863e-06  3.18412e+08
       775.40000  6.87863e-06  3.18412e+08
       775.50000  6.83966e-06  3.16676e+08
       775.60000  6.83966e-06  3.16744e+08
       775.70000  6.83966e-06  3.16813e+08
       775.80000  6.83966e-06  3.16881e+08
       775.90000  6.83966e-06  3.17018e+08
       776.00000  6.83966e-06  3.17155e+08
       776.10000  6.83966e-06  3.17292e+08
       776.20000  6.83966e-06  3.17497e+08
       776.30000  6.82232e-06  3.16897e+08
       776.40000  6.82232e-06  3.17101e+08
       776.50000  6.34491e-06  2.95102e+08
       776.60000  6.34491e-06  2.95356e+08
       776.70000  6.34491e-06  2.95609e+08
       776.80000  6.34491e-06  2.95863e+08
       776.90000  6.34491e-06  2.96180e+08
       777.00000  6.34491e-06  2.96434e+08
       777.10000  6.34491e-06  2.96307e+08
       777.20000  6.34491e-06  2.96244e+08
       777.30000  6.34491e-06  2.96117e+08
       777.40000  6.34491e-06  2.95990e+08
       777.50000  6.09056e-06  2.84003e+08
       777.60000  6.09056e-06  2.83942e+08
       777.70000  6.09056e-06  2.83820e+08
       777.80000  6.09056e-06  2.83759e+08
       777.90000  6.09056e-06  2.83698e+08
       778.00000  6.09056e-06  2.83576e+08
       778.10000  6.09056e-06  2.83515e+08
       778.20000  6.09056e-06  2.83455e+08
       778.30000  6.09056e-06  2.83394e+08
       778.40000  6.09056e-06  2.83333e+08
       778.50000  6.48682e-06  3.01767e+08
       778.60000  6.48682e-06  3.01702e+08
       778.70000  6.48682e-06  3.01637e+08
       778.80000  6.47039e-06  3.00873e+08
       778.90000  6.47039e-06  3.00873e+08
       779.00000  6.47039e-06  3.00809e+08
       779.10000  6.47039e-06  3.00938e+08
       779.20000  6.47039e-06  3.01003e+08
       779.30000  6.47039e-06  3.01132e+08
       779.40000  6.47039e-06  3.01197e+08
       779.50000  6.43347e-06  2.99542e+08
       779.60000  6.43347e-06  2.99607e+08
       779.70000  6.43347e-06  2.99671e+08
       779.80000  6.43347e-06  2.99735e+08
       779.90000  6.43347e-06  2.99800e+08
       780.00000  6.43347e-06  2.99864e+08
       780.10000  6.43347e-06  2.99864e+08
       780.20000  6.43347e-06  2.99928e+08
       780.30000  6.43347e-06  2.99928e+08
       780.40000  6.43347e-06  2.99928e+08
       780.50000  6.60995e-06  3.08156e+08
       780.60000  6.60995e-06  3.08156e+08
       780.70000  6.60995e-06  3.08156e+08
       780.80000  6.60995e-06  3.08156e+08
       780.90000  6.60995e-06  3.08156e+08
       781.00000  6.60995e-06  3.08090e+08
       781.10000  6.60995e-06  3.08090e+08
       781.20000  6.60995e-06  3.08024e+08
       781.30000  6.57320e-06  3.06245e+08
       781.40000  6.57320e-06  3.06180e+08
       781.50000  6.10686e-06  2.84397e+08
       781.60000  6.10686e-06  2.84336e+08
       781.70000  6.10686e-06  2.84275e+08
       781.80000  6.10686e-06  2.84214e+08
       781.90000  6.10686e-06  2.84091e+08
       782.00000  6.10686e-06  2.84030e+08
       782.10000  6.10686e-06  2.83908e+08
       782.20000  6.10686e-06  2.83786e+08
       782.30000  6.10686e-06  2.83725e+08
       782.40000  6.10686e-06  2.83603e+08
       782.50000  5.86685e-06  2.72339e+08
       782.60000  5.86685e-06  2.72163e+08
       782.70000  5.86685e-06  2.72046e+08
       782.80000  5.86685e-06  2.71929e+08
       782.90000  5.86685e-06  2.71753e+08
       783.00000  5.86685e-06  2.71635e+08
       783.10000  5.86685e-06  2.71753e+08
       783.20000  5.86685e-06  2.71870e+08
       783.30000  5.86685e-06  2.71987e+08
       783.40000  5.86685e-06  2.72046e+08
       783.50000  6.66076e-06  3.08993e+08
       783.60000  6.66076e-06  3.09126e+08
       783.70000  6.66076e-06  3.09192e+08
       783.80000  6.62681e-06  3.07749e+08
       783.90000  6.62681e-06  3.07881e+08
       784.00000  6.62681e-06  3.07948e+08
       784.10000  6.62681e-06  3.08014e+08
       784.20000  6.62681e-06  3.08147e+08
       784.30000  6.62681e-06  3.08213e+08
       784.40000  6.62681e-06  3.08279e+08
       784.50000  5.55670e-06  2.58553e+08
       784.60000  5.55670e-06  2.58609e+08
       784.70000  5.55670e-06  2.58664e+08
       784.80000  5.55670e-06  2.58720e+08
       784.90000  5.55670e-06  2.58775e+08
       785.00000  5.55670e-06  2.58775e+08
       785.10000  5.55670e-06  2.58775e+08
       785.20000  5.55670e-06  2.58775e+08
       785.30000  5.55670e-06  2.58775e+08
       785.40000  5.55670e-06  2.58775e+08
       785.50000  5.93258e-06  2.76280e+08
       785.60000  5.93258e-06  2.76280e+08
       785.70000  5.93258e-06  2.76280e+08
       785.80000  5.93258e-06  2.76280e+08
       785.90000  5.93258e-06  2.76280e+08
       786.00000  5.93258e-06  2.76280e+08
       786.10000  5.93258e-06  2.76280e+08
       786.20000  5.93258e-06  2.76280e+08
       786.30000  5.92263e-06  2.75817e+08
       786.40000  5.92263e-06  2.75817e+08
       786.50000  6.49177e-06  3.02322e+08
       786.60000  6.49177e-06  3.02322e+08
       786.70000  6.49177e-06  3.02322e+08
       786.80000  6.49177e-06  3.02322e+08
       786.90000  6.49177e-06  3.02322e+08
       787.00000  6.49177e-06  3.02322e+08
       787.10000  6.49177e-06  3.02322e+08
       787.20000  6.49177e-06  3.02322e+08
       787.30000  6.49177e-06  3.02322e+08
       787.40000  6.49177e-06  3.02322e+08
       787.50000  6.45264e-06  3.00499e+08
       787.60000  6.45264e-06  3.00499e+08
       787.70000  6.45264e-06  3.00499e+08
       787.80000  6.45264e-06  3.00499e+08
       787.90000  6.45264e-06  3.00499e+08
       788.00000  6.45264e-06  3.00499e+08
       788.10000  6.45264e-06  3.00499e+08
       788.20000  6.45264e-06  3.00499e+08
       788.30000  6.45264e-06  3.00499e+08
       788.40000  6.45264e-06  3.00499e+08
       788.50000  5.20920e-06  2.42592e+08
       788.60000  5.20920e-06  2.42592e+08
       788.70000  5.20920e-06  2.42592e+08
       788.80000  5.21011e-06  2.42635e+08
       788.90000  5.21011e-06  2.42635e+08
       789.00000  5.21011e-06  2.42635e+08
       789.10000  5.21011e-06  2.42531e+08
       789.20000  5.21011e-06  2.42374e+08
       789.30000  5.21011e-06  2.42218e+08
       789.40000  5.21011e-06  2.42114e+08
       789.50000  6.17456e-06  2.86747e+08
       789.60000  6.17456e-06  2.86561e+08
       789.70000  6.17456e-06  2.86438e+08
       789.80000  6.17456e-06  2.86253e+08
       789.90000  6.17456e-06  2.86067e+08
       790.00000  6.17456e-06  2.85944e+08
       790.10000  6.17456e-06  2.85759e+08
       790.20000  6.17456e-06  2.85635e+08
       790.30000  6.17456e-06  2.85450e+08
       790.40000  6.17456e-06  2.85327e+08
       790.50000  5.73784e-06  2.64974e+08
       790.60000  5.73784e-06  2.64801e+08
       790.70000  5.73784e-06  2.64687e+08
       790.80000  5.73784e-06  2.64515e+08
       790.90000  5.73784e-06  2.64400e+08
       791.00000  5.73784e-06  2.64228e+08
       791.10000  5.73784e-06  2.64056e+08
       791.20000  5.73784e-06  2.63941e+08
       791.30000  5.72112e-06  2.63000e+08
       791.40000  5.72112e-06  2.62828e+08
       791.50000  6.07939e-06  2.79105e+08
       791.60000  6.07939e-06  2.78923e+08
       791.70000  6.07939e-06  2.78801e+08
       791.80000  6.07939e-06  2.78619e+08
       791.90000  6.07939e-06  2.78497e+08
       792.00000  6.07939e-06  2.78315e+08
       792.10000  6.07939e-06  2.78193e+08
       792.20000  6.07939e-06  2.78071e+08
       792.30000  6.07939e-06  2.77889e+08
       792.40000  6.07939e-06  2.77768e+08
       792.50000  5.65269e-06  2.58158e+08
       792.60000  5.65269e-06  2.58045e+08
       792.70000  5.65269e-06  2.57932e+08
       792.80000  5.65269e-06  2.57819e+08
       792.90000  5.65269e-06  2.57706e+08
       793.00000  5.65269e-06  2.57593e+08
       793.10000  5.65269e-06  2.57424e+08
       793.20000  5.65269e-06  2.57197e+08
       793.30000  5.65269e-06  2.57028e+08
       793.40000  5.65269e-06  2.56858e+08
       793.50000  5.80547e-06  2.63627e+08
       793.60000  5.80547e-06  2.63510e+08
       793.70000  5.80547e-06  2.63336e+08
       793.80000  5.78891e-06  2.62527e+08
       793.90000  5.78891e-06  2.62411e+08
       794.00000  5.78891e-06  2.62353e+08
       794.10000  5.78891e-06  2.62238e+08
       794.20000  5.78891e-06  2.62238e+08
       794.30000  5.78891e-06  2.62180e+08
       794.40000  5.78891e-06  2.62180e+08
       794.50000  6.13513e-06  2.77860e+08
       794.60000  6.13513e-06  2.77860e+08
       794.70000  6.13513e-06  2.77922e+08
       794.80000  6.13513e-06  2.77922e+08
       794.90000  6.13513e-06  2.77983e+08
       795.00000  6.13513e-06  2.78106e+08
       795.10000  6.13513e-06  2.78535e+08
       795.20000  6.13513e-06  2.78965e+08
       795.30000  6.13513e-06  2.79394e+08
       795.40000  6.13513e-06  2.79823e+08
       795.50000  5.90799e-06  2.69818e+08
       795.60000  5.90799e-06  2.70173e+08
       795.70000  5.90799e-06  2.70468e+08
       795.80000  5.90799e-06  2.70763e+08
       795.90000  5.90799e-06  2.71059e+08
       796.00000  5.90799e-06  2.71295e+08
       796.10000  5.90799e-06  2.71531e+08
       796.20000  5.90799e-06  2.71768e+08
       796.30000  5.90013e-06  2.71583e+08
       796.40000  5.90013e-06  2.71760e+08
       796.50000  5.48022e-06  2.52583e+08
       796.60000  5.48022e-06  2.52693e+08
       796.70000  5.48022e-06  2.52803e+08
       796.80000  5.48022e-06  2.52857e+08
       796.90000  5.48022e-06  2.52912e+08
       797.00000  5.48022e-06  2.52967e+08
       797.10000  5.48022e-06  2.53022e+08
       797.20000  5.48022e-06  2.53022e+08
       797.30000  5.48022e-06  2.53022e+08
       797.40000  5.48022e-06  2.52967e+08
       797.50000  5.82624e-06  2.68881e+08
       797.60000  5.82624e-06  2.68823e+08
       797.70000  5.82624e-06  2.68706e+08
       797.80000  5.82624e-06  2.68590e+08
       797.90000  5.82624e-06  2.68473e+08
       798.00000  5.82624e-06  2.68299e+08
       798.10000  5.82624e-06  2.68124e+08
       798.20000  5.82624e-06  2.67949e+08
       798.30000  5.82624e-06  2.67716e+08
       798.40000  5.82624e-06  2.67483e+08
       798.50000  5.96550e-06  2.73638e+08
       798.60000  5.96550e-06  2.73339e+08
       798.70000  5.96550e-06  2.73041e+08
       798.80000  5.95187e-06  2.72119e+08
       798.90000  5.95187e-06  2.71762e+08
       799.00000  5.95187e-06  2.71405e+08
       799.10000  5.95187e-06  2.71584e+08
       799.20000  5.95187e-06  2.71822e+08
       799.30000  5.95187e-06  2.72060e+08
       799.40000  5.95187e-06  2.72238e+08
       799.50000  6.46890e-06  2.96082e+08
       799.60000  6.46890e-06  2.96276e+08
       799.70000  6.46890e-06  2.96470e+08
       799.80000  6.46890e-06  2.96599e+08
       799.90000  6.46890e-06  2.96729e+08
       800.00000  6.46890e-06  2.96858e+08
       800.10000  6.46890e-06  2.96987e+08
       800.20000  6.46890e-06  2.97117e+08
       800.30000  6.46890e-06  2.97246e+08
       800.40000  6.46890e-06  2.97311e+08
       800.50000  5.50579e-06  2.53101e+08
       800.60000  5.50579e-06  2.53156e+08
       800.70000  5.50579e-06  2.53156e+08
       800.80000  5.50579e-06  2.53211e+08
       800.90000  5.50579e-06  2.53211e+08
       801.00000  5.50579e-06  2.53211e+08
       801.10000  5.50579e-06  2.53101e+08
       801.20000  5.50579e-06  2.52991e+08
       801.30000  5.48962e-06  2.52138e+08
       801.40000  5.48962e-06  2.52029e+08
       801.50000  5.63772e-06  2.58715e+08
       801.60000  5.63772e-06  2.58602e+08
       801.70000  5.63772e-06  2.58490e+08
       801.80000  5.63772e-06  2.58377e+08
       801.90000  5.63772e-06  2.58264e+08
       802.00000  5.63772e-06  2.58151e+08
       802.10000  5.63772e-06  2.58039e+08
       802.20000  5.63772e-06  2.57926e+08
       802.30000  5.63772e-06  2.57813e+08
       802.40000  5.63772e-06  2.57700e+08
       802.50000  6.14037e-06  2.80554e+08
       802.60000  6.14037e-06  2.80431e+08
       802.70000  6.14037e-06  2.80308e+08
       802.80000  6.14037e-06  2.80124e+08
       802.90000  6.14037e-06  2.80001e+08
       803.00000  6.14037e-06  2.79878e+08
       803.10000  6.14037e-06  2.79755e+08
       803.20000  6.14037e-06  2.79633e+08
       803.30000  6.14037e-06  2.79510e+08
       803.40000  6.14037e-06  2.79326e+08
       803.50000  5.38049e-06  2.44651e+08
       803.60000  5.38049e-06  2.44543e+08
       803.70000  5.38049e-06  2.44435e+08
       803.80000  5.36377e-06  2.43569e+08
       803.90000  5.36377e-06  2.43408e+08
       804.00000  5.36377e-06  2.43301e+08
       804.10000  5.36377e-06  2.43193e+08
       804.20000  5.36377e-06  2.43086e+08
       804.30000  5.36377e-06  2.42925e+08
       804.40000  5.36377e-06  2.42818e+08
       804.50000  4.97055e-06  2.24917e+08
       804.60000  4.97055e-06  2.24768e+08
       804.70000  4.97055e-06  2.24669e+08
       804.80000  4.97055e-06  2.24569e+08
       804.90000  4.97055e-06  2.24420e+08
       805.00000  4.97055e-06  2.24321e+08
       805.10000  4.97055e-06  2.24520e+08
       805.20000  4.97055e-06  2.24768e+08
       805.30000  4.97055e-06  2.24917e+08
       805.40000  4.97055e-06  2.25116e+08
       805.50000  4.23213e-06  1.91800e+08
       805.60000  4.23213e-06  1.91927e+08
       805.70000  4.23213e-06  1.92054e+08
       805.80000  4.23213e-06  1.92139e+08
       805.90000  4.23213e-06  1.92223e+08
       806.00000  4.23213e-06  1.92308e+08
       806.10000  4.23213e-06  1.92350e+08
       806.20000  4.23213e-06  1.92393e+08
       806.30000  4.22385e-06  1.92059e+08
       806.40000  4.22385e-06  1.92101e+08
       806.50000  4.71901e-06  2.14621e+08
       806.60000  4.71901e-06  2.14621e+08
       806.70000  4.71901e-06  2.14573e+08
       806.80000  4.71901e-06  2.14573e+08
       806.90000  4.71901e-06  2.14526e+08
       807.00000  4.71901e-06  2.14432e+08
       807.10000  4.71901e-06  2.14054e+08
       807.20000  4.71901e-06  2.13630e+08
       807.30000  4.71901e-06  2.13252e+08
       807.40000  4.71901e-06  2.12922e+08
       807.50000  5.03391e-06  2.26777e+08
       807.60000  5.03391e-06  2.26425e+08
       807.70000  5.03391e-06  2.26123e+08
       807.80000  5.03391e-06  2.25871e+08
       807.90000  5.03391e-06  2.25620e+08
       808.00000  5.03391e-06  2.25368e+08
       808.10000  5.03391e-06  2.25167e+08
       808.20000  5.03391e-06  2.24965e+08
       808.30000  5.03391e-06  2.24764e+08
       808.40000  5.03391e-06  2.24613e+08
       808.50000  5.34375e-06  2.38331e+08
       808.60000  5.34375e-06  2.38225e+08
       808.70000  5.34375e-06  2.38118e+08
       808.80000  5.33870e-06  2.37839e+08
       808.90000  5.33870e-06  2.37786e+08
       809.00000  5.33870e-06  2.37786e+08
       809.10000  5.33870e-06  2.37786e+08
       809.20000  5.33870e-06  2.37839e+08
       809.30000  5.33870e-06  2.37893e+08
       809.40000  5.33870e-06  2.37946e+08
       809.50000  5.29942e-06  2.36301e+08
       809.60000  5.29942e-06  2.36460e+08
       809.70000  5.29942e-06  2.36619e+08
       809.80000  5.29942e-06  2.36778e+08
       809.90000  5.29942e-06  2.36990e+08
       810.00000  5.29942e-06  2.37202e+08
       810.10000  5.29942e-06  2.37467e+08
       810.20000  5.29942e-06  2.37732e+08
       810.30000  5.29942e-06  2.37997e+08
       810.40000  5.29942e-06  2.38315e+08
       810.50000  6.11050e-06  2.75217e+08
       810.60000  6.11050e-06  2.75583e+08
       810.70000  6.11050e-06  2.76072e+08
       810.80000  6.11050e-06  2.76561e+08
       810.90000  6.11050e-06  2.77050e+08
       811.00000  6.11050e-06  2.77600e+08
       811.10000  6.11050e-06  2.77661e+08
       811.20000  6.11050e-06  2.77783e+08
       811.30000  6.10647e-06  2.77661e+08
       811.40000  6.10647e-06  2.77783e+08
       811.50000  5.55889e-06  2.52929e+08
       811.60000  5.55889e-06  2.52985e+08
       811.70000  5.55889e-06  2.53041e+08
       811.80000  5.55889e-06  2.53096e+08
       811.90000  5.55889e-06  2.53152e+08
       812.00000  5.55889e-06  2.53207e+08
       812.10000  5.55889e-06  2.53207e+08
       812.20000  5.55889e-06  2.53263e+08
       812.30000  5.55889e-06  2.53318e+08
       812.40000  5.55889e-06  2.53318e+08
       812.50000  4.84852e-06  2.20947e+08
       812.60000  4.84852e-06  2.20995e+08
       812.70000  4.84852e-06  2.20995e+08
       812.80000  4.84852e-06  2.20995e+08
       812.90000  4.84852e-06  2.20995e+08
       813.00000  4.84852e-06  2.20995e+08
       813.10000  4.84852e-06  2.20898e+08
       813.20000  4.84852e-06  2.20850e+08
       813.30000  4.84852e-06  2.20753e+08
       813.40000  4.84852e-06  2.20704e+08
       813.50000  5.14776e-06  2.34223e+08
       813.60000  5.14776e-06  2.34172e+08
       813.70000  5.14776e-06  2.34120e+08
       813.80000  5.14720e-06  2.34043e+08
       813.90000  5.14720e-06  2.33992e+08
       814.00000  5.14720e-06  2.33889e+08
       814.10000  5.14720e-06  2.33837e+08
       814.20000  5.14720e-06  2.33786e+08
       814.30000  5.14720e-06  2.33734e+08
       814.40000  5.14720e-06  2.33734e+08
       814.50000  4.61349e-06  2.09452e+08
       814.60000  4.61349e-06  2.09406e+08
       814.70000  4.61349e-06  2.09360e+08
       814.80000  4.61349e-06  2.09314e+08
       814.90000  4.61349e-06  2.09314e+08
       815.00000  4.61349e-06  2.09268e+08
       815.10000  4.61349e-06  2.09452e+08
       815.20000  4.61349e-06  2.09591e+08
       815.30000  4.61349e-06  2.09729e+08
       815.40000  4.61349e-06  2.09822e+08
       815.50000  4.90681e-06  2.23309e+08
       815.60000  4.90681e-06  2.23358e+08
       815.70000  4.90681e-06  2.23456e+08
       815.80000  4.90681e-06  2.23456e+08
       815.90000  4.90681e-06  2.23505e+08
       816.00000  4.90681e-06  2.23505e+08
       816.10000  4.90681e-06  2.23505e+08
       816.20000  4.90681e-06  2.23456e+08
       816.30000  4.90668e-06  2.23401e+08
       816.40000  4.90668e-06  2.23352e+08
       816.50000  4.54443e-06  2.06772e+08
       816.60000  4.54443e-06  2.06681e+08
       816.70000  4.54443e-06  2.06544e+08
       816.80000  4.54443e-06  2.06408e+08
       816.90000  4.54443e-06  2.06272e+08
       817.00000  4.54443e-06  2.06090e+08
       817.10000  4.54443e-06  2.05454e+08
       817.20000  4.54443e-06  2.04863e+08
       817.30000  4.54443e-06  2.04318e+08
       817.40000  4.54443e-06  2.03772e+08
       817.50000  4.67255e-06  2.09003e+08
       817.60000  4.67255e-06  2.08536e+08
       817.70000  4.67255e-06  2.08069e+08
       817.80000  4.67255e-06  2.07601e+08
       817.90000  4.67255e-06  2.07228e+08
       818.00000  4.67255e-06  2.06807e+08
       818.10000  4.67255e-06  2.06480e+08
       818.20000  4.67255e-06  2.06153e+08
       818.30000  4.67255e-06  2.05826e+08
       818.40000  4.67255e-06  2.05592e+08
       818.50000  3.99763e-06  1.75656e+08
       818.60000  3.99763e-06  1.75496e+08
       818.70000  3.99763e-06  1.75336e+08
       818.80000  3.99703e-06  1.75150e+08
       818.90000  3.99703e-06  1.75070e+08
       819.00000  3.99703e-06  1.74950e+08
       819.10000  3.99703e-06  1.74910e+08
       819.20000  3.99703e-06  1.74870e+08
       819.30000  3.99703e-06  1.74830e+08
       819.40000  3.99703e-06  1.74830e+08
       819.50000  4.44299e-06  1.94381e+08
       819.60000  4.44299e-06  1.94425e+08
       819.70000  4.44299e-06  1.94514e+08
       819.80000  4.44299e-06  1.94647e+08
       819.90000  4.44299e-06  1.94780e+08
       820.00000  4.44299e-06  1.94958e+08
       820.10000  4.44299e-06  1.95136e+08
       820.20000  4.44299e-06  1.95358e+08
       820.30000  4.44299e-06  1.95625e+08
       820.40000  4.44299e-06  1.95891e+08
       820.50000  4.25126e-06  1.87735e+08
       820.60000  4.25126e-06  1.88033e+08
       820.70000  4.25126e-06  1.88373e+08
       820.80000  4.25126e-06  1.88713e+08
       820.90000  4.25126e-06  1.89096e+08
       821.00000  4.25126e-06  1.89521e+08
       821.10000  4.25126e-06  1.89436e+08
       821.20000  4.25126e-06  1.89393e+08
       821.30000  4.26344e-06  1.89851e+08
       821.40000  4.26344e-06  1.89809e+08
       821.50000  6.57967e-06  2.92795e+08
       821.60000  6.57967e-06  2.92730e+08
       821.70000  6.57967e-06  2.92664e+08
       821.80000  6.57967e-06  2.92532e+08
       821.90000  6.57967e-06  2.92466e+08
       822.00000  6.57967e-06  2.92401e+08
       822.10000  6.57967e-06  2.92401e+08
       822.20000  6.57967e-06  2.92335e+08
       822.30000  6.57967e-06  2.92269e+08
       822.40000  6.57967e-06  2.92269e+08
       822.50000  4.66414e-06  2.07135e+08
       822.60000  4.66414e-06  2.07135e+08
       822.70000  4.66414e-06  2.07088e+08
       822.80000  4.66414e-06  2.07088e+08
       822.90000  4.66414e-06  2.07088e+08
       823.00000  4.66414e-06  2.07088e+08
       823.10000  4.66414e-06  2.07088e+08
       823.20000  4.66414e-06  2.07088e+08
       823.30000  4.66414e-06  2.07088e+08
       823.40000  4.66414e-06  2.07088e+08
       823.50000  4.62759e-06  2.05511e+08
       823.60000  4.62759e-06  2.05511e+08
       823.70000  4.62759e-06  2.05558e+08
       823.80000  4.64022e-06  2.06118e+08
       823.90000  4.64022e-06  2.06165e+08
       824.00000  4.64022e-06  2.06211e+08
       824.10000  4.64022e-06  2.06258e+08
       824.20000  4.64022e-06  2.06304e+08
       824.30000  4.64022e-06  2.06350e+08
       824.40000  4.64022e-06  2.06443e+08
       824.50000  4.44998e-06  1.98024e+08
       824.60000  4.44998e-06  1.98113e+08
       824.70000  4.44998e-06  1.98157e+08
       824.80000  4.44998e-06  1.98246e+08
       824.90000  4.44998e-06  1.98335e+08
       825.00000  4.44998e-06  1.98424e+08
       825.10000  4.44998e-06  1.98513e+08
       825.20000  4.44998e-06  1.98602e+08
       825.30000  4.44998e-06  1.98736e+08
       825.40000  4.44998e-06  1.98825e+08
       825.50000  4.71869e-06  2.10973e+08
       825.60000  4.71869e-06  2.11067e+08
       825.70000  4.71869e-06  2.11209e+08
       825.80000  4.71869e-06  2.11350e+08
       825.90000  4.71869e-06  2.11492e+08
       826.00000  4.71869e-06  2.11633e+08
       826.10000  4.71869e-06  2.11775e+08
       826.20000  4.71869e-06  2.11869e+08
       826.30000  4.72183e-06  2.12152e+08
       826.40000  4.72183e-06  2.12246e+08
       826.50000  4.83469e-06  2.17368e+08
       826.60000  4.83469e-06  2.17464e+08
       826.70000  4.83469e-06  2.17561e+08
       826.80000  4.83469e-06  2.17609e+08
       826.90000  4.83469e-06  2.17658e+08
       827.00000  4.83469e-06  2.17706e+08
       827.10000  4.83469e-06  2.17706e+08
       827.20000  4.83469e-06  2.17754e+08
       827.30000  4.83469e-06  2.17754e+08
       827.40000  4.83469e-06  2.17754e+08
       827.50000  4.49663e-06  2.02528e+08
       827.60000  4.49663e-06  2.02528e+08
       827.70000  4.49663e-06  2.02483e+08
       827.80000  4.49663e-06  2.02438e+08
       827.90000  4.49663e-06  2.02393e+08
       828.00000  4.49663e-06  2.02348e+08
       828.10000  4.49663e-06  2.02214e+08
       828.20000  4.49663e-06  2.02034e+08
       828.30000  4.49663e-06  2.01854e+08
       828.40000  4.49663e-06  2.01674e+08
       828.50000  3.56669e-06  1.59859e+08
       828.60000  3.56669e-06  1.59716e+08
       828.70000  3.56669e-06  1.59609e+08
       828.80000  3.56380e-06  1.59373e+08
       828.90000  3.56380e-06  1.59230e+08
       829.00000  3.56380e-06  1.59124e+08
       829.10000  3.56380e-06  1.59017e+08
       829.20000  3.56380e-06  1.58910e+08
       829.30000  3.56380e-06  1.58803e+08
       829.40000  3.56380e-06  1.58696e+08
       829.50000  4.41981e-06  1.96682e+08
       829.60000  4.41981e-06  1.96549e+08
       829.70000  4.41981e-06  1.96417e+08
       829.80000  4.41981e-06  1.96284e+08
       829.90000  4.41981e-06  1.96196e+08
       830.00000  4.41981e-06  1.96063e+08
       830.10000  4.41981e-06  1.95975e+08
       830.20000  4.41981e-06  1.95842e+08
       830.30000  4.41981e-06  1.95754e+08
       830.40000  4.41981e-06  1.95621e+08
       830.50000  4.38380e-06  1.93939e+08
       830.60000  4.38380e-06  1.93852e+08
       830.70000  4.38380e-06  1.93720e+08
       830.80000  4.38380e-06  1.93633e+08
       830.90000  4.38380e-06  1.93545e+08
       831.00000  4.38380e-06  1.93457e+08
       831.10000  4.38380e-06  1.93370e+08
       831.20000  4.38380e-06  1.93282e+08
       831.30000  4.39569e-06  1.93762e+08
       831.40000  4.39569e-06  1.93674e+08
       831.50000  4.21456e-06  1.85609e+08
       831.60000  4.21456e-06  1.85567e+08
       831.70000  4.21456e-06  1.85483e+08
       831.80000  4.21456e-06  1.85399e+08
       831.90000  4.21456e-06  1.85357e+08
       832.00000  4.21456e-06  1.85314e+08
       832.10000  4.21456e-06  1.85146e+08
       832.20000  4.21456e-06  1.84977e+08
       832.30000  4.21456e-06  1.84851e+08
       832.40000  4.21456e-06  1.84724e+08
       832.50000  3.16881e-06  1.38794e+08
       832.60000  3.16881e-06  1.38731e+08
       832.70000  3.16881e-06  1.38667e+08
       832.80000  3.16881e-06  1.38572e+08
       832.90000  3.16881e-06  1.38540e+08
       833.00000  3.16881e-06  1.38477e+08
       833.10000  3.16881e-06  1.38414e+08
       833.20000  3.16881e-06  1.38382e+08
       833.30000  3.16881e-06  1.38350e+08
       833.40000  3.16881e-06  1.38319e+08
       833.50000  3.42780e-06  1.49623e+08
       833.60000  3.42780e-06  1.49589e+08
       833.70000  3.42780e-06  1.49589e+08
       833.80000  3.43138e-06  1.49745e+08
       833.90000  3.43138e-06  1.49780e+08
       834.00000  3.43138e-06  1.49780e+08
       834.10000  3.43138e-06  1.49951e+08
       834.20000  3.43138e-06  1.50088e+08
       834.30000  3.43138e-06  1.50260e+08
       834.40000  3.43138e-06  1.50397e+08
       834.50000  4.11057e-06  1.80331e+08
       834.60000  4.11057e-06  1.80495e+08
       834.70000  4.11057e-06  1.80618e+08
       834.80000  4.11057e-06  1.80742e+08
       834.90000  4.11057e-06  1.80906e+08
       835.00000  4.11057e-06  1.81029e+08
       835.10000  4.11057e-06  1.81112e+08
       835.20000  4.11057e-06  1.81235e+08
       835.30000  4.11057e-06  1.81317e+08
       835.40000  4.11057e-06  1.81399e+08
       835.50000  4.35645e-06  1.92337e+08
       835.60000  4.35645e-06  1.92424e+08
       835.70000  4.35645e-06  1.92468e+08
       835.80000  4.35645e-06  1.92555e+08
       835.90000  4.35645e-06  1.92599e+08
       836.00000  4.35645e-06  1.92642e+08
       836.10000  4.35645e-06  1.92555e+08
       836.20000  4.35645e-06  1.92512e+08
       836.30000  4.35448e-06  1.92337e+08
       836.40000  4.35448e-06  1.92294e+08
       836.50000  4.03807e-06  1.78281e+08
       836.60000  4.03807e-06  1.78200e+08
       836.70000  4.03807e-06  1.78160e+08
       836.80000  4.03807e-06  1.78119e+08
       836.90000  4.03807e-06  1.78038e+08
       837.00000  4.03807e-06  1.77998e+08
       837.10000  4.03807e-06  1.77958e+08
       837.20000  4.03807e-06  1.77917e+08
       837.30000  4.03807e-06  1.77877e+08
       837.40000  4.03807e-06  1.77837e+08
       837.50000  4.41677e-06  1.94470e+08
       837.60000  4.41677e-06  1.94426e+08
       837.70000  4.41677e-06  1.94382e+08
       837.80000  4.41677e-06  1.94338e+08
       837.90000  4.41677e-06  1.94338e+08
       838.00000  4.41677e-06  1.94294e+08
       838.10000  4.41677e-06  1.94250e+08
       838.20000  4.41677e-06  1.94250e+08
       838.30000  4.41677e-06  1.94250e+08
       838.40000  4.41677e-06  1.94250e+08
       838.50000  3.55853e-06  1.56469e+08
       838.60000  3.55853e-06  1.56469e+08
       838.70000  3.55853e-06  1.56469e+08
       838.80000  3.54777e-06  1.55960e+08
       838.90000  3.54777e-06  1.55960e+08
       839.00000  3.54777e-06  1.55960e+08
       839.10000  3.54777e-06  1.55925e+08
       839.20000  3.54777e-06  1.55925e+08
       839.30000  3.54777e-06  1.55925e+08
       839.40000  3.54777e-06  1.55889e+08
       839.50000  3.92054e-06  1.72269e+08
       839.60000  3.92054e-06  1.72269e+08
       839.70000  3.92054e-06  1.72229e+08
       839.80000  3.92054e-06  1.72229e+08
       839.90000  3.92054e-06  1.72229e+08
       840.00000  3.92054e-06  1.72190e+08
       840.10000  3.92054e-06  1.72190e+08
       840.20000  3.92054e-06  1.72190e+08
       840.30000  3.92054e-06  1.72151e+08
       840.40000  3.92054e-06  1.72151e+08
       840.50000  4.28724e-06  1.88253e+08
       840.60000  4.28724e-06  1.88210e+08
       840.70000  4.28724e-06  1.88210e+08
       840.80000  4.28724e-06  1.88210e+08
       840.90000  4.28724e-06  1.88167e+08
       841.00000  4.28724e-06  1.88167e+08
       841.10000  4.28724e-06  1.88167e+08
       841.20000  4.28724e-06  1.88167e+08
       841.30000  4.28701e-06  1.88114e+08
       841.40000  4.28701e-06  1.88114e+08
       841.50000  3.84831e-06  1.68864e+08
       841.60000  3.84831e-06  1.68825e+08
       841.70000  3.84831e-06  1.68825e+08
       841.80000  3.84831e-06  1.68825e+08
       841.90000  3.84831e-06  1.68787e+08
       842.00000  3.84831e-06  1.68787e+08
       842.10000  3.84831e-06  1.68633e+08
       842.20000  3.84831e-06  1.68518e+08
       842.30000  3.84831e-06  1.68402e+08
       842.40000  3.84831e-06  1.68248e+08
       842.50000  4.47026e-06  1.95306e+08
       842.60000  4.47026e-06  1.95216e+08
       842.70000  4.47026e-06  1.95082e+08
       842.80000  4.47026e-06  1.94993e+08
       842.90000  4.47026e-06  1.94859e+08
       843.00000  4.47026e-06  1.94769e+08
       843.10000  4.47026e-06  1.94680e+08
       843.20000  4.47026e-06  1.94591e+08
       843.30000  4.47026e-06  1.94546e+08
       843.40000  4.47026e-06  1.94456e+08
       843.50000  3.38648e-06  1.47278e+08
       843.60000  3.38648e-06  1.47244e+08
       843.70000  3.38648e-06  1.47210e+08
       843.80000  3.39136e-06  1.47389e+08
       843.90000  3.39136e-06  1.47389e+08
       844.00000  3.39136e-06  1.47355e+08
       844.10000  3.39136e-06  1.47456e+08
       844.20000  3.39136e-06  1.47524e+08
       844.30000  3.39136e-06  1.47592e+08
       844.40000  3.39136e-06  1.47660e+08
       844.50000  3.87771e-06  1.68913e+08
       844.60000  3.87771e-06  1.68991e+08
       844.70000  3.87771e-06  1.69029e+08
       844.80000  3.87771e-06  1.69107e+08
       844.90000  3.87771e-06  1.69146e+08
       845.00000  3.87771e-06  1.69223e+08
       845.10000  3.87771e-06  1.69262e+08
       845.20000  3.87771e-06  1.69301e+08
       845.30000  3.87771e-06  1.69378e+08
       845.40000  3.87771e-06  1.69417e+08
       845.50000  3.45761e-06  1.51063e+08
       845.60000  3.45761e-06  1.51098e+08
       845.70000  3.45761e-06  1.51132e+08
       845.80000  3.45761e-06  1.51167e+08
       845.90000  3.45761e-06  1.51167e+08
       846.00000  3.45761e-06  1.51201e+08
       846.10000  3.45761e-06  1.51201e+08
       846.20000  3.45761e-06  1.51201e+08
       846.30000  3.46671e-06  1.51599e+08
       846.40000  3.46671e-06  1.51634e+08
       846.50000  2.66982e-06  1.16778e+08
       846.60000  2.66982e-06  1.16751e+08
       846.70000  2.66982e-06  1.16751e+08
       846.80000  2.66982e-06  1.16751e+08
       846.90000  2.66982e-06  1.16725e+08
       847.00000  2.66982e-06  1.16725e+08
       847.10000  2.66982e-06  1.16698e+08
       847.20000  2.66982e-06  1.16698e+08
       847.30000  2.66982e-06  1.16671e+08
       847.40000  2.66982e-06  1.16645e+08
       847.50000  3.02091e-06  1.31953e+08
       847.60000  3.02091e-06  1.31923e+08
       847.70000  3.02091e-06  1.31893e+08
       847.80000  3.02091e-06  1.31863e+08
       847.90000  3.02091e-06  1.31802e+08
       848.00000  3.02091e-06  1.31772e+08
       848.10000  3.02091e-06  1.31138e+08
       848.20000  3.02091e-06  1.30564e+08
       848.30000  3.02091e-06  1.29990e+08
       848.40000  3.02091e-06  1.29446e+08
       848.50000  3.11791e-06  1.33072e+08
       848.60000  3.11791e-06  1.32605e+08
       848.70000  3.11791e-06  1.32137e+08
       848.80000  3.12981e-06  1.32203e+08
       848.90000  3.12981e-06  1.31796e+08
       849.00000  3.12981e-06  1.31421e+08
       849.10000  3.12981e-06  1.31045e+08
       849.20000  3.12981e-06  1.30732e+08
       849.30000  3.12981e-06  1.30451e+08
       849.40000  3.12981e-06  1.30169e+08
       849.50000  3.34670e-06  1.38955e+08
       849.60000  3.34670e-06  1.38721e+08
       849.70000  3.34670e-06  1.38553e+08
       849.80000  3.34670e-06  1.38386e+08
       849.90000  3.34670e-06  1.38252e+08
       850.00000  3.34670e-06  1.38152e+08
       850.10000  3.34670e-06  1.38888e+08
       850.20000  3.34670e-06  1.39591e+08
       850.30000  3.34670e-06  1.40227e+08
       850.40000  3.34670e-06  1.40795e+08
       850.50000  3.92726e-06  1.65848e+08
       850.60000  3.92726e-06  1.66398e+08
       850.70000  3.92726e-06  1.66869e+08
       850.80000  3.92726e-06  1.67301e+08
       850.90000  3.92726e-06  1.67655e+08
       851.00000  3.92726e-06  1.67969e+08
       851.10000  3.92726e-06  1.68204e+08
       851.20000  3.92726e-06  1.68401e+08
       851.30000  3.93142e-06  1.68697e+08
       851.40000  3.93142e-06  1.68736e+08
       851.50000  3.03997e-06  1.30476e+08
       851.60000  3.03997e-06  1.30415e+08
       851.70000  3.03997e-06  1.30324e+08
       851.80000  3.03997e-06  1.30172e+08
       851.90000  3.03997e-06  1.29959e+08
       852.00000  3.03997e-06  1.29716e+08
       852.10000  3.03997e-06  1.29412e+08
       852.20000  3.03997e-06  1.29077e+08
       852.30000  3.03997e-06  1.28682e+08
       852.40000  3.03997e-06  1.28256e+08
       852.50000  2.41393e-06  1.01433e+08
       852.60000  2.41393e-06  1.01023e+08
       852.70000  2.41393e-06  1.00540e+08
       852.80000  2.41393e-06  1.00057e+08
       852.90000  2.41393e-06  9.95023e+07
       853.00000  2.41393e-06  9.89229e+07
       853.10000  2.41393e-06  9.82953e+07
       853.20000  2.41393e-06  9.76436e+07
       853.30000  2.41393e-06  9.69435e+07
       853.40000  2.41393e-06  9.62193e+07
       853.50000  2.87472e-06  1.13667e+08
       853.60000  2.87472e-06  1.12689e+08
       853.70000  2.87472e-06  1.11683e+08
       853.80000  2.87856e-06  1.10767e+08
       853.90000  2.87856e-06  1.09673e+08
       854.00000  2.87856e-06  1.08522e+08
       854.10000  2.87856e-06  1.09328e+08
       854.20000  2.87856e-06  1.10134e+08
       854.30000  2.87856e-06  1.10911e+08
       854.40000  2.87856e-06  1.11659e+08
       854.50000  3.21278e-06  1.25427e+08
       854.60000  3.21278e-06  1.26230e+08
       854.70000  3.21278e-06  1.27001e+08
       854.80000  3.21278e-06  1.27740e+08
       854.90000  3.21278e-06  1.28479e+08
       855.00000  3.21278e-06  1.29186e+08
       855.10000  3.21278e-06  1.29861e+08
       855.20000  3.21278e-06  1.30503e+08
       855.30000  3.21278e-06  1.31146e+08
       855.40000  3.21278e-06  1.31724e+08
       855.50000  2.46061e-06  1.01352e+08
       855.60000  2.46061e-06  1.01771e+08
       855.70000  2.46061e-06  1.02189e+08
       855.80000  2.46061e-06  1.02583e+08
       855.90000  2.46061e-06  1.02952e+08
       856.00000  2.46061e-06  1.03296e+08
       856.10000  2.46061e-06  1.03567e+08
       856.20000  2.46061e-06  1.03813e+08
       856.30000  2.46337e-06  1.04176e+08
       856.40000  2.46337e-06  1.04422e+08
       856.50000  3.63217e-06  1.54295e+08
       856.60000  3.63217e-06  1.54622e+08
       856.70000  3.63217e-06  1.54912e+08
       856.80000  3.63217e-06  1.55203e+08
       856.90000  3.63217e-06  1.55457e+08
       857.00000  3.63217e-06  1.55711e+08
       857.10000  3.63217e-06  1.55966e+08
       857.20000  3.63217e-06  1.56183e+08
       857.30000  3.63217e-06  1.56401e+08
       857.40000  3.63217e-06  1.56583e+08
       857.50000  1.97804e-06  8.53720e+07
       857.60000  1.97804e-06  8.54710e+07
       857.70000  1.97804e-06  8.55501e+07
       857.80000  1.97804e-06  8.56292e+07
       857.90000  1.97804e-06  8.56885e+07
       858.00000  1.97804e-06  8.57677e+07
       858.10000  1.97804e-06  8.58072e+07
       858.20000  1.97804e-06  8.58468e+07
       858.30000  1.97804e-06  8.58863e+07
       858.40000  1.97804e-06  8.59061e+07
       858.50000  3.23265e-06  1.40426e+08
       858.60000  3.23265e-06  1.40459e+08
       858.70000  3.23265e-06  1.40459e+08
       858.80000  3.24243e-06  1.40884e+08
       858.90000  3.24243e-06  1.40851e+08
       859.00000  3.24243e-06  1.40819e+08
       859.10000  3.24243e-06  1.40786e+08
       859.20000  3.24243e-06  1.40722e+08
       859.30000  3.24243e-06  1.40657e+08
       859.40000  3.24243e-06  1.40559e+08
       859.50000  1.36078e-06  5.89492e+07
       859.60000  1.36078e-06  5.89084e+07
       859.70000  1.36078e-06  5.88539e+07
       859.80000  1.36078e-06  5.87859e+07
       859.90000  1.36078e-06  5.87315e+07
       860.00000  1.36078e-06  5.86634e+07
       860.10000  1.36078e-06  5.86498e+07
       860.20000  1.36078e-06  5.86362e+07
       860.30000  1.36078e-06  5.86362e+07
       860.40000  1.36078e-06  5.86362e+07
       860.50000  3.06230e-06  1.31924e+08
       860.60000  3.06230e-06  1.31924e+08
       860.70000  3.06230e-06  1.31924e+08
       860.80000  3.06230e-06  1.31924e+08
       860.90000  3.06230e-06  1.31924e+08
       861.00000  3.06230e-06  1.31924e+08
       861.10000  3.06230e-06  1.31924e+08
       861.20000  3.06230e-06  1.31924e+08
       861.30000  3.07237e-06  1.32358e+08
       861.40000  3.07237e-06  1.32388e+08
       861.50000  4.08173e-06  1.75882e+08
       861.60000  4.08173e-06  1.75882e+08
       861.70000  4.08173e-06  1.75923e+08
       861.80000  4.08173e-06  1.75964e+08
       861.90000  4.08173e-06  1.75964e+08
       862.00000  4.08173e-06  1.76004e+08
       862.10000  4.08173e-06  1.76576e+08
       862.20000  4.08173e-06  1.77066e+08
       862.30000  4.08173e-06  1.77515e+08
       862.40000  4.08173e-06  1.77923e+08
       862.50000  3.93676e-06  1.71918e+08
       862.60000  3.93676e-06  1.72194e+08
       862.70000  3.93676e-06  1.72430e+08
       862.80000  3.93676e-06  1.72627e+08
       862.90000  3.93676e-06  1.72745e+08
       863.00000  3.93676e-06  1.72824e+08
       863.10000  3.93676e-06  1.72863e+08
       863.20000  3.93676e-06  1.72863e+08
       863.30000  3.93676e-06  1.72784e+08
       863.40000  3.93676e-06  1.72666e+08
       863.50000  3.23314e-06  1.41676e+08
       863.60000  3.23314e-06  1.41482e+08
       863.70000  3.23314e-06  1.41256e+08
       863.80000  3.24218e-06  1.41392e+08
       863.90000  3.24218e-06  1.41100e+08
       864.00000  3.24218e-06  1.40743e+08
       864.10000  3.24218e-06  1.40354e+08
       864.20000  3.24218e-06  1.39933e+08
       864.30000  3.24218e-06  1.39446e+08
       864.40000  3.24218e-06  1.38960e+08
       864.50000  1.66324e-06  7.09870e+07
       864.60000  1.66324e-06  7.06876e+07
       864.70000  1.66324e-06  7.03550e+07
       864.80000  1.66324e-06  7.00223e+07
       864.90000  1.66324e-06  6.96398e+07
       865.00000  1.66324e-06  6.92572e+07
       865.10000  1.66324e-06  6.88414e+07
       865.20000  1.66324e-06  6.84090e+07
       865.30000  1.66324e-06  6.79599e+07
       865.40000  1.66324e-06  6.74776e+07
       865.50000  2.63944e-06  1.06290e+08
       865.60000  2.63944e-06  1.05472e+08
       865.70000  2.63944e-06  1.04628e+08
       865.80000  2.63944e-06  1.03730e+08
       865.90000  2.63944e-06  1.02806e+08
       866.00000  2.63944e-06  1.01856e+08
       866.10000  2.63944e-06  1.02226e+08
       866.20000  2.63944e-06  1.02569e+08
       866.30000  2.64725e-06  1.03243e+08
       866.40000  2.64725e-06  1.03587e+08
       866.50000  2.18667e-06  8.58486e+07
       866.60000  2.18667e-06  8.61329e+07
       866.70000  2.18667e-06  8.64171e+07
       866.80000  2.18667e-06  8.67014e+07
       866.90000  2.18667e-06  8.69638e+07
       867.00000  2.18667e-06  8.72262e+07
       867.10000  2.18667e-06  8.74886e+07
       867.20000  2.18667e-06  8.77510e+07
       867.30000  2.18667e-06  8.80134e+07
       867.40000  2.18667e-06  8.82539e+07
       867.50000  4.76897e-06  1.93000e+08
       867.60000  4.76897e-06  1.93525e+08
       867.70000  4.76897e-06  1.94050e+08
       867.80000  4.76897e-06  1.94574e+08
       867.90000  4.76897e-06  1.95051e+08
       868.00000  4.76897e-06  1.95528e+08
       868.10000  4.76897e-06  1.96053e+08
       868.20000  4.76897e-06  1.96577e+08
       868.30000  4.76897e-06  1.97054e+08
       868.40000  4.76897e-06  1.97531e+08
       868.50000  2.14961e-06  8.92519e+07
       868.60000  2.14961e-06  8.94453e+07
       868.70000  2.14961e-06  8.96603e+07
       868.80000  2.15500e-06  9.00573e+07
       868.90000  2.15500e-06  9.02513e+07
       869.00000  2.15500e-06  9.04237e+07
       869.10000  2.15500e-06  9.05961e+07
       869.20000  2.15500e-06  9.07685e+07
       869.30000  2.15500e-06  9.09409e+07
       869.40000  2.15500e-06  9.10917e+07
       869.50000  1.60145e-06  6.78055e+07
       869.60000  1.60145e-06  6.79016e+07
       869.70000  1.60145e-06  6.79977e+07
       869.80000  1.60145e-06  6.80938e+07
       869.90000  1.60145e-06  6.81899e+07
       870.00000  1.60145e-06  6.82860e+07
       870.10000  1.60145e-06  6.83660e+07
       870.20000  1.60145e-06  6.84461e+07
       870.30000  1.60145e-06  6.85102e+07
       870.40000  1.60145e-06  6.85742e+07
       870.50000  4.23299e-07  1.81426e+07
       870.60000  4.23299e-07  1.81595e+07
       870.70000  4.23299e-07  1.81722e+07
       870.80000  4.23299e-07  1.81891e+07
       870.90000  4.23299e-07  1.81976e+07
       871.00000  4.23299e-07  1.82103e+07
       871.10000  4.23299e-07  1.82188e+07
       871.20000  4.23299e-07  1.82272e+07
       871.30000  4.25760e-07  1.83417e+07
       871.40000  4.25760e-07  1.83460e+07
       871.50000  2.95293e-06  1.27271e+08
       871.60000  2.95293e-06  1.27301e+08
       871.70000  2.95293e-06  1.27301e+08
       871.80000  2.95293e-06  1.27330e+08
       871.90000  2.95293e-06  1.27301e+08
       872.00000  2.95293e-06  1.27301e+08
       872.10000  2.95293e-06  1.27212e+08
       872.20000  2.95293e-06  1.27153e+08
       872.30000  2.95293e-06  1.27064e+08
       872.40000  2.95293e-06  1.27005e+08
       872.50000  1.25422e-06  5.39063e+07
       872.60000  1.25422e-06  5.38812e+07
       872.70000  1.25422e-06  5.38561e+07
       872.80000  1.25422e-06  5.38310e+07
       872.90000  1.25422e-06  5.37934e+07
       873.00000  1.25422e-06  5.37683e+07
       873.10000  1.25422e-06  5.37432e+07
       873.20000  1.25422e-06  5.37182e+07
       873.30000  1.25422e-06  5.36931e+07
       873.40000  1.25422e-06  5.36680e+07
       873.50000  2.07179e-07  8.86103e+06
       873.60000  2.07179e-07  8.85688e+06
       873.70000  2.07179e-07  8.85274e+06
       873.80000  2.08273e-07  8.89741e+06
       873.90000  2.08273e-07  8.89325e+06
       874.00000  2.08273e-07  8.88908e+06
       877.00000  3.56343e-06  1.51980e+08
       877.10000  3.56343e-06  1.52087e+08
       877.20000  3.56343e-06  1.52194e+08
       877.30000  3.56343e-06  1.52301e+08
       877.40000  3.56343e-06  1.52444e+08
       877.50000  7.26185e-06  3.10952e+08
       877.60000  7.26185e-06  3.11243e+08
       877.70000  7.26185e-06  3.11533e+08
       877.80000  7.26185e-06  3.11824e+08
       877.90000  7.26185e-06  3.12187e+08
       878.00000  7.26185e-06  3.12550e+08
       878.10000  7.26185e-06  3.12114e+08
       878.20000  7.26185e-06  3.11751e+08
       878.30000  7.26185e-06  3.11388e+08
       878.40000  7.26185e-06  3.11025e+08
       878.50000  2.39663e-06  1.02528e+08
       878.60000  2.39663e-06  1.02432e+08
       878.70000  2.39663e-06  1.02312e+08
       878.80000  2.40739e-06  1.02675e+08
       878.90000  2.40739e-06  1.02579e+08
       879.00000  2.40739e-06  1.02483e+08
       883.00000  1.84433e-06  7.84208e+07
       883.10000  1.84433e-06  7.84577e+07
       883.20000  1.84433e-06  7.84946e+07
       883.30000  1.84433e-06  7.85130e+07
       883.40000  1.84433e-06  7.85315e+07
       883.50000  4.13206e-06  1.75984e+08
       883.60000  4.13206e-06  1.75984e+08
       883.70000  4.13206e-06  1.75984e+08
       883.80000  4.14711e-06  1.76626e+08
       883.90000  4.14711e-06  1.76584e+08
       884.00000  4.14711e-06  1.76543e+08
       886.00000  8.97921e-06  3.75331e+08
       888.00000  1.00217e-05  4.22516e+08
       890.00000  1.04021e-05  4.43544e+08
       890.10000  1.04021e-05  4.43232e+08
       890.20000  1.04021e-05  4.42920e+08
       890.30000  1.04021e-05  4.42608e+08
       890.40000  1.04021e-05  4.42296e+08
       890.50000  1.42584e-05  6.05840e+08
       890.60000  1.42584e-05  6.05412e+08
       890.70000  1.42584e-05  6.04984e+08
       890.80000  1.42584e-05  6.04556e+08
       890.90000  1.42584e-05  6.04129e+08
       891.00000  1.42584e-05  6.03844e+08
       893.00000  4.25792e-06  1.78833e+08
       899.00000  5.63806e-06  2.36122e+08
       899.10000  5.63806e-06  2.35897e+08
       899.20000  5.63806e-06  2.35671e+08
       899.30000  5.63806e-06  2.35446e+08
       899.40000  5.63806e-06  2.35220e+08
       899.50000  3.58396e-05  1.49379e+09
       899.60000  3.58396e-05  1.49200e+09
       899.70000  3.58396e-05  1.49057e+09
       899.80000  3.58396e-05  1.48878e+09
       899.90000  3.58396e-05  1.48698e+09
       900.00000  3.58396e-05  1.48519e+09
       900.10000  3.58396e-05  1.48089e+09
       900.20000  3.58396e-05  1.47731e+09
       900.30000  3.58396e-05  1.47336e+09
       900.40000  3.58396e-05  1.47014e+09
       900.50000  4.13338e-05  1.69179e+09
       900.60000  4.13338e-05  1.68849e+09
       900.70000  4.13338e-05  1.68518e+09
       900.80000  4.13338e-05  1.68270e+09
       900.90000  4.13338e-05  1.68022e+09
       901.00000  4.13338e-05  1.67774e+09
       901.10000  4.13338e-05  1.67609e+09
       901.20000  4.13338e-05  1.67443e+09
       901.30000  4.15022e-05  1.67959e+09
       901.40000  4.15022e-05  1.67876e+09
       901.50000  3.61366e-05  1.46100e+09
       901.60000  3.61366e-05  1.46064e+09
       901.70000  3.61366e-05  1.46028e+09
       901.80000  3.61366e-05  1.46028e+09
       901.90000  3.61366e-05  1.46064e+09
       902.00000  3.61366e-05  1.46136e+09
       902.10000  3.61366e-05  1.46642e+09
       902.20000  3.61366e-05  1.47112e+09
       902.30000  3.61366e-05  1.47582e+09
       902.40000  3.61366e-05  1.48015e+09
       902.50000  3.35728e-05  1.37917e+09
       902.60000  3.35728e-05  1.38286e+09
       902.70000  3.35728e-05  1.38656e+09
       902.80000  3.35728e-05  1.38991e+09
       902.90000  3.35728e-05  1.39327e+09
       903.00000  3.35728e-05  1.39629e+09
       903.10000  3.35728e-05  1.39931e+09
       903.20000  3.35728e-05  1.40200e+09
       903.30000  3.35728e-05  1.40435e+09
       903.40000  3.35728e-05  1.40670e+09
       903.50000  3.42570e-05  1.43742e+09
       903.60000  3.42570e-05  1.43948e+09
       903.70000  3.42570e-05  1.44153e+09
       903.80000  3.44385e-05  1.45055e+09
       903.90000  3.44385e-05  1.45227e+09
       904.00000  3.44385e-05  1.45330e+09
       904.10000  3.44385e-05  1.45434e+09
       904.20000  3.44385e-05  1.45537e+09
       904.30000  3.44385e-05  1.45606e+09
       904.40000  3.44385e-05  1.45640e+09
       904.50000  3.92291e-05  1.65939e+09
       904.60000  3.92291e-05  1.65978e+09
       904.70000  3.92291e-05  1.65978e+09
       904.80000  3.92291e-05  1.65939e+09
       904.90000  3.92291e-05  1.65900e+09
       905.00000  3.92291e-05  1.65821e+09
       905.10000  3.92291e-05  1.65743e+09
       905.20000  3.92291e-05  1.65625e+09
       905.30000  3.92291e-05  1.65508e+09
       905.40000  3.92291e-05  1.65351e+09
       905.50000  3.50825e-05  1.47697e+09
       905.60000  3.50825e-05  1.47522e+09
       905.70000  3.50825e-05  1.47347e+09
       905.80000  3.50825e-05  1.47136e+09
       905.90000  3.50825e-05  1.46891e+09
       906.00000  3.50825e-05  1.46645e+09
       906.10000  3.50825e-05  1.46505e+09
       906.20000  3.50825e-05  1.46399e+09
       906.30000  3.52444e-05  1.46969e+09
       906.40000  3.52444e-05  1.46828e+09
       906.50000  3.92066e-05  1.63217e+09
       906.60000  3.92066e-05  1.63099e+09
       906.70000  3.92066e-05  1.62982e+09
       906.80000  3.92066e-05  1.62864e+09
       906.90000  3.92066e-05  1.62747e+09
       907.00000  3.92066e-05  1.62629e+09
       907.10000  3.92066e-05  1.62511e+09
       907.20000  3.92066e-05  1.62394e+09
       907.30000  3.92066e-05  1.62276e+09
       907.40000  3.92066e-05  1.62158e+09
       907.50000  2.28608e-05  9.44837e+08
       907.60000  2.28608e-05  9.44379e+08
       907.70000  2.28608e-05  9.43694e+08
       907.80000  2.28608e-05  9.43008e+08
       907.90000  2.28608e-05  9.42550e+08
       908.00000  2.28608e-05  9.41865e+08
       908.10000  2.28608e-05  9.40950e+08
       908.20000  2.28608e-05  9.40264e+08
       908.30000  2.28608e-05  9.39350e+08
       908.40000  2.28608e-05  9.38664e+08
       908.50000  2.93329e-05  1.20353e+09
       908.60000  2.93329e-05  1.20265e+09
       908.70000  2.93329e-05  1.20206e+09
       908.80000  2.94338e-05  1.20531e+09
       908.90000  2.94338e-05  1.20473e+09
       909.00000  2.94338e-05  1.20414e+09
       909.10000  2.94338e-05  1.20355e+09
       909.20000  2.94338e-05  1.20296e+09
       909.30000  2.94338e-05  1.20237e+09
       909.40000  2.94338e-05  1.20208e+09
       909.50000  2.33543e-05  9.53556e+08
       909.60000  2.33543e-05  9.53322e+08
       909.70000  2.33543e-05  9.53089e+08
       909.80000  2.33543e-05  9.52855e+08
       909.90000  2.33543e-05  9.52855e+08
       910.00000  2.33543e-05  9.52622e+08
       910.10000  2.33543e-05  9.52622e+08
       910.20000  2.33543e-05  9.52622e+08
       910.30000  2.33543e-05  9.52855e+08
       910.40000  2.33543e-05  9.52855e+08
       910.50000  3.02117e-05  1.23294e+09
       910.60000  3.02117e-05  1.23294e+09
       910.70000  3.02117e-05  1.23324e+09
       910.80000  3.02117e-05  1.23384e+09
       910.90000  3.02117e-05  1.23415e+09
       911.00000  3.02117e-05  1.23445e+09
       911.10000  3.02117e-05  1.23505e+09
       911.20000  3.02117e-05  1.23566e+09
       911.30000  3.02397e-05  1.23741e+09
       911.40000  3.02397e-05  1.23801e+09
       911.50000  2.31492e-05  9.48423e+08
       911.60000  2.31492e-05  9.48887e+08
       911.70000  2.31492e-05  9.49581e+08
       911.80000  2.31492e-05  9.50276e+08
       911.90000  2.31492e-05  9.50970e+08
       912.00000  2.31492e-05  9.51896e+08
       912.10000  2.31492e-05  9.53053e+08
       912.20000  2.31492e-05  9.53979e+08
       912.30000  2.31492e-05  9.54905e+08
       912.40000  2.31492e-05  9.55831e+08
       912.50000  2.19265e-05  9.06224e+08
       912.60000  2.19265e-05  9.07101e+08
       912.70000  2.19265e-05  9.07978e+08
       912.80000  2.19265e-05  9.08636e+08
       912.90000  2.19265e-05  9.09293e+08
       913.00000  2.19265e-05  9.09951e+08
       913.10000  2.19265e-05  9.10609e+08
       913.20000  2.19265e-05  9.11048e+08
       913.30000  2.19265e-05  9.11705e+08
       913.40000  2.19265e-05  9.12144e+08
       913.50000  2.90711e-05  1.20994e+09
       913.60000  2.90711e-05  1.21052e+09
       913.70000  2.90711e-05  1.21081e+09
       913.80000  2.92262e-05  1.21756e+09
       913.90000  2.92262e-05  1.21815e+09
       914.00000  2.92262e-05  1.21844e+09
       914.10000  2.92262e-05  1.21786e+09
       914.20000  2.92262e-05  1.21756e+09
       914.30000  2.92262e-05  1.21727e+09
       914.40000  2.92262e-05  1.21698e+09
       914.50000  3.01137e-05  1.25363e+09
       914.60000  3.01137e-05  1.25303e+09
       914.70000  3.01137e-05  1.25273e+09
       914.80000  3.01137e-05  1.25243e+09
       914.90000  3.01137e-05  1.25213e+09
       915.00000  3.01137e-05  1.25182e+09
       915.10000  3.01137e-05  1.25152e+09
       915.20000  3.01137e-05  1.25122e+09
       915.30000  3.01137e-05  1.25092e+09
       915.40000  3.01137e-05  1.25062e+09
       915.50000  2.03421e-05  8.44603e+08
       915.60000  2.03421e-05  8.44400e+08
       915.70000  2.03421e-05  8.44196e+08
       915.80000  2.03421e-05  8.43993e+08
       915.90000  2.03421e-05  8.43789e+08
       916.00000  2.03421e-05  8.43586e+08
       916.10000  2.03421e-05  8.43382e+08
       916.20000  2.03421e-05  8.43179e+08
       916.30000  2.04872e-05  8.48990e+08
       916.40000  2.04872e-05  8.48785e+08
       916.50000  2.24553e-05  9.30098e+08
       916.60000  2.24553e-05  9.30098e+08
       916.70000  2.24553e-05  9.29873e+08
       916.80000  2.24553e-05  9.29649e+08
       916.90000  2.24553e-05  9.29424e+08
       917.00000  2.24553e-05  9.29200e+08
       917.10000  2.24553e-05  9.29200e+08
       917.20000  2.24553e-05  9.28975e+08
       917.30000  2.24553e-05  9.28750e+08
       917.40000  2.24553e-05  9.28526e+08
       917.50000  2.36066e-05  9.76134e+08
       917.60000  2.36066e-05  9.75897e+08
       917.70000  2.36066e-05  9.75661e+08
       917.80000  2.36066e-05  9.75661e+08
       917.90000  2.36066e-05  9.75425e+08
       918.00000  2.36066e-05  9.75189e+08
       918.10000  2.36066e-05  9.75661e+08
       918.20000  2.36066e-05  9.76134e+08
       918.30000  2.36066e-05  9.76606e+08
       918.40000  2.36066e-05  9.76842e+08
       918.50000  2.35282e-05  9.73831e+08
       918.60000  2.35282e-05  9.74066e+08
       918.70000  2.35282e-05  9.74066e+08
       918.80000  2.37471e-05  9.83129e+08
       918.90000  2.37471e-05  9.83129e+08
       919.00000  2.37471e-05  9.83129e+08
       919.10000  2.37471e-05  9.82892e+08
       919.20000  2.37471e-05  9.82655e+08
       919.30000  2.37471e-05  9.82417e+08
       919.40000  2.37471e-05  9.81942e+08
       919.50000  1.46048e-05  6.03615e+08
       919.60000  1.46048e-05  6.03323e+08
       919.70000  1.46048e-05  6.03031e+08
       919.80000  1.46048e-05  6.02593e+08
       919.90000  1.46048e-05  6.02300e+08
       920.00000  1.46048e-05  6.01862e+08
       920.10000  1.46048e-05  6.00548e+08
       920.20000  1.46048e-05  5.99379e+08
       920.30000  1.46048e-05  5.98211e+08
       920.40000  1.46048e-05  5.97043e+08
       920.50000  2.37008e-05  9.66993e+08
       920.60000  2.37008e-05  9.65334e+08
       920.70000  2.37008e-05  9.63675e+08
       920.80000  2.37008e-05  9.62253e+08
       920.90000  2.37008e-05  9.60594e+08
       921.00000  2.37008e-05  9.59172e+08
       921.10000  2.37008e-05  9.57750e+08
       921.20000  2.37008e-05  9.56565e+08
       921.30000  2.37988e-05  9.59091e+08
       921.40000  2.37988e-05  9.57902e+08
       921.50000  2.09776e-05  8.43300e+08
       921.60000  2.09776e-05  8.42461e+08
       921.70000  2.09776e-05  8.41622e+08
       921.80000  2.09776e-05  8.40782e+08
       921.90000  2.09776e-05  8.39943e+08
       922.00000  2.09776e-05  8.39314e+08
       922.10000  2.09776e-05  8.38475e+08
       922.20000  2.09776e-05  8.38055e+08
       922.30000  2.09776e-05  8.37426e+08
       922.40000  2.09776e-05  8.37006e+08
       922.50000  2.60937e-05  1.04036e+09
       922.60000  2.60937e-05  1.04010e+09
       922.70000  2.60937e-05  1.03957e+09
       922.80000  2.60937e-05  1.03931e+09
       922.90000  2.60937e-05  1.03905e+09
       923.00000  2.60937e-05  1.03879e+09
       923.10000  2.60937e-05  1.03879e+09
       923.20000  2.60937e-05  1.03853e+09
       923.30000  2.60937e-05  1.03853e+09
       923.40000  2.60937e-05  1.03879e+09
       923.50000  2.54838e-05  1.01451e+09
       923.60000  2.54838e-05  1.01476e+09
       923.70000  2.54838e-05  1.01502e+09
       923.80000  2.55415e-05  1.01783e+09
       923.90000  2.55415e-05  1.01809e+09
       924.00000  2.55415e-05  1.01860e+09
       924.10000  2.55415e-05  1.01860e+09
       924.20000  2.55415e-05  1.01860e+09
       924.30000  2.55415e-05  1.01860e+09
       924.40000  2.55415e-05  1.01860e+09
       924.50000  1.99499e-05  7.95601e+08
       924.60000  1.99499e-05  7.95601e+08
       924.70000  1.99499e-05  7.95801e+08
       924.80000  1.99499e-05  7.96000e+08
       924.90000  1.99499e-05  7.96000e+08
       925.00000  1.99499e-05  7.96199e+08
       925.10000  1.99499e-05  7.96599e+08
       925.20000  1.99499e-05  7.96798e+08
       925.30000  1.99499e-05  7.96998e+08
       925.40000  1.99499e-05  7.97397e+08
       925.50000  1.68418e-05  6.73502e+08
       925.60000  1.68418e-05  6.73839e+08
       925.70000  1.68418e-05  6.74175e+08
       925.80000  1.68418e-05  6.74512e+08
       925.90000  1.68418e-05  6.74849e+08
       926.00000  1.68418e-05  6.75354e+08
       926.10000  1.68418e-05  6.76365e+08
       926.20000  1.68418e-05  6.77544e+08
       926.30000  1.69116e-05  6.81369e+08
       926.40000  1.69116e-05  6.82383e+08
       926.50000  1.92429e-05  7.77605e+08
       926.60000  1.92429e-05  7.78567e+08
       926.70000  1.92429e-05  7.79529e+08
       926.80000  1.92429e-05  7.80491e+08
       926.90000  1.92429e-05  7.81453e+08
       927.00000  1.92429e-05  7.82223e+08
       927.10000  1.92429e-05  7.82993e+08
       927.20000  1.92429e-05  7.83762e+08
       927.30000  1.92429e-05  7.84340e+08
       927.40000  1.92429e-05  7.84917e+08
       927.50000  2.15710e-05  8.80530e+08
       927.60000  2.15710e-05  8.80961e+08
       927.70000  2.15710e-05  8.81608e+08
       927.80000  2.15710e-05  8.82040e+08
       927.90000  2.15710e-05  8.82256e+08
       928.00000  2.15710e-05  8.82471e+08
       928.10000  2.15710e-05  8.82040e+08
       928.20000  2.15710e-05  8.81608e+08
       928.30000  2.15710e-05  8.80961e+08
       928.40000  2.15710e-05  8.80530e+08
       928.50000  1.78406e-05  7.27895e+08
       928.60000  1.78406e-05  7.27538e+08
       928.70000  1.78406e-05  7.27181e+08
       928.80000  1.79235e-05  7.30202e+08
       928.90000  1.79235e-05  7.29844e+08
       929.00000  1.79235e-05  7.29664e+08
       929.10000  1.79235e-05  7.29306e+08
       929.20000  1.79235e-05  7.28948e+08
       929.30000  1.79235e-05  7.28768e+08
       929.40000  1.79235e-05  7.28410e+08
       929.50000  2.47166e-05  1.00424e+09
       929.60000  2.47166e-05  1.00399e+09
       929.70000  2.47166e-05  1.00349e+09
       929.80000  2.47166e-05  1.00325e+09
       929.90000  2.47166e-05  1.00300e+09
       930.00000  2.47166e-05  1.00275e+09
       930.10000  2.47166e-05  1.00275e+09
       930.20000  2.47166e-05  1.00275e+09
       930.30000  2.47166e-05  1.00251e+09
       930.40000  2.47166e-05  1.00251e+09
       930.50000  1.86860e-05  7.57905e+08
       930.60000  1.86860e-05  7.57905e+08
       930.70000  1.86860e-05  7.57718e+08
       930.80000  1.86860e-05  7.57718e+08
       930.90000  1.86860e-05  7.57718e+08
       931.00000  1.86860e-05  7.57718e+08
       931.10000  1.86860e-05  7.57718e+08
       931.20000  1.86860e-05  7.57531e+08
       931.30000  1.87702e-05  7.60945e+08
       931.40000  1.87702e-05  7.60945e+08
       931.50000  1.83252e-05  7.42902e+08
       931.60000  1.83252e-05  7.42902e+08
       931.70000  1.83252e-05  7.42902e+08
       931.80000  1.83252e-05  7.42902e+08
       931.90000  1.83252e-05  7.42902e+08
       932.00000  1.83252e-05  7.42902e+08
       932.10000  1.83252e-05  7.42902e+08
       932.20000  1.83252e-05  7.42902e+08
       932.30000  1.83252e-05  7.42902e+08
       932.40000  1.83252e-05  7.42902e+08
       932.50000  1.68057e-05  6.81304e+08
       932.60000  1.68057e-05  6.81304e+08
       932.70000  1.68057e-05  6.81304e+08
       932.80000  1.68057e-05  6.81472e+08
       932.90000  1.68057e-05  6.81472e+08
       933.00000  1.68057e-05  6.81472e+08
       933.10000  1.68057e-05  6.81472e+08
       933.20000  1.68057e-05  6.81472e+08
       933.30000  1.68057e-05  6.81640e+08
       933.40000  1.68057e-05  6.81640e+08
       933.50000  1.71964e-05  6.97488e+08
       933.60000  1.71964e-05  6.97660e+08
       933.70000  1.71964e-05  6.97660e+08
       933.80000  1.72613e-05  7.00290e+08
       933.90000  1.72613e-05  7.00463e+08
       934.00000  1.72613e-05  7.00463e+08
       934.10000  1.72613e-05  6.99945e+08
       934.20000  1.72613e-05  6.99427e+08
       934.30000  1.72613e-05  6.98909e+08
       934.40000  1.72613e-05  6.98392e+08
       934.50000  2.02944e-05  8.20504e+08
       934.60000  2.02944e-05  8.20098e+08
       934.70000  2.02944e-05  8.19692e+08
       934.80000  2.02944e-05  8.19083e+08
       934.90000  2.02944e-05  8.18677e+08
       935.00000  2.02944e-05  8.18474e+08
       935.10000  2.02944e-05  8.18069e+08
       935.20000  2.02944e-05  8.17663e+08
       935.30000  2.02944e-05  8.17460e+08
       935.40000  2.02944e-05  8.17257e+08
       935.50000  2.04448e-05  8.23110e+08
       935.60000  2.04448e-05  8.22905e+08
       935.70000  2.04448e-05  8.22701e+08
       935.80000  2.04448e-05  8.22496e+08
       935.90000  2.04448e-05  8.22496e+08
       936.00000  2.04448e-05  8.22292e+08
       936.10000  2.04448e-05  8.22905e+08
       936.20000  2.04448e-05  8.23518e+08
       936.30000  2.05160e-05  8.26999e+08
       936.40000  2.05160e-05  8.27615e+08
       936.50000  1.77135e-05  7.14919e+08
       936.60000  1.77135e-05  7.15273e+08
       936.70000  1.77135e-05  7.15627e+08
       936.80000  1.77135e-05  7.15981e+08
       936.90000  1.77135e-05  7.16159e+08
       937.00000  1.77135e-05  7.16513e+08
       937.10000  1.77135e-05  7.16690e+08
       937.20000  1.77135e-05  7.16867e+08
       937.30000  1.77135e-05  7.16867e+08
       937.40000  1.77135e-05  7.17044e+08
       937.50000  1.53296e-05  6.20542e+08
       937.60000  1.53296e-05  6.20542e+08
       937.70000  1.53296e-05  6.20542e+08
       937.80000  1.53296e-05  6.20542e+08
       937.90000  1.53296e-05  6.20388e+08
       938.00000  1.53296e-05  6.20388e+08
       938.10000  1.53296e-05  6.20235e+08
       938.20000  1.53296e-05  6.19928e+08
       938.30000  1.53296e-05  6.19775e+08
       938.40000  1.53296e-05  6.19468e+08
       938.50000  2.05827e-05  8.31541e+08
       938.60000  2.05827e-05  8.31129e+08
       938.70000  2.05827e-05  8.30511e+08
       938.80000  2.06404e-05  8.32429e+08
       938.90000  2.06404e-05  8.31810e+08
       939.00000  2.06404e-05  8.31397e+08
       939.10000  2.06404e-05  8.30778e+08
       939.20000  2.06404e-05  8.29952e+08
       939.30000  2.06404e-05  8.29333e+08
       939.40000  2.06404e-05  8.28507e+08
       939.50000  1.63844e-05  6.57015e+08
       939.60000  1.63844e-05  6.56360e+08
       939.70000  1.63844e-05  6.55705e+08
       939.80000  1.63844e-05  6.55049e+08
       939.90000  1.63844e-05  6.54230e+08
       940.00000  1.63844e-05  6.53411e+08
       940.10000  1.63844e-05  6.52264e+08
       940.20000  1.63844e-05  6.51117e+08
       940.30000  1.63844e-05  6.50134e+08
       940.40000  1.63844e-05  6.49151e+08
       940.50000  1.36727e-05  5.40893e+08
       940.60000  1.36727e-05  5.40209e+08
       940.70000  1.36727e-05  5.39526e+08
       940.80000  1.36727e-05  5.38842e+08
       940.90000  1.36727e-05  5.38159e+08
       941.00000  1.36727e-05  5.37612e+08
       941.10000  1.36727e-05  5.37065e+08
       941.20000  1.36727e-05  5.36655e+08
       941.30000  1.36903e-05  5.36935e+08
       941.40000  1.36903e-05  5.36524e+08
       941.50000  1.58463e-05  6.20542e+08
       941.60000  1.58463e-05  6.20225e+08
       941.70000  1.58463e-05  6.19908e+08
       941.80000  1.58463e-05  6.19591e+08
       941.90000  1.58463e-05  6.19274e+08
       942.00000  1.58463e-05  6.19115e+08
       942.10000  1.58463e-05  6.19591e+08
       942.20000  1.58463e-05  6.19908e+08
       942.30000  1.58463e-05  6.20383e+08
       942.40000  1.58463e-05  6.20700e+08
       942.50000  2.00163e-05  7.84439e+08
       942.60000  2.00163e-05  7.85039e+08
       942.70000  2.00163e-05  7.85439e+08
       942.80000  2.00163e-05  7.85840e+08
       942.90000  2.00163e-05  7.86240e+08
       943.00000  2.00163e-05  7.86640e+08
       943.10000  2.00163e-05  7.87241e+08
       943.20000  2.00163e-05  7.87641e+08
       943.30000  2.00163e-05  7.88041e+08
       943.40000  2.00163e-05  7.88442e+08
       943.50000  1.39399e-05  5.49371e+08
       943.60000  1.39399e-05  5.49650e+08
       943.70000  1.39399e-05  5.49929e+08
       943.80000  1.39377e-05  5.50122e+08
       943.90000  1.39377e-05  5.50401e+08
       944.00000  1.39377e-05  5.50680e+08
       944.10000  1.39377e-05  5.50959e+08
       944.20000  1.39377e-05  5.51237e+08
       944.30000  1.39377e-05  5.51377e+08
       944.40000  1.39377e-05  5.51655e+08
       944.50000  1.52173e-05  6.02606e+08
       944.60000  1.52173e-05  6.02910e+08
       944.70000  1.52173e-05  6.03062e+08
       944.80000  1.52173e-05  6.03367e+08
       944.90000  1.52173e-05  6.03671e+08
       945.00000  1.52173e-05  6.03823e+08
       945.10000  1.52173e-05  6.04127e+08
       945.20000  1.52173e-05  6.04432e+08
       945.30000  1.52173e-05  6.04584e+08
       945.40000  1.52173e-05  6.04888e+08
       945.50000  1.27643e-05  5.07510e+08
       945.60000  1.27643e-05  5.07765e+08
       945.70000  1.27643e-05  5.07893e+08
       945.80000  1.27643e-05  5.08148e+08
       945.90000  1.27643e-05  5.08276e+08
       946.00000  1.27643e-05  5.08403e+08
       946.10000  1.27643e-05  5.08659e+08
       946.20000  1.27643e-05  5.08914e+08
       946.30000  1.27681e-05  5.09321e+08
       946.40000  1.27681e-05  5.09576e+08
       946.50000  1.02520e-05  4.09362e+08
       946.60000  1.02520e-05  4.09465e+08
       946.70000  1.02520e-05  4.09670e+08
       946.80000  1.02520e-05  4.09773e+08
       946.90000  1.02520e-05  4.09875e+08
       947.00000  1.02520e-05  4.10080e+08
       947.10000  1.02520e-05  4.10183e+08
       947.20000  1.02520e-05  4.10285e+08
       947.30000  1.02520e-05  4.10388e+08
       947.40000  1.02520e-05  4.10490e+08
       947.50000  2.37617e-05  9.51420e+08
       947.60000  2.37617e-05  9.51657e+08
       947.70000  2.37617e-05  9.51895e+08
       947.80000  2.37617e-05  9.51895e+08
       947.90000  2.37617e-05  9.52132e+08
       948.00000  2.37617e-05  9.52132e+08
       948.10000  2.37617e-05  9.52132e+08
       948.20000  2.37617e-05  9.52132e+08
       948.30000  2.37617e-05  9.51895e+08
       948.40000  2.37617e-05  9.51895e+08
       948.50000  1.53000e-05  6.12766e+08
       948.60000  1.53000e-05  6.12766e+08
       948.70000  1.53000e-05  6.12766e+08
       948.80000  1.53475e-05  6.14515e+08
       948.90000  1.53475e-05  6.14515e+08
       949.00000  1.53475e-05  6.14361e+08
       949.10000  1.53475e-05  6.14361e+08
       949.20000  1.53475e-05  6.14208e+08
       949.30000  1.53475e-05  6.14208e+08
       949.40000  1.53475e-05  6.14054e+08
       949.50000  1.64453e-05  6.57976e+08
       949.60000  1.64453e-05  6.57812e+08
       949.70000  1.64453e-05  6.57647e+08
       949.80000  1.64453e-05  6.57647e+08
       949.90000  1.64453e-05  6.57483e+08
       950.00000  1.64453e-05  6.57318e+08
       950.10000  1.64453e-05  6.57318e+08
       950.20000  1.64453e-05  6.57154e+08
       950.30000  1.64453e-05  6.56989e+08
       950.40000  1.64453e-05  6.56989e+08
       950.50000  1.36192e-05  5.43953e+08
       950.60000  1.36192e-05  5.43816e+08
       950.70000  1.36192e-05  5.43680e+08
       950.80000  1.36192e-05  5.43680e+08
       950.90000  1.36192e-05  5.43544e+08
       951.00000  1.36192e-05  5.43408e+08
       951.10000  1.36192e-05  5.43272e+08
       951.20000  1.36192e-05  5.43135e+08
       951.30000  1.36063e-05  5.42617e+08
       951.40000  1.36063e-05  5.42481e+08
       951.50000  7.92465e-06  3.15877e+08
       951.60000  7.92465e-06  3.15797e+08
       951.70000  7.92465e-06  3.15718e+08
       951.80000  7.92465e-06  3.15639e+08
       951.90000  7.92465e-06  3.15560e+08
       952.00000  7.92465e-06  3.15480e+08
       952.10000  7.92465e-06  3.14846e+08
       952.20000  7.92465e-06  3.14212e+08
       952.30000  7.92465e-06  3.13658e+08
       952.40000  7.92465e-06  3.13103e+08
       952.50000  1.74407e-05  6.87863e+08
       952.60000  1.74407e-05  6.86642e+08
       952.70000  1.74407e-05  6.85595e+08
       952.80000  1.74407e-05  6.84549e+08
       952.90000  1.74407e-05  6.83503e+08
       953.00000  1.74407e-05  6.82630e+08
       953.10000  1.74407e-05  6.81758e+08
       953.20000  1.74407e-05  6.80886e+08
       953.30000  1.74407e-05  6.80189e+08
       953.40000  1.74407e-05  6.79317e+08
       953.50000  1.56892e-05  6.10468e+08
       953.60000  1.56892e-05  6.09997e+08
       953.70000  1.56892e-05  6.09369e+08
       953.80000  1.57227e-05  6.10198e+08
       953.90000  1.57227e-05  6.09726e+08
       954.00000  1.57227e-05  6.09411e+08
       954.10000  1.57227e-05  6.09254e+08
       954.20000  1.57227e-05  6.09097e+08
       954.30000  1.57227e-05  6.09097e+08
       954.40000  1.57227e-05  6.09097e+08
       954.50000  1.16356e-05  4.50648e+08
       954.60000  1.16356e-05  4.50648e+08
       954.70000  1.16356e-05  4.50648e+08
       954.80000  1.16356e-05  4.50648e+08
       954.90000  1.16356e-05  4.50764e+08
       955.00000  1.16356e-05  4.50764e+08
       955.10000  1.16356e-05  4.50880e+08
       955.20000  1.16356e-05  4.50880e+08
       955.30000  1.16356e-05  4.50997e+08
       955.40000  1.16356e-05  4.51113e+08
       955.50000  9.02324e-06  3.49921e+08
       955.60000  9.02324e-06  3.50011e+08
       955.70000  9.02324e-06  3.50102e+08
       955.80000  9.02324e-06  3.50282e+08
       955.90000  9.02324e-06  3.50372e+08
       956.00000  9.02324e-06  3.50553e+08
       956.10000  9.02324e-06  3.50733e+08
       956.20000  9.02324e-06  3.50823e+08
       956.30000  9.05387e-06  3.52196e+08
       956.40000  9.05387e-06  3.52467e+08
       956.50000  1.12940e-05  4.39900e+08
       956.60000  1.12940e-05  4.40126e+08
       956.70000  1.12940e-05  4.40465e+08
       956.80000  1.12940e-05  4.40691e+08
       956.90000  1.12940e-05  4.41030e+08
       957.00000  1.12940e-05  4.41369e+08
       957.10000  1.12940e-05  4.41707e+08
       957.20000  1.12940e-05  4.42046e+08
       957.30000  1.12940e-05  4.42498e+08
       957.40000  1.12940e-05  4.42837e+08
       957.50000  1.11919e-05  4.39171e+08
       957.60000  1.11919e-05  4.39619e+08
       957.70000  1.11919e-05  4.40066e+08
       957.80000  1.11919e-05  4.40514e+08
       957.90000  1.11919e-05  4.40962e+08
       958.00000  1.11919e-05  4.41409e+08
       958.10000  1.11919e-05  4.41409e+08
       958.20000  1.11919e-05  4.41297e+08
       958.30000  1.11919e-05  4.41297e+08
       958.40000  1.11919e-05  4.41297e+08
       958.50000  1.01612e-05  4.00658e+08
       958.60000  1.01612e-05  4.00556e+08
       958.70000  1.01612e-05  4.00556e+08
       958.80000  1.01717e-05  4.00970e+08
       958.90000  1.01717e-05  4.00868e+08
       959.00000  1.01717e-05  4.00868e+08
       959.10000  1.01717e-05  4.00766e+08
       959.20000  1.01717e-05  4.00766e+08
       959.30000  1.01717e-05  4.00665e+08
       959.40000  1.01717e-05  4.00563e+08
       959.50000  8.83918e-06  3.48087e+08
       959.60000  8.83918e-06  3.47998e+08
       959.70000  8.83918e-06  3.47998e+08
       959.80000  8.83918e-06  3.47910e+08
       959.90000  8.83918e-06  3.47822e+08
       960.00000  8.83918e-06  3.47733e+08
       960.10000  8.83918e-06  3.47645e+08
       960.20000  8.83918e-06  3.47556e+08
       960.30000  8.83918e-06  3.47468e+08
       960.40000  8.83918e-06  3.47380e+08
       960.50000  1.36772e-05  5.37378e+08
       960.60000  1.36772e-05  5.37241e+08
       960.70000  1.36772e-05  5.37104e+08
       960.80000  1.36772e-05  5.36967e+08
       960.90000  1.36772e-05  5.36830e+08
       961.00000  1.36772e-05  5.36694e+08
       961.10000  1.36772e-05  5.36557e+08
       961.20000  1.36772e-05  5.36420e+08
       961.30000  1.37040e-05  5.37336e+08
       961.40000  1.37040e-05  5.37199e+08
       961.50000  1.35165e-05  5.29713e+08
       961.60000  1.35165e-05  5.29443e+08
       961.70000  1.35165e-05  5.29308e+08
       961.80000  1.35165e-05  5.29172e+08
       961.90000  1.35165e-05  5.29037e+08
       962.00000  1.35165e-05  5.28902e+08
       962.10000  1.35165e-05  5.28632e+08
       962.20000  1.35165e-05  5.28497e+08
       962.30000  1.35165e-05  5.28361e+08
       962.40000  1.35165e-05  5.28091e+08
       962.50000  1.25264e-05  4.89283e+08
       962.60000  1.25264e-05  4.89157e+08
       962.70000  1.25264e-05  4.88907e+08
       962.80000  1.25264e-05  4.88782e+08
       962.90000  1.25264e-05  4.88531e+08
       963.00000  1.25264e-05  4.88406e+08
       963.10000  1.25264e-05  4.88281e+08
       963.20000  1.25264e-05  4.88030e+08
       963.30000  1.25264e-05  4.87905e+08
       963.40000  1.25264e-05  4.87654e+08
       963.50000  1.34123e-05  5.22006e+08
       963.60000  1.34123e-05  5.21738e+08
       963.70000  1.34123e-05  5.21604e+08
       963.80000  1.34406e-05  5.22437e+08
       963.90000  1.34406e-05  5.22168e+08
       964.00000  1.34406e-05  5.22033e+08
       964.10000  1.34406e-05  5.21765e+08
       964.20000  1.34406e-05  5.21361e+08
       964.30000  1.34406e-05  5.21093e+08
       964.40000  1.34406e-05  5.20958e+08
       964.50000  1.52703e-05  5.91573e+08
       964.60000  1.52703e-05  5.91267e+08
       964.70000  1.52703e-05  5.91115e+08
       964.80000  1.52703e-05  5.90809e+08
       964.90000  1.52703e-05  5.90657e+08
       965.00000  1.52703e-05  5.90351e+08
       965.10000  1.52703e-05  5.90199e+08
       965.20000  1.52703e-05  5.90046e+08
       965.30000  1.52703e-05  5.89893e+08
       965.40000  1.52703e-05  5.89893e+08
       965.50000  1.20676e-05  4.66051e+08
       965.60000  1.20676e-05  4.65930e+08
       965.70000  1.20676e-05  4.65930e+08
       965.80000  1.20676e-05  4.65809e+08
       965.90000  1.20676e-05  4.65809e+08
       966.00000  1.20676e-05  4.65809e+08
       966.10000  1.20676e-05  4.65930e+08
       966.20000  1.20676e-05  4.66051e+08
       966.30000  1.21072e-05  4.67821e+08
       966.40000  1.21072e-05  4.67942e+08
       966.50000  1.31345e-05  5.07779e+08
       966.60000  1.31345e-05  5.07910e+08
       966.70000  1.31345e-05  5.08042e+08
       966.80000  1.31345e-05  5.08173e+08
       966.90000  1.31345e-05  5.08304e+08
       967.00000  1.31345e-05  5.08436e+08
       967.10000  1.31345e-05  5.08567e+08
       967.20000  1.31345e-05  5.08698e+08
       967.30000  1.31345e-05  5.08830e+08
       967.40000  1.31345e-05  5.08961e+08
       967.50000  1.08953e-05  4.22194e+08
       967.60000  1.08953e-05  4.22303e+08
       967.70000  1.08953e-05  4.22412e+08
       967.80000  1.08953e-05  4.22412e+08
       967.90000  1.08953e-05  4.22521e+08
       968.00000  1.08953e-05  4.22630e+08
       968.10000  1.08953e-05  4.22630e+08
       968.20000  1.08953e-05  4.22739e+08
       968.30000  1.08953e-05  4.22739e+08
       968.40000  1.08953e-05  4.22739e+08
       968.50000  9.03512e-06  3.50653e+08
       968.60000  9.03512e-06  3.50653e+08
       968.70000  9.03512e-06  3.50653e+08
       968.80000  9.05646e-06  3.51572e+08
       968.90000  9.05646e-06  3.51572e+08
       969.00000  9.05646e-06  3.51572e+08
       969.10000  9.05646e-06  3.51572e+08
       969.20000  9.05646e-06  3.51572e+08
       969.30000  9.05646e-06  3.51572e+08
       969.40000  9.05646e-06  3.51572e+08
       969.50000  1.08718e-05  4.22045e+08
       969.60000  1.08718e-05  4.22045e+08
       969.70000  1.08718e-05  4.22045e+08
       969.80000  1.08718e-05  4.22045e+08
       969.90000  1.08718e-05  4.22045e+08
       970.00000  1.08718e-05  4.22045e+08
       970.10000  1.08718e-05  4.22153e+08
       970.20000  1.08718e-05  4.22262e+08
       970.30000  1.08718e-05  4.22262e+08
       970.40000  1.08718e-05  4.22371e+08
       970.50000  1.13905e-05  4.42520e+08
       970.60000  1.13905e-05  4.42634e+08
       970.70000  1.13905e-05  4.42634e+08
       970.80000  1.13905e-05  4.42634e+08
       970.90000  1.13905e-05  4.42634e+08
       971.00000  1.13905e-05  4.42634e+08
       971.10000  1.13905e-05  4.42634e+08
       971.20000  1.13905e-05  4.42520e+08
       971.30000  1.14089e-05  4.43237e+08
       971.40000  1.14089e-05  4.43123e+08
       971.50000  1.26542e-05  4.91491e+08
       971.60000  1.26542e-05  4.91364e+08
       971.70000  1.26542e-05  4.91238e+08
       971.80000  1.26542e-05  4.91111e+08
       971.90000  1.26542e-05  4.90985e+08
       972.00000  1.26542e-05  4.90732e+08
       972.10000  1.26542e-05  4.90226e+08
       972.20000  1.26542e-05  4.89719e+08
       972.30000  1.26542e-05  4.89340e+08
       972.40000  1.26542e-05  4.88834e+08
       972.50000  9.58795e-06  3.70095e+08
       972.60000  9.58795e-06  3.69711e+08
       972.70000  9.58795e-06  3.69424e+08
       972.80000  9.58795e-06  3.69136e+08
       972.90000  9.58795e-06  3.68848e+08
       973.00000  9.58795e-06  3.68657e+08
       973.10000  9.58795e-06  3.68369e+08
       973.20000  9.58795e-06  3.68177e+08
       973.30000  9.58795e-06  3.67985e+08
       973.40000  9.58795e-06  3.67794e+08
       973.50000  1.10059e-05  4.21966e+08
       973.60000  1.10059e-05  4.21746e+08
       973.70000  1.10059e-05  4.21636e+08
       973.80000  1.10119e-05  4.21644e+08
       973.90000  1.10119e-05  4.21534e+08
       974.00000  1.10119e-05  4.21424e+08
       974.10000  1.10119e-05  4.21534e+08
       974.20000  1.10119e-05  4.21754e+08
       974.30000  1.10119e-05  4.21864e+08
       974.40000  1.10119e-05  4.21974e+08
       974.50000  1.25701e-05  4.81811e+08
       974.60000  1.25701e-05  4.81937e+08
       974.70000  1.25701e-05  4.82063e+08
       974.80000  1.25701e-05  4.82188e+08
       974.90000  1.25701e-05  4.82188e+08
       975.00000  1.25701e-05  4.82314e+08
       975.10000  1.25701e-05  4.82440e+08
       975.20000  1.25701e-05  4.82440e+08
       975.30000  1.25701e-05  4.82565e+08
       975.40000  1.25701e-05  4.82565e+08
       975.50000  1.17915e-05  4.52675e+08
       975.60000  1.17915e-05  4.52793e+08
       975.70000  1.17915e-05  4.52793e+08
       975.80000  1.17915e-05  4.52793e+08
       975.90000  1.17915e-05  4.52793e+08
       976.00000  1.17915e-05  4.52793e+08
       976.10000  1.17915e-05  4.52675e+08
       976.20000  1.17915e-05  4.52557e+08
       976.30000  1.17836e-05  4.52135e+08
       976.40000  1.17836e-05  4.52017e+08
       976.50000  9.65100e-06  3.70212e+08
       976.60000  9.65100e-06  3.70116e+08
       976.70000  9.65100e-06  3.70019e+08
       976.80000  9.65100e-06  3.69923e+08
       976.90000  9.65100e-06  3.69923e+08
       977.00000  9.65100e-06  3.69826e+08
       977.10000  9.65100e-06  3.69730e+08
       977.20000  9.65100e-06  3.69633e+08
       977.30000  9.65100e-06  3.69633e+08
       977.40000  9.65100e-06  3.69537e+08
       977.50000  1.41337e-05  5.41038e+08
       977.60000  1.41337e-05  5.41038e+08
       977.70000  1.41337e-05  5.40897e+08
       977.80000  1.41337e-05  5.40756e+08
       977.90000  1.41337e-05  5.40756e+08
       978.00000  1.41337e-05  5.40615e+08
       978.10000  1.41337e-05  5.40615e+08
       978.20000  1.41337e-05  5.40473e+08
       978.30000  1.41337e-05  5.40473e+08
       978.40000  1.41337e-05  5.40332e+08
       978.50000  9.88786e-06  3.77914e+08
       978.60000  9.88786e-06  3.77914e+08
       978.70000  9.88786e-06  3.77914e+08
       978.80000  9.88623e-06  3.77753e+08
       978.90000  9.88623e-06  3.77753e+08
       979.00000  9.88623e-06  3.77654e+08
       979.10000  9.88623e-06  3.77654e+08
       979.20000  9.88623e-06  3.77555e+08
       979.30000  9.88623e-06  3.77555e+08
       979.40000  9.88623e-06  3.77555e+08
       979.50000  6.78704e-06  2.59129e+08
       979.60000  6.78704e-06  2.59129e+08
       979.70000  6.78704e-06  2.59129e+08
       979.80000  6.78704e-06  2.59061e+08
       979.90000  6.78704e-06  2.59061e+08
       980.00000  6.78704e-06  2.59061e+08
       980.10000  6.78704e-06  2.59197e+08
       980.20000  6.78704e-06  2.59265e+08
       980.30000  6.78704e-06  2.59401e+08
       980.40000  6.78704e-06  2.59469e+08
       980.50000  8.80614e-06  3.36835e+08
       980.60000  8.80614e-06  3.36923e+08
       980.70000  8.80614e-06  3.37011e+08
       980.80000  8.80614e-06  3.37099e+08
       980.90000  8.80614e-06  3.37187e+08
       981.00000  8.80614e-06  3.37275e+08
       981.10000  8.80614e-06  3.37363e+08
       981.20000  8.80614e-06  3.37451e+08
       981.30000  8.85339e-06  3.39262e+08
       981.40000  8.85339e-06  3.39350e+08
       981.50000  9.31726e-06  3.57130e+08
       981.60000  9.31726e-06  3.57130e+08
       981.70000  9.31726e-06  3.57224e+08
       981.80000  9.31726e-06  3.57224e+08
       981.90000  9.31726e-06  3.57224e+08
       982.00000  9.31726e-06  3.57130e+08
       982.10000  9.31726e-06  3.57037e+08
       982.20000  9.31726e-06  3.56851e+08
       982.30000  9.31726e-06  3.56758e+08
       982.40000  9.31726e-06  3.56571e+08
       982.50000  8.44086e-06  3.22947e+08
       982.60000  8.44086e-06  3.22778e+08
       982.70000  8.44086e-06  3.22694e+08
       982.80000  8.44086e-06  3.22610e+08
       982.90000  8.44086e-06  3.22441e+08
       983.00000  8.44086e-06  3.22356e+08
       983.10000  8.44086e-06  3.22272e+08
       983.20000  8.44086e-06  3.22187e+08
       983.30000  8.44086e-06  3.22103e+08
       983.40000  8.44086e-06  3.21934e+08
       983.50000  8.60893e-06  3.28259e+08
       983.60000  8.60893e-06  3.28173e+08
       983.70000  8.60893e-06  3.28086e+08
       983.80000  8.61566e-06  3.28257e+08
       983.90000  8.61566e-06  3.28171e+08
       984.00000  8.61566e-06  3.28084e+08
       984.10000  8.61566e-06  3.28084e+08
       984.20000  8.61566e-06  3.27998e+08
       984.30000  8.61566e-06  3.27912e+08
       984.40000  8.61566e-06  3.27826e+08
       984.50000  1.05753e-05  4.02391e+08
       984.60000  1.05753e-05  4.02285e+08
       984.70000  1.05753e-05  4.02179e+08
       984.80000  1.05753e-05  4.02179e+08
       984.90000  1.05753e-05  4.02073e+08
       985.00000  1.05753e-05  4.01968e+08
       985.10000  1.05753e-05  4.01968e+08
       985.20000  1.05753e-05  4.01862e+08
       985.30000  1.05753e-05  4.01862e+08
       985.40000  1.05753e-05  4.01862e+08
       985.50000  9.22730e-06  3.50545e+08
       985.60000  9.22730e-06  3.50545e+08
       985.70000  9.22730e-06  3.50545e+08
       985.80000  9.22730e-06  3.50453e+08
       985.90000  9.22730e-06  3.50453e+08
       986.00000  9.22730e-06  3.50453e+08
       986.10000  9.22730e-06  3.50361e+08
       986.20000  9.22730e-06  3.50361e+08
       986.30000  9.17444e-06  3.48354e+08
       986.40000  9.17444e-06  3.48262e+08
       986.50000  6.95075e-06  2.63781e+08
       986.60000  6.95075e-06  2.63781e+08
       986.70000  6.95075e-06  2.63711e+08
       986.80000  6.95075e-06  2.63711e+08
       986.90000  6.95075e-06  2.63642e+08
       987.00000  6.95075e-06  2.63572e+08
       987.10000  6.95075e-06  2.63503e+08
       987.20000  6.95075e-06  2.63503e+08
       987.30000  6.95075e-06  2.63433e+08
       987.40000  6.95075e-06  2.63364e+08
       987.50000  6.62876e-06  2.51098e+08
       987.60000  6.62876e-06  2.51031e+08
       987.70000  6.62876e-06  2.50965e+08
       987.80000  6.62876e-06  2.50899e+08
       987.90000  6.62876e-06  2.50832e+08
       988.00000  6.62876e-06  2.50766e+08
       988.10000  6.62876e-06  2.50567e+08
       988.20000  6.62876e-06  2.50435e+08
       988.30000  6.62876e-06  2.50236e+08
       988.40000  6.62876e-06  2.50103e+08
       988.50000  1.02873e-05  3.87935e+08
       988.60000  1.02873e-05  3.87729e+08
       988.70000  1.02873e-05  3.87523e+08
       988.80000  1.03157e-05  3.88387e+08
       988.90000  1.03157e-05  3.88181e+08
       989.00000  1.03157e-05  3.88077e+08
       989.10000  1.03157e-05  3.87974e+08
       989.20000  1.03157e-05  3.87768e+08
       989.30000  1.03157e-05  3.87665e+08
       989.40000  1.03157e-05  3.87562e+08
       989.50000  9.49000e-06  3.56445e+08
       989.60000  9.49000e-06  3.56350e+08
       989.70000  9.49000e-06  3.56350e+08
       989.80000  9.49000e-06  3.56255e+08
       989.90000  9.49000e-06  3.56255e+08
       990.00000  9.49000e-06  3.56255e+08
       990.10000  9.49000e-06  3.56160e+08
       990.20000  9.49000e-06  3.56160e+08
       990.30000  9.49000e-06  3.56255e+08
       990.40000  9.49000e-06  3.56255e+08
       990.50000  7.61875e-06  2.86008e+08
       990.60000  7.61875e-06  2.86084e+08
       990.70000  7.61875e-06  2.86084e+08
       990.80000  7.61875e-06  2.86160e+08
       990.90000  7.61875e-06  2.86236e+08
       991.00000  7.61875e-06  2.86313e+08
       991.10000  7.61875e-06  2.86389e+08
       991.20000  7.61875e-06  2.86465e+08
       991.30000  7.63490e-06  2.87148e+08
       991.40000  7.63490e-06  2.87301e+08
       991.50000  9.17637e-06  3.45399e+08
       991.60000  9.17637e-06  3.45582e+08
       991.70000  9.17637e-06  3.45766e+08
       991.80000  9.17637e-06  3.45949e+08
       991.90000  9.17637e-06  3.46133e+08
       992.00000  9.17637e-06  3.46316e+08
       992.10000  9.17637e-06  3.46408e+08
       992.20000  9.17637e-06  3.46408e+08
       992.30000  9.17637e-06  3.46408e+08
       992.40000  9.17637e-06  3.46408e+08
       992.50000  3.93669e-06  1.48650e+08
       992.60000  3.93669e-06  1.48650e+08
       992.70000  3.93669e-06  1.48650e+08
       992.80000  3.93669e-06  1.48650e+08
       992.90000  3.93669e-06  1.48650e+08
       993.00000  3.93669e-06  1.48689e+08
       993.10000  3.93669e-06  1.48689e+08
       993.20000  3.93669e-06  1.48689e+08
       993.30000  3.93669e-06  1.48689e+08
       993.40000  3.93669e-06  1.48689e+08
       993.50000  7.08962e-06  2.67775e+08
       993.60000  7.08962e-06  2.67775e+08
       993.70000  7.08962e-06  2.67775e+08
       993.80000  7.09358e-06  2.67925e+08
       993.90000  7.09358e-06  2.67854e+08
       994.00000  7.09358e-06  2.67854e+08
       994.10000  7.09358e-06  2.67854e+08
       994.20000  7.09358e-06  2.67783e+08
       994.30000  7.09358e-06  2.67783e+08
       994.40000  7.09358e-06  2.67712e+08
       994.50000  8.53517e-06  3.22117e+08
       994.60000  8.53517e-06  3.22032e+08
       994.70000  8.53517e-06  3.22032e+08
       994.80000  8.53517e-06  3.21947e+08
       994.90000  8.53517e-06  3.21947e+08
       995.00000  8.53517e-06  3.21861e+08
       995.10000  8.53517e-06  3.21861e+08
       995.20000  8.53517e-06  3.21861e+08
       995.30000  8.53517e-06  3.21776e+08
       995.40000  8.53517e-06  3.21776e+08
       995.50000  6.91394e-06  2.60656e+08
       995.60000  6.91394e-06  2.60586e+08
       995.70000  6.91394e-06  2.60586e+08
       995.80000  6.91394e-06  2.60586e+08
       995.90000  6.91394e-06  2.60586e+08
       996.00000  6.91394e-06  2.60517e+08
       996.10000  6.91394e-06  2.60586e+08
       996.20000  6.91394e-06  2.60586e+08
       996.30000  6.92201e-06  2.60890e+08
       996.40000  6.92201e-06  2.60890e+08
       996.50000  7.91132e-06  2.98178e+08
       996.60000  7.91132e-06  2.98178e+08
       996.70000  7.91132e-06  2.98178e+08
       996.80000  7.91132e-06  2.98178e+08
       996.90000  7.91132e-06  2.98178e+08
       997.00000  7.91132e-06  2.98178e+08
       997.10000  7.91132e-06  2.98178e+08
       997.20000  7.91132e-06  2.98178e+08
       997.30000  7.91132e-06  2.98178e+08
       997.40000  7.91132e-06  2.98178e+08
       997.50000  6.78432e-06  2.55701e+08
       997.60000  6.78432e-06  2.55701e+08
       997.70000  6.78432e-06  2.55701e+08
       997.80000  6.78432e-06  2.55701e+08
       997.90000  6.78432e-06  2.55701e+08
       998.00000  6.78432e-06  2.55633e+08
       998.10000  6.78432e-06  2.55633e+08
       998.20000  6.78432e-06  2.55565e+08
       998.30000  6.78432e-06  2.55565e+08
       998.40000  6.78432e-06  2.55497e+08
       998.50000  5.18234e-06  1.95115e+08
       998.60000  5.18234e-06  1.95115e+08
       998.70000  5.18234e-06  1.95063e+08
       998.80000  5.22485e-06  1.96663e+08
       998.90000  5.22485e-06  1.96663e+08
       999.00000  5.22485e-06  1.96611e+08
       999.10000  5.22485e-06  1.96611e+08
       999.20000  5.22485e-06  1.96559e+08
       999.30000  5.22485e-06  1.96559e+08
       999.40000  5.22485e-06  1.96559e+08
       999.50000  6.14378e-06  2.31068e+08
       999.60000  6.14378e-06  2.31068e+08
       999.70000  6.14378e-06  2.31068e+08
       999.80000  6.14378e-06  2.31068e+08
       999.90000  6.14378e-06  2.31068e+08
       1000.0000  6.14378e-06  2.31006e+08
       1000.1000  6.14378e-06  2.31006e+08
       1000.2000  6.14378e-06  2.31006e+08
       1000.3000  6.14378e-06  2.31006e+08
       1000.4000  6.14378e-06  2.31006e+08
       1000.5000  5.04683e-06  1.89761e+08
       1000.6000  5.04683e-06  1.89761e+08
       1000.7000  5.04683e-06  1.89761e+08
       1000.8000  5.04683e-06  1.89761e+08
       1000.9000  5.04683e-06  1.89761e+08
       1001.0000  5.04683e-06  1.89761e+08
       1001.1000  5.04683e-06  1.89761e+08
       1001.2000  5.04683e-06  1.89811e+08
       1001.3000  4.98767e-06  1.87586e+08
       1001.4000  4.98767e-06  1.87586e+08
       1001.5000  6.00531e-06  2.25860e+08
       1001.6000  6.00531e-06  2.25860e+08
       1001.7000  6.00531e-06  2.25920e+08
       1001.8000  6.00531e-06  2.25920e+08
       1001.9000  6.00531e-06  2.25920e+08
       1002.0000  6.00531e-06  2.25980e+08
       1002.1000  6.00531e-06  2.25619e+08
       1002.2000  6.00531e-06  2.25259e+08
       1002.3000  6.00531e-06  2.24959e+08
       1002.4000  6.00531e-06  2.24599e+08
       1002.5000  6.62845e-06  2.47573e+08
       1002.6000  6.62845e-06  2.47175e+08
       1002.7000  6.62845e-06  2.46843e+08
       1002.8000  6.62845e-06  2.46512e+08
       1002.9000  6.62845e-06  2.46181e+08
       1003.0000  6.62845e-06  2.45849e+08
       1003.1000  6.62845e-06  2.45518e+08
       1003.2000  6.62845e-06  2.45186e+08
       1003.3000  6.62845e-06  2.44921e+08
       1003.4000  6.62845e-06  2.44590e+08
       1003.5000  6.97921e-06  2.57254e+08
       1003.6000  6.97921e-06  2.56975e+08
       1003.7000  6.97921e-06  2.56626e+08
       1003.8000  6.97735e-06  2.56278e+08
       1003.9000  6.97735e-06  2.55999e+08
       1004.0000  6.97735e-06  2.55720e+08
       1004.1000  6.97735e-06  2.55301e+08
       1004.2000  6.97735e-06  2.54813e+08
       1004.3000  6.97735e-06  2.54464e+08
       1004.4000  6.97735e-06  2.54045e+08
       1004.5000  4.97590e-06  1.80924e+08
       1004.6000  4.97590e-06  1.80675e+08
       1004.7000  4.97590e-06  1.80476e+08
       1004.8000  4.97590e-06  1.80277e+08
       1004.9000  4.97590e-06  1.80128e+08
       1005.0000  4.97590e-06  1.79978e+08
       1005.1000  4.97590e-06  1.79829e+08
       1005.2000  4.97590e-06  1.79729e+08
       1005.3000  4.97590e-06  1.79630e+08
       1005.4000  4.97590e-06  1.79580e+08
       1005.5000  5.51789e-06  1.99085e+08
       1005.6000  5.51789e-06  1.99030e+08
       1005.7000  5.51789e-06  1.99030e+08
       1005.8000  5.51789e-06  1.99085e+08
       1005.9000  5.51789e-06  1.99085e+08
       1006.0000  5.51789e-06  1.99140e+08
       1006.1000  5.51789e-06  1.99251e+08
       1006.2000  5.51789e-06  1.99361e+08
       1006.3000  5.50642e-06  1.99057e+08
       1006.4000  5.50642e-06  1.99222e+08
       1006.5000  4.19874e-06  1.52036e+08
       1006.6000  4.19874e-06  1.52204e+08
       1006.7000  4.19874e-06  1.52372e+08
       1006.8000  4.19874e-06  1.52540e+08
       1006.9000  4.19874e-06  1.52750e+08
       1007.0000  4.19874e-06  1.52960e+08
       1007.1000  4.19874e-06  1.53212e+08
       1007.2000  4.19874e-06  1.53464e+08
       1007.3000  4.19874e-06  1.53716e+08
       1007.4000  4.19874e-06  1.54010e+08
       1007.5000  4.29384e-06  1.57799e+08
       1007.6000  4.29384e-06  1.58142e+08
       1007.7000  4.29384e-06  1.58486e+08
       1007.8000  4.29384e-06  1.58829e+08
       1007.9000  4.29384e-06  1.59216e+08
       1008.0000  4.29384e-06  1.59602e+08
       1008.1000  4.29384e-06  1.59645e+08
       1008.2000  4.29384e-06  1.59645e+08
       1008.3000  4.29384e-06  1.59645e+08
       1008.4000  4.29384e-06  1.59645e+08
       1008.5000  4.42744e-06  1.64612e+08
       1008.6000  4.42744e-06  1.64612e+08
       1008.7000  4.42744e-06  1.64612e+08
       1008.8000  4.41814e-06  1.64267e+08
       1008.9000  4.41814e-06  1.64267e+08
       1009.0000  4.41814e-06  1.64222e+08
       1009.1000  4.41814e-06  1.64222e+08
       1009.2000  4.41814e-06  1.64222e+08
       1009.3000  4.41814e-06  1.64222e+08
       1009.4000  4.41814e-06  1.64178e+08
       1009.5000  5.51741e-06  2.05027e+08
       1009.6000  5.51741e-06  2.05027e+08
       1009.7000  5.51741e-06  2.04972e+08
       1009.8000  5.51741e-06  2.04972e+08
       1009.9000  5.51741e-06  2.04917e+08
       1010.0000  5.51741e-06  2.04917e+08
       1010.1000  5.51741e-06  2.04862e+08
       1010.2000  5.51741e-06  2.04806e+08
       1010.3000  5.51741e-06  2.04751e+08
       1010.4000  5.51741e-06  2.04696e+08
       1010.5000  5.70395e-06  2.11559e+08
       1010.6000  5.70395e-06  2.11502e+08
       1010.7000  5.70395e-06  2.11445e+08
       1010.8000  5.70395e-06  2.11388e+08
       1010.9000  5.70395e-06  2.11331e+08
       1011.0000  5.70395e-06  2.11274e+08
       1011.1000  5.70395e-06  2.11274e+08
       1011.2000  5.70395e-06  2.11217e+08
       1011.3000  5.68868e-06  2.10595e+08
       1011.4000  5.68868e-06  2.10538e+08
       1011.5000  5.06352e-06  1.87350e+08
       1011.6000  5.06352e-06  1.87299e+08
       1011.7000  5.06352e-06  1.87249e+08
       1011.8000  5.06352e-06  1.87198e+08
       1011.9000  5.06352e-06  1.87148e+08
       1012.0000  5.06352e-06  1.87097e+08
       1012.1000  5.06352e-06  1.87046e+08
       1012.2000  5.06352e-06  1.86996e+08
       1012.3000  5.06352e-06  1.86945e+08
       1012.4000  5.06352e-06  1.86894e+08
       1012.5000  7.10575e-06  2.62202e+08
       1012.6000  7.10575e-06  2.62131e+08
       1012.7000  7.10575e-06  2.62060e+08
       1012.8000  7.10575e-06  2.61989e+08
       1012.9000  7.10575e-06  2.61989e+08
       1013.0000  7.10575e-06  2.61918e+08
       1013.1000  7.10575e-06  2.61847e+08
       1013.2000  7.10575e-06  2.61776e+08
       1013.3000  7.10575e-06  2.61705e+08
       1013.4000  7.10575e-06  2.61634e+08
       1013.5000  3.88094e-06  1.42857e+08
       1013.6000  3.88094e-06  1.42819e+08
       1013.7000  3.88094e-06  1.42780e+08
       1013.8000  3.87792e-06  1.42630e+08
       1013.9000  3.87792e-06  1.42591e+08
       1014.0000  3.87792e-06  1.42553e+08
       1014.1000  3.87792e-06  1.42475e+08
       1014.2000  3.87792e-06  1.42397e+08
       1014.3000  3.87792e-06  1.42320e+08
       1014.4000  3.87792e-06  1.42242e+08
       1014.5000  3.05823e-06  1.12145e+08
       1014.6000  3.05823e-06  1.12084e+08
       1014.7000  3.05823e-06  1.12023e+08
       1014.8000  3.05823e-06  1.11992e+08
       1014.9000  3.05823e-06  1.11931e+08
       1015.0000  3.05823e-06  1.11901e+08
       1015.1000  3.05823e-06  1.11839e+08
       1015.2000  3.05823e-06  1.11809e+08
       1015.3000  3.05823e-06  1.11778e+08
       1015.4000  3.05823e-06  1.11717e+08
       1015.5000  3.70002e-06  1.35125e+08
       1015.6000  3.70002e-06  1.35088e+08
       1015.7000  3.70002e-06  1.35051e+08
       1015.8000  3.70002e-06  1.35014e+08
       1015.9000  3.70002e-06  1.34977e+08
       1016.0000  3.70002e-06  1.34940e+08
       1016.1000  3.70002e-06  1.34940e+08
       1016.2000  3.70002e-06  1.34940e+08
       1016.3000  3.70601e-06  1.35158e+08
       1016.4000  3.70601e-06  1.35121e+08
       1016.5000  3.78660e-06  1.38059e+08
       1016.6000  3.78660e-06  1.38059e+08
       1016.7000  3.78660e-06  1.38059e+08
       1016.8000  3.78660e-06  1.38022e+08
       1016.9000  3.78660e-06  1.38022e+08
       1017.0000  3.78660e-06  1.37984e+08
       1017.1000  3.78660e-06  1.37984e+08
       1017.2000  3.78660e-06  1.37946e+08
       1017.3000  3.78660e-06  1.37946e+08
       1017.4000  3.78660e-06  1.37908e+08
       1017.5000  4.34816e-06  1.58360e+08
       1017.6000  4.34816e-06  1.58317e+08
       1017.7000  4.34816e-06  1.58273e+08
       1017.8000  4.34816e-06  1.58230e+08
       1017.9000  4.34816e-06  1.58186e+08
       1018.0000  4.34816e-06  1.58186e+08
       1018.1000  4.34816e-06  1.58099e+08
       1018.2000  4.34816e-06  1.58012e+08
       1018.3000  4.34816e-06  1.57925e+08
       1018.4000  4.34816e-06  1.57838e+08
       1018.5000  3.63738e-06  1.32001e+08
       1018.6000  3.63738e-06  1.31928e+08
       1018.7000  3.63738e-06  1.31891e+08
       1018.8000  3.63567e-06  1.31757e+08
       1018.9000  3.63567e-06  1.31720e+08
       1019.0000  3.63567e-06  1.31647e+08
       1019.1000  3.63567e-06  1.31611e+08
       1019.2000  3.63567e-06  1.31575e+08
       1019.3000  3.63567e-06  1.31538e+08
       1019.4000  3.63567e-06  1.31466e+08
       1019.5000  3.39505e-06  1.22731e+08
       1019.6000  3.39505e-06  1.22697e+08
       1019.7000  3.39505e-06  1.22663e+08
       1019.8000  3.39505e-06  1.22663e+08
       1019.9000  3.39505e-06  1.22629e+08
       1020.0000  3.39505e-06  1.22595e+08
       1020.1000  3.39505e-06  1.22561e+08
       1020.2000  3.39505e-06  1.22528e+08
       1020.3000  3.39505e-06  1.22528e+08
       1020.4000  3.39505e-06  1.22494e+08
       1020.5000  3.13884e-06  1.13249e+08
       1020.6000  3.13884e-06  1.13218e+08
       1020.7000  3.13884e-06  1.13218e+08
       1020.8000  3.13884e-06  1.13187e+08
       1020.9000  3.13884e-06  1.13187e+08
       1021.0000  3.13884e-06  1.13187e+08
       1021.1000  3.13884e-06  1.13187e+08
       1021.2000  3.13884e-06  1.13187e+08
       1021.3000  3.13217e-06  1.12946e+08
       1021.4000  3.13217e-06  1.12946e+08
       1021.5000  2.76984e-06  9.98804e+07
       1021.6000  2.76984e-06  9.98804e+07
       1021.7000  2.76984e-06  9.98804e+07
       1021.8000  2.76984e-06  9.99081e+07
       1021.9000  2.76984e-06  9.99081e+07
       1022.0000  2.76984e-06  9.99358e+07
       1022.1000  2.76984e-06  9.99358e+07
       1022.2000  2.76984e-06  9.99635e+07
       1022.3000  2.76984e-06  9.99912e+07
       1022.4000  2.76984e-06  9.99912e+07
       1022.5000  2.77098e-06  1.00060e+08
       1022.6000  2.77098e-06  1.00088e+08
       1022.7000  2.77098e-06  1.00115e+08
       1022.8000  2.77098e-06  1.00143e+08
       1022.9000  2.77098e-06  1.00171e+08
       1023.0000  2.77098e-06  1.00199e+08
       1023.1000  2.77098e-06  1.00254e+08
       1023.2000  2.77098e-06  1.00282e+08
       1023.3000  2.77098e-06  1.00309e+08
       1023.4000  2.77098e-06  1.00365e+08
       1023.5000  3.51504e-06  1.27350e+08
       1023.6000  3.51504e-06  1.27420e+08
       1023.7000  3.51504e-06  1.27455e+08
       1023.8000  3.50475e-06  1.27152e+08
       1023.9000  3.50475e-06  1.27222e+08
       1024.0000  3.50475e-06  1.27293e+08
       1024.1000  3.50475e-06  1.27293e+08
       1024.2000  3.50475e-06  1.27258e+08
       1024.3000  3.50475e-06  1.27258e+08
       1024.4000  3.50475e-06  1.27258e+08
       1024.5000  3.37912e-06  1.22696e+08
       1024.6000  3.37912e-06  1.22662e+08
       1024.7000  3.37912e-06  1.22662e+08
       1024.8000  3.37912e-06  1.22662e+08
       1024.9000  3.37912e-06  1.22628e+08
       1025.0000  3.37912e-06  1.22628e+08
       1025.1000  3.37912e-06  1.22628e+08
       1025.2000  3.37912e-06  1.22594e+08
       1025.3000  3.37912e-06  1.22594e+08
       1025.4000  3.37912e-06  1.22594e+08
       1025.5000  3.00007e-06  1.08813e+08
       1025.6000  3.00007e-06  1.08813e+08
       1025.7000  3.00007e-06  1.08783e+08
       1025.8000  3.00007e-06  1.08783e+08
       1025.9000  3.00007e-06  1.08753e+08
       1026.0000  3.00007e-06  1.08753e+08
       1026.1000  3.00007e-06  1.08753e+08
       1026.2000  3.00007e-06  1.08723e+08
       1026.3000  2.98936e-06  1.08334e+08
       1026.4000  2.98936e-06  1.08305e+08
       1026.5000  2.36411e-06  8.56517e+07
       1026.6000  2.36411e-06  8.56281e+07
       1026.7000  2.36411e-06  8.56045e+07
       1026.8000  2.36411e-06  8.56045e+07
       1026.9000  2.36411e-06  8.55808e+07
       1027.0000  2.36411e-06  8.55808e+07
       1027.1000  2.36411e-06  8.55572e+07
       1027.2000  2.36411e-06  8.55335e+07
       1027.3000  2.36411e-06  8.55335e+07
       1027.4000  2.36411e-06  8.55099e+07
       1027.5000  2.58185e-06  9.33598e+07
       1027.6000  2.58185e-06  9.33598e+07
       1027.7000  2.58185e-06  9.33340e+07
       1027.8000  2.58185e-06  9.33081e+07
       1027.9000  2.58185e-06  9.32823e+07
       1028.0000  2.58185e-06  9.32565e+07
       1028.1000  2.58185e-06  9.32565e+07
       1028.2000  2.58185e-06  9.32307e+07
       1028.3000  2.58185e-06  9.32049e+07
       1028.4000  2.58185e-06  9.31790e+07
       1028.5000  2.69581e-06  9.72649e+07
       1028.6000  2.69581e-06  9.72379e+07
       1028.7000  2.69581e-06  9.72110e+07
       1028.8000  2.69660e-06  9.72125e+07
       1028.9000  2.69660e-06  9.71855e+07
       1029.0000  2.69660e-06  9.71585e+07
       1029.1000  2.69660e-06  9.71316e+07
       1029.2000  2.69660e-06  9.71046e+07
       1029.3000  2.69660e-06  9.70776e+07
       1029.4000  2.69660e-06  9.70507e+07
       1029.5000  2.62760e-06  9.45412e+07
       1029.6000  2.62760e-06  9.45149e+07
       1029.7000  2.62760e-06  9.44886e+07
       1029.8000  2.62760e-06  9.44624e+07
       1029.9000  2.62760e-06  9.44361e+07
       1030.0000  2.62760e-06  9.43835e+07
       1030.1000  2.62760e-06  9.44098e+07
       1030.2000  2.62760e-06  9.44098e+07
       1030.3000  2.62760e-06  9.44098e+07
       1030.4000  2.62760e-06  9.44098e+07
       1030.5000  2.77103e-06  9.95630e+07
       1030.6000  2.77103e-06  9.95630e+07
       1030.7000  2.77103e-06  9.95353e+07
       1030.8000  2.77103e-06  9.95353e+07
       1030.9000  2.77103e-06  9.95353e+07
       1031.0000  2.77103e-06  9.95076e+07
       1031.1000  2.77103e-06  9.95076e+07
       1031.2000  2.77103e-06  9.94799e+07
       1031.3000  2.77183e-06  9.95086e+07
       1031.4000  2.77183e-06  9.94809e+07
       1031.5000  2.20709e-06  7.91903e+07
       1031.6000  2.20709e-06  7.91683e+07
       1031.7000  2.20709e-06  7.91462e+07
       1031.8000  2.20709e-06  7.91241e+07
       1031.9000  2.20709e-06  7.91021e+07
       1032.0000  2.20709e-06  7.90800e+07
       1032.1000  2.20709e-06  7.90138e+07
       1032.2000  2.20709e-06  7.89255e+07
       1032.3000  2.20709e-06  7.88593e+07
       1032.4000  2.20709e-06  7.88151e+07
       1032.5000  2.76784e-06  9.87564e+07
       1032.6000  2.76784e-06  9.86733e+07
       1032.7000  2.76784e-06  9.86180e+07
       1032.8000  2.76784e-06  9.85349e+07
       1032.9000  2.76784e-06  9.84796e+07
       1033.0000  2.76784e-06  9.84242e+07
       1033.1000  2.76784e-06  9.83689e+07
       1033.2000  2.76784e-06  9.83412e+07
       1033.3000  2.76784e-06  9.82858e+07
       1033.4000  2.76784e-06  9.82582e+07
       1033.5000  2.63185e-06  9.33779e+07
       1033.6000  2.63185e-06  9.33516e+07
       1033.7000  2.63185e-06  9.33253e+07
       1033.8000  2.63564e-06  9.34333e+07
       1033.9000  2.63564e-06  9.34333e+07
       1034.0000  2.63564e-06  9.34070e+07
       1034.1000  2.63564e-06  9.34070e+07
       1034.2000  2.63564e-06  9.33806e+07
       1034.3000  2.63564e-06  9.33806e+07
       1034.4000  2.63564e-06  9.33806e+07
       1034.5000  2.33481e-06  8.27223e+07
       1034.6000  2.33481e-06  8.27456e+07
       1034.7000  2.33481e-06  8.27456e+07
       1034.8000  2.33481e-06  8.27690e+07
       1034.9000  2.33481e-06  8.27690e+07
       1035.0000  2.33481e-06  8.27923e+07
       1035.1000  2.33481e-06  8.28157e+07
       1035.2000  2.33481e-06  8.28390e+07
       1035.3000  2.33481e-06  8.28857e+07
       1035.4000  2.33481e-06  8.29091e+07
       1035.5000  1.90549e-06  6.77022e+07
       1035.6000  1.90549e-06  6.77403e+07
       1035.7000  1.90549e-06  6.77594e+07
       1035.8000  1.90549e-06  6.77975e+07
       1035.9000  1.90549e-06  6.78547e+07
       1036.0000  1.90549e-06  6.78928e+07
       1036.1000  1.90549e-06  6.78547e+07
       1036.2000  1.90549e-06  6.78166e+07
       1036.3000  1.90234e-06  6.76664e+07
       1036.4000  1.90234e-06  6.76283e+07
       1036.5000  1.69478e-06  6.02157e+07
       1036.6000  1.69478e-06  6.01818e+07
       1036.7000  1.69478e-06  6.01649e+07
       1036.8000  1.69478e-06  6.01310e+07
       1036.9000  1.69478e-06  6.00971e+07
       1037.0000  1.69478e-06  6.00801e+07
       1037.1000  1.69478e-06  6.00632e+07
       1037.2000  1.69478e-06  6.00293e+07
       1037.3000  1.69478e-06  6.00123e+07
       1037.4000  1.69478e-06  5.99954e+07
       1037.5000  1.91962e-06  6.79352e+07
       1037.6000  1.91962e-06  6.79160e+07
       1037.7000  1.91962e-06  6.78968e+07
       1037.8000  1.91962e-06  6.78776e+07
       1037.9000  1.91962e-06  6.78584e+07
       1038.0000  1.91962e-06  6.78392e+07
       1038.1000  1.91962e-06  6.78392e+07
       1038.2000  1.91962e-06  6.78392e+07
       1038.3000  1.91962e-06  6.78584e+07
       1038.4000  1.91962e-06  6.78584e+07
       1038.5000  2.33898e-06  8.26831e+07
       1038.6000  2.33898e-06  8.26831e+07
       1038.7000  2.33898e-06  8.26831e+07
       1038.8000  2.33385e-06  8.25015e+07
       1038.9000  2.33385e-06  8.25015e+07
       1039.0000  2.33385e-06  8.25015e+07
       1039.1000  2.33385e-06  8.25015e+07
       1039.2000  2.33385e-06  8.25015e+07
       1039.3000  2.33385e-06  8.25015e+07
       1039.4000  2.33385e-06  8.25015e+07
       1039.5000  1.84256e-06  6.51343e+07
       1039.6000  1.84256e-06  6.51343e+07
       1039.7000  1.84256e-06  6.51343e+07
       1039.8000  1.84256e-06  6.51343e+07
       1039.9000  1.84256e-06  6.51343e+07
       1040.0000  1.84256e-06  6.51343e+07
       1040.1000  1.84256e-06  6.51343e+07
       1040.2000  1.84256e-06  6.51343e+07
       1040.3000  1.84256e-06  6.51343e+07
       1040.4000  1.84256e-06  6.51343e+07
       1040.5000  1.64668e-06  5.82101e+07
       1040.6000  1.64668e-06  5.82101e+07
       1040.7000  1.64668e-06  5.82101e+07
       1040.8000  1.64668e-06  5.82101e+07
       1040.9000  1.64668e-06  5.82101e+07
       1041.0000  1.64668e-06  5.82101e+07
       1041.1000  1.64668e-06  5.82101e+07
       1041.2000  1.64668e-06  5.82101e+07
       1041.3000  1.64607e-06  5.81886e+07
       1041.4000  1.64607e-06  5.81886e+07
       1041.5000  1.43734e-06  5.08099e+07
       1041.6000  1.43734e-06  5.08099e+07
       1041.7000  1.43734e-06  5.08099e+07
       1041.8000  1.43734e-06  5.07955e+07
       1041.9000  1.43734e-06  5.07955e+07
       1042.0000  1.43734e-06  5.07955e+07
       1042.1000  1.43734e-06  5.08099e+07
       1042.2000  1.43734e-06  5.08099e+07
       1042.3000  1.43734e-06  5.08243e+07
       1042.4000  1.43734e-06  5.08243e+07
       1042.5000  9.30412e-07  3.28994e+07
       1042.6000  9.30412e-07  3.28994e+07
       1042.7000  9.30412e-07  3.28994e+07
       1042.8000  9.30412e-07  3.28901e+07
       1042.9000  9.30412e-07  3.28901e+07
       1043.0000  9.30412e-07  3.28901e+07
       1043.1000  9.30412e-07  3.28808e+07
       1043.2000  9.30412e-07  3.28715e+07
       1043.3000  9.30412e-07  3.28715e+07
       1043.4000  9.30412e-07  3.28622e+07
       1043.5000  1.77616e-06  6.27163e+07
       1043.6000  1.77616e-06  6.26985e+07
       1043.7000  1.77616e-06  6.26808e+07
       1043.8000  1.78170e-06  6.28404e+07
       1043.9000  1.78170e-06  6.28226e+07
       1044.0000  1.78170e-06  6.27869e+07
       1044.1000  1.78170e-06  6.27157e+07
       1044.2000  1.78170e-06  6.26266e+07
       1044.3000  1.78170e-06  6.25553e+07
       1044.4000  1.78170e-06  6.24841e+07
       1044.5000  1.34315e-06  4.70504e+07
       1044.6000  1.34315e-06  4.70101e+07
       1044.7000  1.34315e-06  4.69564e+07
       1044.8000  1.34315e-06  4.69161e+07
       1044.9000  1.34315e-06  4.68758e+07
       1045.0000  1.34315e-06  4.68355e+07
       1045.1000  1.34315e-06  4.68086e+07
       1045.2000  1.34315e-06  4.67683e+07
       1045.3000  1.34315e-06  4.67415e+07
       1045.4000  1.34315e-06  4.67146e+07
       1045.5000  1.03982e-06  3.61547e+07
       1045.6000  1.03982e-06  3.61339e+07
       1045.7000  1.03982e-06  3.61235e+07
       1045.8000  1.03982e-06  3.61131e+07
       1045.9000  1.03982e-06  3.61027e+07
       1046.0000  1.03982e-06  3.60923e+07
       1046.1000  1.03982e-06  3.60923e+07
       1046.2000  1.03982e-06  3.60819e+07
       1046.3000  1.04240e-06  3.61714e+07
       1046.4000  1.04240e-06  3.61714e+07
       1046.5000  9.17973e-07  3.18628e+07
       1046.6000  9.17973e-07  3.18628e+07
       1046.7000  9.17973e-07  3.18720e+07
       1046.8000  9.17973e-07  3.18812e+07
       1046.9000  9.17973e-07  3.18904e+07
       1047.0000  9.17973e-07  3.19087e+07
       1047.1000  9.17973e-07  3.19179e+07
       1047.2000  9.17973e-07  3.19363e+07
       1047.3000  9.17973e-07  3.19546e+07
       1047.4000  9.17973e-07  3.19730e+07
       1047.5000  8.76582e-07  3.05577e+07
       1047.6000  8.76582e-07  3.05752e+07
       1047.7000  8.76582e-07  3.06015e+07
       1047.8000  8.76582e-07  3.06278e+07
       1047.9000  8.76582e-07  3.06541e+07
       1048.0000  8.76582e-07  3.06891e+07
       1048.1000  8.76582e-07  3.06891e+07
       1048.2000  8.76582e-07  3.06891e+07
       1048.3000  8.76582e-07  3.06891e+07
       1048.4000  8.76582e-07  3.06804e+07
       1048.5000  1.06967e-06  3.74386e+07
       1048.6000  1.06967e-06  3.74386e+07
       1048.7000  1.06967e-06  3.74386e+07
       1048.8000  1.06942e-06  3.74298e+07
       1048.9000  1.06942e-06  3.74298e+07
       1049.0000  1.06942e-06  3.74191e+07
       1049.1000  1.06942e-06  3.74191e+07
       1049.2000  1.06942e-06  3.74191e+07
       1049.3000  1.06942e-06  3.74084e+07
       1049.4000  1.06942e-06  3.74084e+07
       1049.5000  9.77305e-07  3.41861e+07
       1049.6000  9.77305e-07  3.41764e+07
       1049.7000  9.77305e-07  3.41764e+07
       1049.8000  9.77305e-07  3.41764e+07
       1049.9000  9.77305e-07  3.41666e+07
       1050.0000  9.77305e-07  3.41666e+07
       1050.1000  9.77305e-07  3.41568e+07
       1050.2000  9.77305e-07  3.41568e+07
       1050.3000  9.77305e-07  3.41470e+07
       1050.4000  9.77305e-07  3.41373e+07
       1050.5000  5.55538e-07  1.94049e+07
       1050.6000  5.55538e-07  1.93994e+07
       1050.7000  5.55538e-07  1.93994e+07
       1050.8000  5.55538e-07  1.93938e+07
       1050.9000  5.55538e-07  1.93883e+07
       1051.0000  5.55538e-07  1.93883e+07
       1051.1000  5.55538e-07  1.93827e+07
       1051.2000  5.55538e-07  1.93827e+07
       1051.3000  5.53471e-07  1.93051e+07
       1051.4000  5.53471e-07  1.92995e+07
       1051.5000  4.91464e-07  1.71374e+07
       1051.6000  4.91464e-07  1.71324e+07
       1051.7000  4.91464e-07  1.71275e+07
       1051.8000  4.91464e-07  1.71275e+07
       1051.9000  4.91464e-07  1.71226e+07
       1052.0000  4.91464e-07  1.71226e+07
       1052.1000  4.91464e-07  1.71177e+07
       1052.2000  4.91464e-07  1.71128e+07
       1052.3000  4.91464e-07  1.71128e+07
       1052.4000  4.91464e-07  1.71079e+07
       1052.5000  4.39661e-07  1.53002e+07
       1052.6000  4.39661e-07  1.53002e+07
       1052.7000  4.39661e-07  1.52958e+07
       1052.8000  4.39661e-07  1.52914e+07
       1052.9000  4.39661e-07  1.52914e+07
       1053.0000  4.39661e-07  1.52870e+07
       1053.1000  4.39661e-07  1.52870e+07
       1053.2000  4.39661e-07  1.52826e+07
       1053.3000  4.39661e-07  1.52782e+07
       1053.4000  4.39661e-07  1.52782e+07
       1053.5000  3.74586e-07  1.30131e+07
       1053.6000  3.74586e-07  1.30094e+07
       1053.7000  3.74586e-07  1.30094e+07
       1053.8000  3.72048e-07  1.29175e+07
       1053.9000  3.72048e-07  1.29138e+07
       1054.0000  3.72048e-07  1.29138e+07
       1054.1000  3.72048e-07  1.29212e+07
       1054.2000  3.72048e-07  1.29250e+07
       1054.3000  3.72048e-07  1.29324e+07
       1054.4000  3.72048e-07  1.29398e+07
       1054.5000  2.00261e-07  6.96708e+06
       1054.6000  2.00261e-07  6.96908e+06
       1054.7000  2.00261e-07  6.97108e+06
       1054.8000  2.00261e-07  6.97308e+06
       1054.9000  2.00261e-07  6.97509e+06
       1055.0000  2.00261e-07  6.97709e+06
       1055.1000  2.00261e-07  6.97709e+06
       1055.2000  2.00261e-07  6.97709e+06
       1055.3000  2.00261e-07  6.97909e+06
       1055.4000  2.00261e-07  6.97909e+06
       1055.5000  1.77149e-07  6.17187e+06
       1055.6000  1.77149e-07  6.17187e+06
       1055.7000  1.77149e-07  6.17187e+06
       1055.8000  1.77149e-07  6.17010e+06
       1055.9000  1.77149e-07  6.16833e+06
       1056.0000  1.77149e-07  6.16656e+06
       1056.1000  1.77149e-07  6.16124e+06
       1056.2000  1.77149e-07  6.15593e+06
       1056.3000  1.75353e-07  6.08826e+06
       1056.4000  1.75353e-07  6.08125e+06
       1056.5000  3.98049e-08  1.37924e+06
       1056.6000  3.98049e-08  1.37844e+06
       1056.7000  3.98049e-08  1.37725e+06
       1056.8000  3.98049e-08  1.37606e+06
       1056.9000  3.98049e-08  1.37486e+06
       1057.0000  3.98049e-08  1.37406e+06
