PDS_VERSION_ID         = PDS3
RECORD_TYPE            = STREAM
OBJECT                 = TEXT
  PUBLICATION_DATE     = 2014-04-25
  INTERCHANGE_FORMAT   = ASCII
  NOTE                 = "System transmission vs. wavelength."
END_OBJECT             = TEXT
END
    
The systrans directory contains the non-wavelength-integrated system 
transmission values (QE*optics*filter1*filter2) for each filter combination. 
The naming convention for these files is as follows:

<camera><filter 1><filter 2>_systrans.tab

where <camera> is "issna" or "isswa," and <filter 1> and <filter 2> represent
the filter names. For polarized filter combinations, values are given for the
parallel orientation of the filter (full transmission), with values for the 
perpendicular (blocking) orientation provided in files with subscript 
"_b_systrans.tab". 

Columns in systrans files are as follows:

 1st column: Wavelength (nm)  
 2nd column: Transmitted Flux
 3rd column: Transmitted Flux * Solar Flux (phot per cm^2-s-angstrom at 1 AU)

The solar spectrum used for this calculation is provided in solarflux.tab.

\begindata
       661.00000  5.98687e-06  3.12574e+08
       661.10000  5.98687e-06  3.12395e+08
       661.20000  5.98687e-06  3.12155e+08
       661.30000  5.97200e-06  3.11201e+08
       661.40000  5.97200e-06  3.11022e+08
       661.50000  5.97542e-06  3.11021e+08
       661.60000  5.97542e-06  3.10901e+08
       661.70000  5.97542e-06  3.10722e+08
       661.80000  5.97542e-06  3.10602e+08
       661.90000  5.97542e-06  3.10483e+08
       662.00000  5.97542e-06  3.10363e+08
       662.10000  5.97542e-06  3.10244e+08
       662.20000  5.97542e-06  3.10124e+08
       662.30000  5.97542e-06  3.10065e+08
       662.40000  5.97542e-06  3.10005e+08
       662.50000  9.96208e-06  5.16633e+08
       662.60000  9.96208e-06  5.16633e+08
       662.70000  9.96208e-06  5.16534e+08
       662.80000  9.96208e-06  5.16434e+08
       662.90000  9.96208e-06  5.16434e+08
       663.00000  9.96208e-06  5.16434e+08
       663.10000  9.96208e-06  5.16832e+08
       663.20000  9.96208e-06  5.17131e+08
       663.30000  9.96208e-06  5.17530e+08
       663.40000  9.96208e-06  5.17829e+08
       663.50000  7.97117e-06  4.14581e+08
       663.60000  7.97117e-06  4.14820e+08
       663.70000  7.97117e-06  4.14979e+08
       663.80000  7.95417e-06  4.14333e+08
       663.90000  7.95417e-06  4.14492e+08
       664.00000  7.95417e-06  4.14571e+08
       664.10000  7.95417e-06  4.14730e+08
       664.20000  7.95417e-06  4.14810e+08
       664.30000  7.95417e-06  4.14889e+08
       664.40000  7.95417e-06  4.14969e+08
       664.50000  7.95782e-06  4.15159e+08
       664.60000  7.95782e-06  4.15159e+08
       664.70000  7.95782e-06  4.15159e+08
       664.80000  7.95782e-06  4.15159e+08
       664.90000  7.95782e-06  4.15159e+08
       665.00000  7.95782e-06  4.15080e+08
       665.10000  7.95782e-06  4.15000e+08
       665.20000  7.95782e-06  4.14921e+08
       665.30000  7.95782e-06  4.14762e+08
       665.40000  7.95782e-06  4.14602e+08
       665.50000  3.98016e-06  2.07287e+08
       665.60000  3.98016e-06  2.07207e+08
       665.70000  3.98016e-06  2.07088e+08
       665.80000  3.98016e-06  2.07008e+08
       665.90000  3.98016e-06  2.06889e+08
       666.00000  3.98016e-06  2.06729e+08
       666.10000  3.98016e-06  2.06610e+08
       666.20000  3.98016e-06  2.06451e+08
       666.30000  3.97016e-06  2.05773e+08
       666.40000  3.97016e-06  2.05615e+08
       666.50000  5.98425e-07  3.09625e+07
       666.60000  5.98425e-07  3.09326e+07
       666.70000  5.98425e-07  3.09027e+07
       666.80000  5.98425e-07  3.08727e+07
       666.90000  5.98425e-07  3.08428e+07
       667.00000  5.98425e-07  3.08069e+07
       667.10000  5.98425e-07  3.08428e+07
       667.20000  5.98425e-07  3.08727e+07
       667.30000  5.98425e-07  3.09027e+07
       667.40000  5.98425e-07  3.09326e+07
       667.50000  5.96066e-06  3.08404e+08
       667.60000  5.96066e-06  3.08643e+08
       667.70000  5.96066e-06  3.08881e+08
       667.80000  5.96066e-06  3.09060e+08
       667.90000  5.96066e-06  3.09239e+08
       668.00000  5.96066e-06  3.09418e+08
       668.10000  5.96066e-06  3.09596e+08
       668.20000  5.96066e-06  3.09716e+08
       668.30000  5.96066e-06  3.09835e+08
       668.40000  5.96066e-06  3.09894e+08
       668.50000  4.90096e-07  2.54850e+07
       668.60000  4.90096e-07  2.54899e+07
       668.70000  4.90096e-07  2.54899e+07
       668.80000  4.89294e-07  2.54482e+07
       668.90000  4.89294e-07  2.54482e+07
       669.00000  4.89294e-07  2.54433e+07
       669.10000  4.89294e-07  2.54090e+07
       669.20000  4.89294e-07  2.53748e+07
       669.30000  4.89294e-07  2.53454e+07
       669.40000  4.89294e-07  2.53161e+07
       669.50000  1.63202e-06  8.43427e+07
       669.60000  1.63202e-06  8.42447e+07
       669.70000  1.63202e-06  8.41631e+07
       669.80000  1.63202e-06  8.40815e+07
       669.90000  1.63202e-06  8.39999e+07
       670.00000  1.63202e-06  8.39347e+07
       670.10000  1.63202e-06  8.38694e+07
       670.20000  1.63202e-06  8.38041e+07
       670.30000  1.63202e-06  8.37388e+07
       670.40000  1.63202e-06  8.36899e+07
       670.50000  1.98501e-06  1.01732e+08
       670.60000  1.98501e-06  1.01672e+08
       670.70000  1.98501e-06  1.01632e+08
       670.80000  1.98501e-06  1.01593e+08
       670.90000  1.98501e-06  1.01553e+08
       671.00000  1.98501e-06  1.01533e+08
       671.10000  1.98501e-06  1.01493e+08
       671.20000  1.98501e-06  1.01493e+08
       671.30000  1.98508e-06  1.01477e+08
       671.40000  1.98508e-06  1.01477e+08
       671.50000  5.95754e-06  3.04549e+08
       671.60000  5.95754e-06  3.04549e+08
       671.70000  5.95754e-06  3.04549e+08
       671.80000  5.95754e-06  3.04609e+08
       671.90000  5.95754e-06  3.04669e+08
       672.00000  5.95754e-06  3.04788e+08
       672.10000  5.95754e-06  3.04907e+08
       672.20000  5.95754e-06  3.05026e+08
       672.30000  5.95754e-06  3.05145e+08
       672.40000  5.95754e-06  3.05324e+08
       672.50000  1.75653e-06  9.00748e+07
       672.60000  1.75653e-06  9.01275e+07
       672.70000  1.75653e-06  9.01802e+07
       672.80000  1.75653e-06  9.02505e+07
       672.90000  1.75653e-06  9.03207e+07
       673.00000  1.75653e-06  9.04086e+07
       673.10000  1.75653e-06  9.03734e+07
       673.20000  1.75653e-06  9.03383e+07
       673.30000  1.75653e-06  9.03032e+07
       673.40000  1.75653e-06  9.02856e+07
       673.50000  3.39685e-07  1.74530e+07
       673.60000  3.39685e-07  1.74496e+07
       673.70000  3.39685e-07  1.74462e+07
       673.80000  3.39821e-07  1.74464e+07
       673.90000  3.39821e-07  1.74430e+07
       674.00000  3.39821e-07  1.74396e+07
       674.10000  3.39821e-07  1.74362e+07
       674.20000  3.39821e-07  1.74328e+07
       674.30000  3.39821e-07  1.74294e+07
       674.40000  3.39821e-07  1.74260e+07
       674.50000  5.96043e-06  3.05591e+08
       674.60000  5.96043e-06  3.05591e+08
       674.70000  5.96043e-06  3.05532e+08
       674.80000  5.96043e-06  3.05532e+08
       674.90000  5.96043e-06  3.05472e+08
       675.00000  5.96043e-06  3.05472e+08
       675.10000  5.96043e-06  3.05532e+08
       675.20000  5.96043e-06  3.05591e+08
       675.30000  5.96043e-06  3.05651e+08
       675.40000  5.96043e-06  3.05710e+08
       675.50000  5.96358e-06  3.05872e+08
       675.60000  5.96358e-06  3.05932e+08
       675.70000  5.96358e-06  3.05991e+08
       675.80000  5.96358e-06  3.05991e+08
       675.90000  5.96358e-06  3.06051e+08
       676.00000  5.96358e-06  3.06051e+08
       676.10000  5.96358e-06  3.06111e+08
       676.20000  5.96358e-06  3.06111e+08
       676.30000  5.95750e-06  3.05798e+08
       676.40000  5.95750e-06  3.05798e+08
       676.50000  7.94156e-06  4.07720e+08
       676.60000  7.94156e-06  4.07720e+08
       676.70000  7.94156e-06  4.07720e+08
       676.80000  7.94156e-06  4.07640e+08
       676.90000  7.94156e-06  4.07640e+08
       677.00000  7.94156e-06  4.07640e+08
       677.10000  7.94156e-06  4.07640e+08
       677.20000  7.94156e-06  4.07561e+08
       677.30000  7.94156e-06  4.07561e+08
       677.40000  7.94156e-06  4.07482e+08
       677.50000  5.95606e-06  3.05606e+08
       677.60000  5.95606e-06  3.05546e+08
       677.70000  5.95606e-06  3.05546e+08
       677.80000  5.95606e-06  3.05486e+08
       677.90000  5.95606e-06  3.05427e+08
       678.00000  5.95606e-06  3.05367e+08
       678.10000  5.95606e-06  3.05308e+08
       678.20000  5.95606e-06  3.05248e+08
       678.30000  5.95606e-06  3.05189e+08
       678.40000  5.95606e-06  3.05129e+08
       678.50000  8.58047e-08  4.39406e+06
       678.60000  8.58047e-08  4.39320e+06
       678.70000  8.58047e-08  4.39234e+06
       678.80000  8.57982e-08  4.39029e+06
       678.90000  8.57982e-08  4.38944e+06
       679.00000  8.57982e-08  4.38772e+06
       679.10000  8.57982e-08  4.38772e+06
       679.20000  8.57982e-08  4.38858e+06
       679.30000  8.57982e-08  4.38858e+06
       679.40000  8.57982e-08  4.38858e+06
       679.50000  3.97055e-06  2.03093e+08
       679.60000  3.97055e-06  2.03093e+08
       679.70000  3.97055e-06  2.03093e+08
       679.80000  3.97055e-06  2.03093e+08
       679.90000  3.97055e-06  2.03093e+08
       680.00000  3.97055e-06  2.03054e+08
       680.10000  3.97055e-06  2.03054e+08
       680.20000  3.97055e-06  2.03054e+08
       680.30000  3.97055e-06  2.03014e+08
       680.40000  3.97055e-06  2.03014e+08
       680.50000  3.97228e-06  2.03063e+08
       680.60000  3.97228e-06  2.03063e+08
       680.70000  3.97228e-06  2.03023e+08
       680.80000  3.97228e-06  2.02984e+08
       680.90000  3.97228e-06  2.02944e+08
       681.00000  3.97228e-06  2.02944e+08
       681.10000  3.97228e-06  2.02904e+08
       681.20000  3.97228e-06  2.02864e+08
       681.30000  3.97191e-06  2.02845e+08
       681.40000  3.97191e-06  2.02806e+08
       681.50000  9.94140e-06  5.07509e+08
       681.60000  9.94140e-06  5.07409e+08
       681.70000  9.94140e-06  5.07310e+08
       681.80000  9.94140e-06  5.07111e+08
       681.90000  9.94140e-06  5.07012e+08
       682.00000  9.94140e-06  5.06912e+08
       682.10000  9.94140e-06  5.06713e+08
       682.20000  9.94140e-06  5.06515e+08
       682.30000  9.94140e-06  5.06415e+08
       682.40000  9.94140e-06  5.06216e+08
       682.50000  3.97847e-06  2.02504e+08
       682.60000  3.97847e-06  2.02425e+08
       682.70000  3.97847e-06  2.02345e+08
       682.80000  3.97847e-06  2.02266e+08
       682.90000  3.97847e-06  2.02146e+08
       683.00000  3.97847e-06  2.02067e+08
       683.10000  3.97847e-06  2.01987e+08
       683.20000  3.97847e-06  2.01868e+08
       683.30000  3.97847e-06  2.01748e+08
       683.40000  3.97847e-06  2.01629e+08
       683.50000  3.97976e-06  2.01614e+08
       683.60000  3.97976e-06  2.01495e+08
       683.70000  3.97976e-06  2.01376e+08
       683.80000  3.97671e-06  2.01062e+08
       683.90000  3.97671e-06  2.00943e+08
       684.00000  3.97671e-06  2.00824e+08
       684.10000  3.97671e-06  2.00665e+08
       684.20000  3.97671e-06  2.00545e+08
       684.30000  3.97671e-06  2.00386e+08
       684.40000  3.97671e-06  2.00267e+08
       684.50000  7.96029e-06  4.00562e+08
       684.60000  7.96029e-06  4.00243e+08
       684.70000  7.96029e-06  3.99925e+08
       684.80000  7.96029e-06  3.99607e+08
       684.90000  7.96029e-06  3.99209e+08
       685.00000  7.96029e-06  3.98890e+08
       685.10000  7.96029e-06  3.99209e+08
       685.20000  7.96029e-06  3.99607e+08
       685.30000  7.96029e-06  3.99925e+08
       685.40000  7.96029e-06  4.00164e+08
       685.50000  7.96871e-06  4.00906e+08
       685.60000  7.96871e-06  4.01224e+08
       685.70000  7.96871e-06  4.01463e+08
       685.80000  7.96871e-06  4.01702e+08
       685.90000  7.96871e-06  4.01942e+08
       686.00000  7.96871e-06  4.02181e+08
       686.10000  7.96871e-06  4.02420e+08
       686.20000  7.96871e-06  4.02579e+08
       686.30000  7.96034e-06  4.02395e+08
       686.40000  7.96034e-06  4.02554e+08
       686.50000  3.98199e-06  2.01449e+08
       686.60000  3.98199e-06  2.01528e+08
       686.70000  3.98199e-06  2.01608e+08
       686.80000  3.98199e-06  2.01648e+08
       686.90000  3.98199e-06  2.01728e+08
       687.00000  3.98199e-06  2.01767e+08
       687.10000  3.98199e-06  2.01807e+08
       687.20000  3.98199e-06  2.01807e+08
       687.30000  3.98199e-06  2.01807e+08
       687.40000  3.98199e-06  2.01807e+08
       687.50000  1.91549e-06  9.70772e+07
       687.60000  1.91549e-06  9.70772e+07
       687.70000  1.91549e-06  9.70772e+07
       687.80000  1.91549e-06  9.70772e+07
       687.90000  1.91549e-06  9.70772e+07
       688.00000  1.91549e-06  9.70580e+07
       688.10000  1.91549e-06  9.70580e+07
       688.20000  1.91549e-06  9.70580e+07
       688.30000  1.91549e-06  9.70389e+07
       688.40000  1.91549e-06  9.70389e+07
       688.50000  9.96756e-06  5.04857e+08
       688.60000  9.96756e-06  5.04757e+08
       688.70000  9.96756e-06  5.04757e+08
       688.80000  9.95485e-06  5.04014e+08
       688.90000  9.95485e-06  5.03915e+08
       689.00000  9.95485e-06  5.03815e+08
       689.10000  9.95485e-06  5.03715e+08
       689.20000  9.95485e-06  5.03616e+08
       689.30000  9.95485e-06  5.03516e+08
       689.40000  9.95485e-06  5.03417e+08
       689.50000  3.98430e-06  2.01446e+08
       689.60000  3.98430e-06  2.01406e+08
       689.70000  3.98430e-06  2.01327e+08
       689.80000  3.98430e-06  2.01287e+08
       689.90000  3.98430e-06  2.01247e+08
       690.00000  3.98430e-06  2.01167e+08
       690.10000  3.98430e-06  2.01088e+08
       690.20000  3.98430e-06  2.01048e+08
       690.30000  3.98430e-06  2.00968e+08
       690.40000  3.98430e-06  2.00888e+08
       690.50000  5.98282e-06  3.01594e+08
       690.60000  5.98282e-06  3.01474e+08
       690.70000  5.98282e-06  3.01355e+08
       690.80000  5.98282e-06  3.01235e+08
       690.90000  5.98282e-06  3.01115e+08
       691.00000  5.98282e-06  3.00996e+08
       691.10000  5.98282e-06  3.01115e+08
       691.20000  5.98282e-06  3.01175e+08
       691.30000  5.97711e-06  3.01007e+08
       691.40000  5.97711e-06  3.01067e+08
       691.50000  5.98054e-06  3.01300e+08
       691.60000  5.98054e-06  3.01419e+08
       691.70000  5.98054e-06  3.01479e+08
       691.80000  5.98054e-06  3.01539e+08
       691.90000  5.98054e-06  3.01599e+08
       692.00000  5.98054e-06  3.01599e+08
       692.10000  5.98054e-06  3.01659e+08
       692.20000  5.98054e-06  3.01718e+08
       692.30000  5.98054e-06  3.01718e+08
       692.40000  5.98054e-06  3.01718e+08
       692.50000  5.98294e-06  3.01899e+08
       692.60000  5.98294e-06  3.01899e+08
       692.70000  5.98294e-06  3.01899e+08
       692.80000  5.98294e-06  3.01899e+08
       692.90000  5.98294e-06  3.01899e+08
       693.00000  5.98294e-06  3.01839e+08
       693.10000  5.98294e-06  3.01839e+08
       693.20000  5.98294e-06  3.01779e+08
       693.30000  5.98294e-06  3.01719e+08
       693.40000  5.98294e-06  3.01660e+08
       693.50000  5.98479e-06  3.01693e+08
       693.60000  5.98479e-06  3.01633e+08
       693.70000  5.98479e-06  3.01574e+08
       693.80000  5.96105e-06  3.00318e+08
       693.90000  5.96105e-06  3.00198e+08
       694.00000  5.96105e-06  3.00139e+08
       694.10000  5.96105e-06  3.00079e+08
       694.20000  5.96105e-06  2.99960e+08
       694.30000  5.96105e-06  2.99900e+08
       694.40000  5.96105e-06  2.99781e+08
       694.50000  3.97840e-06  1.99994e+08
       694.60000  3.97840e-06  1.99954e+08
       694.70000  3.97840e-06  1.99875e+08
       694.80000  3.97840e-06  1.99795e+08
       694.90000  3.97840e-06  1.99716e+08
       695.00000  3.97840e-06  1.99636e+08
       695.10000  3.97840e-06  1.99556e+08
       695.20000  3.97840e-06  1.99477e+08
       695.30000  3.97840e-06  1.99357e+08
       695.40000  3.97840e-06  1.99278e+08
       695.50000  7.95944e-06  3.98529e+08
       695.60000  7.95944e-06  3.98290e+08
       695.70000  7.95944e-06  3.98131e+08
       695.80000  7.95944e-06  3.97892e+08
       695.90000  7.95944e-06  3.97653e+08
       696.00000  7.95944e-06  3.97494e+08
       696.10000  7.95944e-06  3.97255e+08
       696.20000  7.95944e-06  3.97017e+08
       696.30000  7.95162e-06  3.96388e+08
       696.40000  7.95162e-06  3.96150e+08
       696.50000  3.97892e-06  1.98110e+08
       696.60000  3.97892e-06  1.97991e+08
       696.70000  3.97892e-06  1.97832e+08
       696.80000  3.97892e-06  1.97713e+08
       696.90000  3.97892e-06  1.97593e+08
       697.00000  3.97892e-06  1.97434e+08
       697.10000  3.97892e-06  1.97713e+08
       697.20000  3.97892e-06  1.97912e+08
       697.30000  3.97892e-06  1.98150e+08
       697.40000  3.97892e-06  1.98349e+08
       697.50000  1.19485e-05  5.96231e+08
       697.60000  1.19485e-05  5.96709e+08
       697.70000  1.19485e-05  5.97187e+08
       697.80000  1.19485e-05  5.97545e+08
       697.90000  1.19485e-05  5.97903e+08
       698.00000  1.19485e-05  5.98142e+08
       698.10000  1.19485e-05  5.98381e+08
       698.20000  1.19485e-05  5.98620e+08
       698.30000  1.19485e-05  5.98740e+08
       698.40000  1.19485e-05  5.98859e+08
       698.50000  1.19534e-05  5.99225e+08
       698.60000  1.19534e-05  5.99225e+08
       698.70000  1.19534e-05  5.99105e+08
       698.80000  1.19330e-05  5.97963e+08
       698.90000  1.19330e-05  5.97844e+08
       699.00000  1.19330e-05  5.97605e+08
       699.10000  1.19330e-05  5.96531e+08
       699.20000  1.19330e-05  5.95338e+08
       699.30000  1.19330e-05  5.94383e+08
       699.40000  1.19330e-05  5.93310e+08
       699.50000  3.97895e-06  1.97515e+08
       699.60000  3.97895e-06  1.97197e+08
       699.70000  3.97895e-06  1.96918e+08
       699.80000  3.97895e-06  1.96640e+08
       699.90000  3.97895e-06  1.96361e+08
       700.00000  3.97895e-06  1.96122e+08
       700.10000  3.97895e-06  1.95884e+08
       700.20000  3.97895e-06  1.95645e+08
       700.30000  3.97895e-06  1.95446e+08
       700.40000  3.97895e-06  1.95247e+08
       700.50000  5.97248e-06  2.92771e+08
       700.60000  5.97248e-06  2.92532e+08
       700.70000  5.97248e-06  2.92293e+08
       700.80000  5.97248e-06  2.92114e+08
       700.90000  5.97248e-06  2.91935e+08
       701.00000  5.97248e-06  2.91756e+08
       701.10000  5.97248e-06  2.91696e+08
       701.20000  5.97248e-06  2.91636e+08
       701.30000  5.96840e-06  2.91377e+08
       701.40000  5.96840e-06  2.91377e+08
       701.50000  5.97273e-06  2.91589e+08
       701.60000  5.97273e-06  2.91589e+08
       701.70000  5.97273e-06  2.91589e+08
       701.80000  5.97273e-06  2.91648e+08
       701.90000  5.97273e-06  2.91648e+08
       702.00000  5.97273e-06  2.91708e+08
       702.10000  5.97273e-06  2.91828e+08
       702.20000  5.97273e-06  2.91887e+08
       702.30000  5.97273e-06  2.92007e+08
       702.40000  5.97273e-06  2.92066e+08
       702.50000  7.96918e-06  3.89852e+08
       702.60000  7.96918e-06  3.90091e+08
       702.70000  7.96918e-06  3.90251e+08
       702.80000  7.96918e-06  3.90490e+08
       702.90000  7.96918e-06  3.90729e+08
       703.00000  7.96918e-06  3.90968e+08
       703.10000  7.96918e-06  3.91685e+08
       703.20000  7.96918e-06  3.92403e+08
       703.30000  7.96918e-06  3.93040e+08
       703.40000  7.96918e-06  3.93678e+08
       703.50000  7.97218e-06  3.94384e+08
       703.60000  7.97218e-06  3.95022e+08
       703.70000  7.97218e-06  3.95500e+08
       703.80000  7.95073e-06  3.94992e+08
       703.90000  7.95073e-06  3.95469e+08
       704.00000  7.95073e-06  3.95867e+08
       704.10000  7.95073e-06  3.96344e+08
       704.20000  7.95073e-06  3.96741e+08
       704.30000  7.95073e-06  3.97059e+08
       704.40000  7.95073e-06  3.97377e+08
       704.50000  1.05987e-06  5.30148e+07
       704.60000  1.05987e-06  5.30572e+07
       704.70000  1.05987e-06  5.30890e+07
       704.80000  1.05987e-06  5.31102e+07
       704.90000  1.05987e-06  5.31420e+07
       705.00000  1.05987e-06  5.31632e+07
       705.10000  1.05987e-06  5.31738e+07
       705.20000  1.05987e-06  5.31844e+07
       705.30000  1.05987e-06  5.31950e+07
       705.40000  1.05987e-06  5.32056e+07
       705.50000  5.97175e-06  2.99782e+08
       705.60000  5.97175e-06  2.99782e+08
       705.70000  5.97175e-06  2.99722e+08
       705.80000  5.97175e-06  2.99662e+08
       705.90000  5.97175e-06  2.99602e+08
       706.00000  5.97175e-06  2.99483e+08
       706.10000  5.97175e-06  2.99364e+08
       706.20000  5.97175e-06  2.99184e+08
       706.30000  5.97623e-06  2.99230e+08
       706.40000  5.97623e-06  2.99051e+08
       706.50000  9.96257e-06  4.98129e+08
       706.60000  9.96257e-06  4.97730e+08
       706.70000  9.96257e-06  4.97332e+08
       706.80000  9.96257e-06  4.96834e+08
       706.90000  9.96257e-06  4.96335e+08
       707.00000  9.96257e-06  4.95837e+08
       707.10000  9.96257e-06  4.95439e+08
       707.20000  9.96257e-06  4.95140e+08
       707.30000  9.96257e-06  4.94741e+08
       707.40000  9.96257e-06  4.94443e+08
       707.50000  5.98126e-06  2.96671e+08
       707.60000  5.98126e-06  2.96491e+08
       707.70000  5.98126e-06  2.96372e+08
       707.80000  5.98126e-06  2.96192e+08
       707.90000  5.98126e-06  2.96073e+08
       708.00000  5.98126e-06  2.95953e+08
       708.10000  5.98126e-06  2.95833e+08
       708.20000  5.98126e-06  2.95714e+08
       708.30000  5.98126e-06  2.95594e+08
       708.40000  5.98126e-06  2.95474e+08
       708.50000  1.99531e-06  9.85483e+07
       708.60000  1.99531e-06  9.85084e+07
       708.70000  1.99531e-06  9.84884e+07
       708.80000  1.98851e-06  9.81332e+07
       708.90000  1.98851e-06  9.81133e+07
       709.00000  1.98851e-06  9.81133e+07
       709.10000  1.98851e-06  9.81531e+07
       709.20000  1.98851e-06  9.81928e+07
       709.30000  1.98851e-06  9.82127e+07
       709.40000  1.98851e-06  9.82525e+07
       709.50000  3.98039e-06  1.96711e+08
       709.60000  3.98039e-06  1.96791e+08
       709.70000  3.98039e-06  1.96830e+08
       709.80000  3.98039e-06  1.96870e+08
       709.90000  3.98039e-06  1.96910e+08
       710.00000  3.98039e-06  1.96950e+08
       710.10000  3.98039e-06  1.96990e+08
       710.20000  3.98039e-06  1.97029e+08
       710.30000  3.98039e-06  1.97029e+08
       710.40000  3.98039e-06  1.97069e+08
       710.50000  5.97323e-06  2.95735e+08
       710.60000  5.97323e-06  2.95735e+08
       710.70000  5.97323e-06  2.95735e+08
       710.80000  5.97323e-06  2.95735e+08
       710.90000  5.97323e-06  2.95735e+08
       711.00000  5.97323e-06  2.95735e+08
       711.10000  5.97323e-06  2.95735e+08
       711.20000  5.97323e-06  2.95675e+08
       711.30000  5.97452e-06  2.95739e+08
       711.40000  5.97452e-06  2.95679e+08
       711.50000  9.96283e-06  4.92961e+08
       711.60000  9.96283e-06  4.92861e+08
       711.70000  9.96283e-06  4.92762e+08
       711.80000  9.96283e-06  4.92662e+08
       711.90000  9.96283e-06  4.92562e+08
       712.00000  9.96283e-06  4.92363e+08
       712.10000  9.96283e-06  4.92264e+08
       712.20000  9.96283e-06  4.92064e+08
       712.30000  9.96283e-06  4.91965e+08
       712.40000  9.96283e-06  4.91765e+08
       712.50000  5.98262e-06  2.95182e+08
       712.60000  5.98262e-06  2.95063e+08
       712.70000  5.98262e-06  2.94883e+08
       712.80000  5.98262e-06  2.94763e+08
       712.90000  5.98262e-06  2.94644e+08
       713.00000  5.98262e-06  2.94464e+08
       713.10000  5.98262e-06  2.94464e+08
       713.20000  5.98262e-06  2.94464e+08
       713.30000  5.98262e-06  2.94464e+08
       713.40000  5.98262e-06  2.94405e+08
       713.50000  7.98031e-06  3.92711e+08
       713.60000  7.98031e-06  3.92711e+08
       713.70000  7.98031e-06  3.92631e+08
       713.80000  7.97844e-06  3.92539e+08
       713.90000  7.97844e-06  3.92460e+08
       714.00000  7.97844e-06  3.92460e+08
       714.10000  7.97844e-06  3.92380e+08
       714.20000  7.97844e-06  3.92300e+08
       714.30000  7.97844e-06  3.92300e+08
       714.40000  7.97844e-06  3.92220e+08
       714.50000  3.99192e-06  1.96203e+08
       714.60000  3.99192e-06  1.96163e+08
       714.70000  3.99192e-06  1.96163e+08
       714.80000  3.99192e-06  1.96123e+08
       714.90000  3.99192e-06  1.96083e+08
       715.00000  3.99192e-06  1.96043e+08
       715.10000  3.99192e-06  1.96003e+08
       715.20000  3.99192e-06  1.96003e+08
       715.30000  3.99192e-06  1.96003e+08
       715.40000  3.99192e-06  1.95963e+08
       715.50000  5.99126e-06  2.94051e+08
       715.60000  5.99126e-06  2.93991e+08
       715.70000  5.99126e-06  2.93931e+08
       715.80000  5.99126e-06  2.93871e+08
       715.90000  5.99126e-06  2.93812e+08
       716.00000  5.99126e-06  2.93692e+08
       716.10000  5.99126e-06  2.93632e+08
       716.20000  5.99126e-06  2.93512e+08
       716.30000  5.98262e-06  2.92969e+08
       716.40000  5.98262e-06  2.92849e+08
       716.50000  7.97680e-06  3.90305e+08
       716.60000  7.97680e-06  3.90145e+08
       716.70000  7.97680e-06  3.89986e+08
       716.80000  7.97680e-06  3.89746e+08
       716.90000  7.97680e-06  3.89587e+08
       717.00000  7.97680e-06  3.89347e+08
       717.10000  7.97680e-06  3.89108e+08
       717.20000  7.97680e-06  3.88869e+08
       717.30000  7.97680e-06  3.88630e+08
       717.40000  7.97680e-06  3.88390e+08
       717.50000  5.98945e-06  2.91446e+08
       717.60000  5.98945e-06  2.91207e+08
       717.70000  5.98945e-06  2.91027e+08
       717.80000  5.98945e-06  2.90788e+08
       717.90000  5.98945e-06  2.90548e+08
       718.00000  5.98945e-06  2.90308e+08
       718.10000  5.98945e-06  2.90069e+08
       718.20000  5.98945e-06  2.89829e+08
       718.30000  5.98945e-06  2.89590e+08
       718.40000  5.98945e-06  2.89290e+08
       718.50000  7.99622e-06  3.85898e+08
       718.60000  7.99622e-06  3.85498e+08
       718.70000  7.99622e-06  3.85098e+08
       718.80000  7.96338e-06  3.83118e+08
       718.90000  7.96338e-06  3.82720e+08
       719.00000  7.96338e-06  3.82322e+08
       719.10000  7.96338e-06  3.82322e+08
       719.20000  7.96338e-06  3.82322e+08
       719.30000  7.96338e-06  3.82322e+08
       719.40000  7.96338e-06  3.82402e+08
       719.50000  3.98225e-06  1.91228e+08
       719.60000  3.98225e-06  1.91267e+08
       719.70000  3.98225e-06  1.91267e+08
       719.80000  3.98225e-06  1.91307e+08
       719.90000  3.98225e-06  1.91347e+08
       720.00000  3.98225e-06  1.91427e+08
       720.10000  3.98225e-06  1.91467e+08
       720.20000  3.98225e-06  1.91506e+08
       720.30000  3.98225e-06  1.91586e+08
       720.40000  3.98225e-06  1.91626e+08
       720.50000  9.95458e-06  4.79214e+08
       720.60000  9.95458e-06  4.79413e+08
       720.70000  9.95458e-06  4.79612e+08
       720.80000  9.95458e-06  4.79811e+08
       720.90000  9.95458e-06  4.80110e+08
       721.00000  9.95458e-06  4.80309e+08
       721.10000  9.95458e-06  4.80806e+08
       721.20000  9.95458e-06  4.81304e+08
       721.30000  9.93432e-06  4.80821e+08
       721.40000  9.93432e-06  4.81219e+08
       721.50000  9.94026e-06  4.82003e+08
       721.60000  9.94026e-06  4.82401e+08
       721.70000  9.94026e-06  4.82798e+08
       721.80000  9.94026e-06  4.83295e+08
       721.90000  9.94026e-06  4.83693e+08
       722.00000  9.94026e-06  4.83991e+08
       722.10000  9.94026e-06  4.84389e+08
       722.20000  9.94026e-06  4.84786e+08
       722.30000  9.94026e-06  4.85085e+08
       722.40000  9.94026e-06  4.85383e+08
       722.50000  7.96413e-06  3.89127e+08
       722.60000  7.96413e-06  3.89446e+08
       722.70000  7.96413e-06  3.89605e+08
       722.80000  7.96413e-06  3.89844e+08
       722.90000  7.96413e-06  3.90083e+08
       723.00000  7.96413e-06  3.90242e+08
       723.10000  7.96413e-06  3.90481e+08
       723.20000  7.96413e-06  3.90640e+08
       723.30000  7.96413e-06  3.90800e+08
       723.40000  7.96413e-06  3.90959e+08
       723.50000  3.98211e-06  1.95562e+08
       723.60000  3.98211e-06  1.95601e+08
       723.70000  3.98211e-06  1.95681e+08
       723.80000  3.96990e-06  1.95120e+08
       723.90000  3.96990e-06  1.95160e+08
       724.00000  3.96990e-06  1.95200e+08
       724.10000  3.96990e-06  1.95239e+08
       724.20000  3.96990e-06  1.95279e+08
       724.30000  3.96990e-06  1.95319e+08
       724.40000  3.96990e-06  1.95359e+08
       724.50000  7.94391e-06  3.90920e+08
       724.60000  7.94391e-06  3.90920e+08
       724.70000  7.94391e-06  3.90920e+08
       724.80000  7.94391e-06  3.90920e+08
       724.90000  7.94391e-06  3.90920e+08
       725.00000  7.94391e-06  3.90920e+08
       725.10000  7.94391e-06  3.91079e+08
       725.20000  7.94391e-06  3.91238e+08
       725.30000  7.94391e-06  3.91317e+08
       725.40000  7.94391e-06  3.91476e+08
       725.50000  5.96361e-06  2.93946e+08
       725.60000  5.96361e-06  2.94006e+08
       725.70000  5.96361e-06  2.94006e+08
       725.80000  5.96361e-06  2.94065e+08
       725.90000  5.96361e-06  2.94065e+08
       726.00000  5.96361e-06  2.94065e+08
       726.10000  5.96361e-06  2.94065e+08
       726.20000  5.96361e-06  2.94065e+08
       726.30000  5.94809e-06  2.93241e+08
       726.40000  5.94809e-06  2.93181e+08
       726.50000  5.95322e-06  2.93375e+08
       726.60000  5.95322e-06  2.93315e+08
       726.70000  5.95322e-06  2.93256e+08
       726.80000  5.95322e-06  2.93136e+08
       726.90000  5.95322e-06  2.93017e+08
       727.00000  5.95322e-06  2.92898e+08
       727.10000  5.95322e-06  2.92482e+08
       727.20000  5.95322e-06  2.92065e+08
       727.30000  5.95322e-06  2.91648e+08
       727.40000  5.95322e-06  2.91291e+08
       727.50000  5.95247e-06  2.90897e+08
       727.60000  5.95247e-06  2.90540e+08
       727.70000  5.95247e-06  2.90242e+08
       727.80000  5.95247e-06  2.89945e+08
       727.90000  5.95247e-06  2.89647e+08
       728.00000  5.95247e-06  2.89409e+08
       728.10000  5.95247e-06  2.89171e+08
       728.20000  5.95247e-06  2.88933e+08
       728.30000  5.95247e-06  2.88695e+08
       728.40000  5.95247e-06  2.88516e+08
       728.50000  9.92404e-06  4.80721e+08
       728.60000  9.92404e-06  4.80522e+08
       728.70000  9.92404e-06  4.80225e+08
       728.80000  9.92614e-06  4.80226e+08
       728.90000  9.92614e-06  4.80028e+08
       729.00000  9.92614e-06  4.79929e+08
       729.10000  9.92614e-06  4.79829e+08
       729.20000  9.92614e-06  4.79730e+08
       729.30000  9.92614e-06  4.79730e+08
       729.40000  9.92614e-06  4.79631e+08
       729.50000  5.96393e-06  2.88237e+08
       729.60000  5.96393e-06  2.88237e+08
       729.70000  5.96393e-06  2.88296e+08
       729.80000  5.96393e-06  2.88356e+08
       729.90000  5.96393e-06  2.88475e+08
       730.00000  5.96393e-06  2.88594e+08
       730.10000  5.96393e-06  2.88714e+08
       730.20000  5.96393e-06  2.88833e+08
       730.30000  5.96393e-06  2.89012e+08
       730.40000  5.96393e-06  2.89191e+08
       730.50000  3.97721e-06  1.92974e+08
       730.60000  3.97721e-06  1.93134e+08
       730.70000  3.97721e-06  1.93293e+08
       730.80000  3.97721e-06  1.93452e+08
       730.90000  3.97721e-06  1.93651e+08
       731.00000  3.97721e-06  1.93849e+08
       731.10000  3.97721e-06  1.93810e+08
       731.20000  3.97721e-06  1.93770e+08
       731.30000  3.97429e-06  1.93588e+08
       731.40000  3.97429e-06  1.93588e+08
       731.50000  5.96419e-06  2.90456e+08
       731.60000  5.96419e-06  2.90396e+08
       731.70000  5.96419e-06  2.90337e+08
       731.80000  5.96419e-06  2.90337e+08
       731.90000  5.96419e-06  2.90277e+08
       732.00000  5.96419e-06  2.90217e+08
       732.10000  5.96419e-06  2.90158e+08
       732.20000  5.96419e-06  2.90098e+08
       732.30000  5.96419e-06  2.90098e+08
       732.40000  5.96419e-06  2.90038e+08
       732.50000  5.96945e-06  2.90235e+08
       732.60000  5.96945e-06  2.90175e+08
       732.70000  5.96945e-06  2.90115e+08
       732.80000  5.96945e-06  2.90056e+08
       732.90000  5.96945e-06  2.89996e+08
       733.00000  5.96945e-06  2.89936e+08
       733.10000  5.96945e-06  2.89877e+08
       733.20000  5.96945e-06  2.89757e+08
       733.30000  5.96945e-06  2.89698e+08
       733.40000  5.96945e-06  2.89578e+08
       733.50000  7.95968e-06  3.86045e+08
       733.60000  7.95968e-06  3.85965e+08
       733.70000  7.95968e-06  3.85806e+08
       733.80000  7.94654e-06  3.85089e+08
       733.90000  7.94654e-06  3.85010e+08
       734.00000  7.94654e-06  3.84930e+08
       734.10000  7.94654e-06  3.84851e+08
       734.20000  7.94654e-06  3.84771e+08
       734.30000  7.94654e-06  3.84692e+08
       734.40000  7.94654e-06  3.84692e+08
       734.50000  1.70818e-06  8.26757e+07
       734.60000  1.70818e-06  8.26586e+07
       734.70000  1.70818e-06  8.26586e+07
       734.80000  1.70818e-06  8.26416e+07
       734.90000  1.70818e-06  8.26416e+07
       735.00000  1.70818e-06  8.26245e+07
       735.10000  1.70818e-06  8.26245e+07
       735.20000  1.70818e-06  8.26245e+07
       735.30000  1.70818e-06  8.26245e+07
       735.40000  1.70818e-06  8.26074e+07
       735.50000  1.30385e-06  6.30541e+07
       735.60000  1.30385e-06  6.30541e+07
       735.70000  1.30385e-06  6.30541e+07
       735.80000  1.30385e-06  6.30671e+07
       735.90000  1.30385e-06  6.30671e+07
       736.00000  1.30385e-06  6.30671e+07
       736.10000  1.30385e-06  6.30671e+07
       736.20000  1.30385e-06  6.30801e+07
       736.30000  1.30136e-06  6.29597e+07
       736.40000  1.30136e-06  6.29727e+07
       736.50000  3.97489e-06  1.92345e+08
       736.60000  3.97489e-06  1.92385e+08
       736.70000  3.97489e-06  1.92425e+08
       736.80000  3.97489e-06  1.92425e+08
       736.90000  3.97489e-06  1.92464e+08
       737.00000  3.97489e-06  1.92504e+08
       737.10000  3.97489e-06  1.92305e+08
       737.20000  3.97489e-06  1.92067e+08
       737.30000  3.97489e-06  1.91868e+08
       737.40000  3.97489e-06  1.91669e+08
       737.50000  9.94390e-06  4.78898e+08
       737.60000  9.94390e-06  4.78401e+08
       737.70000  9.94390e-06  4.77904e+08
       737.80000  9.94390e-06  4.77407e+08
       737.90000  9.94390e-06  4.77009e+08
       738.00000  9.94390e-06  4.76512e+08
       738.10000  9.94390e-06  4.76015e+08
       738.20000  9.94390e-06  4.75517e+08
       738.30000  9.94390e-06  4.75120e+08
       738.40000  9.94390e-06  4.74722e+08
       738.50000  3.98173e-06  1.89889e+08
       738.60000  3.98173e-06  1.89729e+08
       738.70000  3.98173e-06  1.89570e+08
       738.80000  3.96500e-06  1.88615e+08
       738.90000  3.96500e-06  1.88456e+08
       739.00000  3.96500e-06  1.88298e+08
       741.00000  1.98553e-06  9.30619e+07
       741.10000  1.98553e-06  9.31016e+07
       741.20000  1.98553e-06  9.31413e+07
       741.30000  1.98418e-06  9.31176e+07
       741.40000  1.98418e-06  9.31772e+07
       741.50000  1.94602e-06  9.14433e+07
       741.60000  1.94602e-06  9.15212e+07
       741.70000  1.94602e-06  9.16185e+07
       741.80000  1.94602e-06  9.16963e+07
       741.90000  1.94602e-06  9.18131e+07
       742.00000  1.94602e-06  9.19104e+07
       742.10000  1.94602e-06  9.20271e+07
       742.20000  1.94602e-06  9.21634e+07
       742.30000  1.94602e-06  9.22996e+07
       742.40000  1.94602e-06  9.24358e+07
       742.50000  5.95454e-06  2.83317e+08
       742.60000  5.95454e-06  2.83793e+08
       742.70000  5.95454e-06  2.84329e+08
       742.80000  5.95454e-06  2.84865e+08
       742.90000  5.95454e-06  2.85461e+08
       743.00000  5.95454e-06  2.86056e+08
       743.10000  5.95454e-06  2.85937e+08
       743.20000  5.95454e-06  2.85878e+08
       743.30000  5.95454e-06  2.85818e+08
       743.40000  5.95454e-06  2.85699e+08
       743.50000  1.98743e-06  9.53368e+07
       743.60000  1.98743e-06  9.53169e+07
       743.70000  1.98743e-06  9.52971e+07
       743.80000  1.98654e-06  9.52346e+07
       743.90000  1.98654e-06  9.52148e+07
       744.00000  1.98654e-06  9.51949e+07
       744.10000  1.98654e-06  9.51949e+07
       744.20000  1.98654e-06  9.51750e+07
       744.30000  1.98654e-06  9.51750e+07
       744.40000  1.98654e-06  9.51750e+07
       744.50000  1.98704e-06  9.51790e+07
       744.60000  1.98704e-06  9.51790e+07
       744.70000  1.98704e-06  9.51790e+07
       744.80000  1.98704e-06  9.51790e+07
       744.90000  1.98704e-06  9.51989e+07
       745.00000  1.98704e-06  9.51989e+07
       745.10000  1.98704e-06  9.52585e+07
       745.20000  1.98704e-06  9.53181e+07
       745.30000  1.98704e-06  9.53578e+07
       745.40000  1.98704e-06  9.54174e+07
       745.50000  3.97540e-06  1.90978e+08
       745.60000  3.97540e-06  1.91058e+08
       745.70000  3.97540e-06  1.91137e+08
       745.80000  3.97540e-06  1.91217e+08
       745.90000  3.97540e-06  1.91256e+08
       746.00000  3.97540e-06  1.91336e+08
       746.10000  3.97540e-06  1.91376e+08
       746.20000  3.97540e-06  1.91415e+08
       746.30000  3.95727e-06  1.90582e+08
       746.40000  3.95727e-06  1.90622e+08
       746.50000  9.90546e-06  4.77245e+08
       746.60000  9.90546e-06  4.77245e+08
       746.70000  9.90546e-06  4.77344e+08
       746.80000  9.90546e-06  4.77344e+08
       746.90000  9.90546e-06  4.77344e+08
       747.00000  9.90546e-06  4.77344e+08
       747.10000  9.90546e-06  4.77047e+08
       747.20000  9.90546e-06  4.76849e+08
       747.30000  9.90546e-06  4.76651e+08
       747.40000  9.90546e-06  4.76453e+08
       747.50000  1.98200e-06  9.52947e+07
       747.60000  1.98200e-06  9.52550e+07
       747.70000  1.98200e-06  9.52154e+07
       747.80000  1.98200e-06  9.51757e+07
       747.90000  1.98200e-06  9.51361e+07
       748.00000  1.98200e-06  9.50965e+07
       750.00000  3.95596e-06  1.88779e+08
       750.10000  3.95596e-06  1.88739e+08
       750.20000  3.95596e-06  1.88699e+08
       750.30000  3.95596e-06  1.88660e+08
       750.40000  3.95596e-06  1.88660e+08
       750.50000  7.91042e-06  3.77169e+08
       750.60000  7.91042e-06  3.77090e+08
       750.70000  7.91042e-06  3.77090e+08
       750.80000  7.91042e-06  3.77011e+08
       750.90000  7.91042e-06  3.77011e+08
       751.00000  7.91042e-06  3.76932e+08
       751.10000  7.91042e-06  3.76932e+08
       751.20000  7.91042e-06  3.76932e+08
       751.30000  7.89272e-06  3.76009e+08
       751.40000  7.89272e-06  3.76009e+08
       751.50000  1.96482e-06  9.36040e+07
       751.60000  1.96482e-06  9.36040e+07
       751.70000  1.96482e-06  9.36040e+07
       751.80000  1.96482e-06  9.36040e+07
       751.90000  1.96482e-06  9.36040e+07
       752.00000  1.96482e-06  9.36040e+07
       752.10000  1.96482e-06  9.36040e+07
       752.20000  1.96482e-06  9.36040e+07
       752.30000  1.96482e-06  9.36040e+07
       752.40000  1.96482e-06  9.36040e+07
       752.50000  5.86949e-06  2.79681e+08
       752.60000  5.86949e-06  2.79681e+08
       752.70000  5.86949e-06  2.79681e+08
       752.80000  5.86949e-06  2.79740e+08
       752.90000  5.86949e-06  2.79740e+08
       753.00000  5.86949e-06  2.79798e+08
       755.00000  5.81090e-06  2.76831e+08
       755.10000  5.81090e-06  2.76773e+08
       755.20000  5.81090e-06  2.76773e+08
       755.30000  5.81090e-06  2.76715e+08
       755.40000  5.81090e-06  2.76715e+08
       755.50000  7.70554e-06  3.66861e+08
       755.60000  7.70554e-06  3.66784e+08
       755.70000  7.70554e-06  3.66784e+08
       755.80000  7.70554e-06  3.66707e+08
       755.90000  7.70554e-06  3.66630e+08
       756.00000  7.70554e-06  3.66630e+08
       756.10000  7.70554e-06  3.66553e+08
       756.20000  7.70554e-06  3.66476e+08
       756.30000  7.69326e-06  3.65815e+08
       756.40000  7.69326e-06  3.65815e+08
       756.50000  3.82851e-06  1.82008e+08
       756.60000  3.82851e-06  1.81969e+08
       756.70000  3.82851e-06  1.81931e+08
       756.80000  3.82851e-06  1.81931e+08
       756.90000  3.82851e-06  1.81893e+08
       757.00000  3.82851e-06  1.81854e+08
       757.10000  3.82851e-06  1.81816e+08
       757.20000  3.82851e-06  1.81778e+08
       757.30000  3.82851e-06  1.81778e+08
       757.40000  3.82851e-06  1.81740e+08
       757.50000  1.57201e-07  7.46076e+06
       757.60000  1.57201e-07  7.45919e+06
       757.70000  1.57201e-07  7.45762e+06
       757.80000  1.57201e-07  7.45605e+06
       757.90000  1.57201e-07  7.45448e+06
       758.00000  1.57201e-07  7.45448e+06
       758.10000  1.57201e-07  7.45290e+06
       758.20000  1.57201e-07  7.45133e+06
       758.30000  1.57201e-07  7.44976e+06
       758.40000  1.57201e-07  7.44819e+06
       758.50000  9.48114e-06  4.49122e+08
       758.60000  9.48114e-06  4.49027e+08
       758.70000  9.48114e-06  4.48932e+08
       758.80000  9.45556e-06  4.47626e+08
       758.90000  9.45556e-06  4.47532e+08
       759.00000  9.45556e-06  4.47437e+08
       759.10000  9.45556e-06  4.47437e+08
       759.20000  9.45556e-06  4.47342e+08
       759.30000  9.45556e-06  4.47342e+08
       759.40000  9.45556e-06  4.47248e+08
       759.50000  3.76476e-06  1.78073e+08
       759.60000  3.76476e-06  1.78073e+08
       759.70000  3.76476e-06  1.78035e+08
       759.80000  3.76476e-06  1.78035e+08
       759.90000  3.76476e-06  1.78035e+08
       760.00000  3.76476e-06  1.78035e+08
       760.10000  3.76476e-06  1.78035e+08
       760.20000  3.76476e-06  1.78035e+08
       760.30000  3.76476e-06  1.78073e+08
       760.40000  3.76476e-06  1.78073e+08
       760.50000  9.31034e-07  4.40379e+07
       760.60000  9.31034e-07  4.40472e+07
       760.70000  9.31034e-07  4.40472e+07
       760.80000  9.31034e-07  4.40565e+07
       760.90000  9.31034e-07  4.40565e+07
       761.00000  9.31034e-07  4.40659e+07
       763.00000  7.40115e-06  3.52369e+08
       763.10000  7.40115e-06  3.52295e+08
       763.20000  7.40115e-06  3.52221e+08
       763.30000  7.40115e-06  3.52073e+08
       763.40000  7.40115e-06  3.51925e+08
       763.50000  5.52608e-06  2.62655e+08
       763.60000  5.52608e-06  2.62544e+08
       763.70000  5.52608e-06  2.62434e+08
       763.80000  5.51194e-06  2.61596e+08
       763.90000  5.51194e-06  2.61431e+08
       764.00000  5.51194e-06  2.61266e+08
       764.10000  5.51194e-06  2.61100e+08
       764.20000  5.51194e-06  2.60880e+08
       764.30000  5.51194e-06  2.60659e+08
       764.40000  5.51194e-06  2.60439e+08
       764.50000  3.65672e-06  1.72634e+08
       764.60000  3.65672e-06  1.72488e+08
       764.70000  3.65672e-06  1.72305e+08
       764.80000  3.65672e-06  1.72122e+08
       764.90000  3.65672e-06  1.71939e+08
       765.00000  3.65672e-06  1.71720e+08
       765.10000  3.65672e-06  1.71317e+08
       765.20000  3.65672e-06  1.70915e+08
       765.30000  3.65672e-06  1.70549e+08
       765.40000  3.65672e-06  1.70184e+08
       765.50000  1.82080e-06  8.45764e+07
       765.60000  1.82080e-06  8.44307e+07
       765.70000  1.82080e-06  8.42668e+07
       765.80000  1.82080e-06  8.41394e+07
       765.90000  1.82080e-06  8.40119e+07
       766.00000  1.82080e-06  8.38844e+07
       766.10000  1.82080e-06  8.37752e+07
       766.20000  1.82080e-06  8.36660e+07
       766.30000  1.82076e-06  8.35727e+07
       766.40000  1.82076e-06  8.34998e+07
       766.50000  5.42821e-06  2.48721e+08
       766.60000  5.42821e-06  2.48504e+08
       766.70000  5.42821e-06  2.48395e+08
       766.80000  5.42821e-06  2.48232e+08
       766.90000  5.42821e-06  2.48124e+08
       767.00000  5.42821e-06  2.48069e+08
       767.10000  5.42821e-06  2.48341e+08
       767.20000  5.42821e-06  2.48666e+08
       767.30000  5.42821e-06  2.48938e+08
       767.40000  5.42821e-06  2.49209e+08
       767.50000  5.40310e-06  2.48327e+08
       767.60000  5.40310e-06  2.48597e+08
       767.70000  5.40310e-06  2.48867e+08
       767.80000  5.40310e-06  2.49083e+08
       767.90000  5.40310e-06  2.49353e+08
       768.00000  5.40310e-06  2.49569e+08
       768.10000  5.40310e-06  2.49785e+08
       768.20000  5.40310e-06  2.50002e+08
       768.30000  5.40310e-06  2.50164e+08
       768.40000  5.40310e-06  2.50380e+08
       768.50000  7.16479e-06  3.32231e+08
       768.60000  7.16479e-06  3.32446e+08
       768.70000  7.16479e-06  3.32661e+08
       768.80000  7.16098e-06  3.32699e+08
       768.90000  7.16098e-06  3.32914e+08
       769.00000  7.16098e-06  3.33057e+08
       769.10000  7.16098e-06  3.33272e+08
       769.20000  7.16098e-06  3.33415e+08
       769.30000  7.16098e-06  3.33559e+08
       769.40000  7.16098e-06  3.33702e+08
       769.50000  3.56254e-06  1.66050e+08
       769.60000  3.56254e-06  1.66121e+08
       769.70000  3.56254e-06  1.66157e+08
       769.80000  3.56254e-06  1.66228e+08
       769.90000  3.56254e-06  1.66264e+08
       770.00000  3.56254e-06  1.66264e+08
       770.10000  3.56254e-06  1.66299e+08
       770.20000  3.56254e-06  1.66335e+08
       770.30000  3.56254e-06  1.66335e+08
       770.40000  3.56254e-06  1.66335e+08
       770.50000  5.31285e-06  2.48057e+08
       770.60000  5.31285e-06  2.48057e+08
       770.70000  5.31285e-06  2.48057e+08
       770.80000  5.31285e-06  2.48057e+08
       770.90000  5.31285e-06  2.48004e+08
       771.00000  5.31285e-06  2.47951e+08
       771.10000  5.31285e-06  2.48163e+08
       771.20000  5.31285e-06  2.48323e+08
       771.30000  5.29660e-06  2.47722e+08
       771.40000  5.29660e-06  2.47881e+08
       771.50000  1.05404e-05  4.93608e+08
       771.60000  1.05404e-05  4.93819e+08
       771.70000  1.05404e-05  4.94135e+08
       771.80000  1.05404e-05  4.94346e+08
       771.90000  1.05404e-05  4.94452e+08
       772.00000  1.05404e-05  4.94662e+08
       772.10000  1.05404e-05  4.94768e+08
       772.20000  1.05404e-05  4.94873e+08
       772.30000  1.05404e-05  4.94979e+08
       772.40000  1.05404e-05  4.95084e+08
       772.50000  3.49736e-06  1.64271e+08
       772.60000  3.49736e-06  1.64271e+08
       772.70000  3.49736e-06  1.64271e+08
       772.80000  3.49736e-06  1.64236e+08
       772.90000  3.49736e-06  1.64236e+08
       773.00000  3.49736e-06  1.64201e+08
       773.10000  3.49736e-06  1.63991e+08
       773.20000  3.49736e-06  1.63816e+08
       773.30000  3.49736e-06  1.63606e+08
       773.40000  3.49736e-06  1.63431e+08
       773.50000  6.95708e-06  3.24757e+08
       773.60000  6.95708e-06  3.24478e+08
       773.70000  6.95708e-06  3.24200e+08
       773.80000  6.92956e-06  3.22640e+08
       773.90000  6.92956e-06  3.22363e+08
       774.00000  6.92956e-06  3.22086e+08
       774.10000  6.92956e-06  3.21878e+08
       774.20000  6.92956e-06  3.21670e+08
       774.30000  6.92956e-06  3.21531e+08
       774.40000  6.92956e-06  3.21324e+08
       774.50000  1.72303e-06  7.98624e+07
       774.60000  1.72303e-06  7.98452e+07
       774.70000  1.72303e-06  7.98107e+07
       774.80000  1.72303e-06  7.97935e+07
       774.90000  1.72303e-06  7.97763e+07
       775.00000  1.72303e-06  7.97590e+07
       775.10000  1.72303e-06  7.97590e+07
       775.20000  1.72303e-06  7.97590e+07
       775.30000  1.72303e-06  7.97590e+07
       775.40000  1.72303e-06  7.97590e+07
       775.50000  6.85526e-06  3.17398e+08
       775.60000  6.85526e-06  3.17467e+08
       775.70000  6.85526e-06  3.17536e+08
       775.80000  6.85526e-06  3.17604e+08
       775.90000  6.85526e-06  3.17741e+08
       776.00000  6.85526e-06  3.17878e+08
       776.10000  6.85526e-06  3.18015e+08
       776.20000  6.85526e-06  3.18221e+08
       776.30000  6.83788e-06  3.17619e+08
       776.40000  6.83788e-06  3.17825e+08
       776.50000  8.50106e-06  3.95384e+08
       776.60000  8.50106e-06  3.95724e+08
       776.70000  8.50106e-06  3.96064e+08
       776.80000  8.50106e-06  3.96404e+08
       776.90000  8.50106e-06  3.96830e+08
       777.00000  8.50106e-06  3.97170e+08
       777.10000  8.50106e-06  3.97000e+08
       777.20000  8.50106e-06  3.96915e+08
       777.30000  8.50106e-06  3.96745e+08
       777.40000  8.50106e-06  3.96575e+08
       777.50000  3.38454e-06  1.57821e+08
       777.60000  3.38454e-06  1.57787e+08
       777.70000  3.38454e-06  1.57720e+08
       777.80000  3.38454e-06  1.57686e+08
       777.90000  3.38454e-06  1.57652e+08
       778.00000  3.38454e-06  1.57584e+08
       778.10000  3.38454e-06  1.57551e+08
       778.20000  3.38454e-06  1.57517e+08
       778.30000  3.38454e-06  1.57483e+08
       778.40000  3.38454e-06  1.57449e+08
       778.50000  6.73146e-06  3.13148e+08
       778.60000  6.73146e-06  3.13080e+08
       778.70000  6.73146e-06  3.13013e+08
       778.80000  6.71441e-06  3.12220e+08
       778.90000  6.71441e-06  3.12220e+08
       779.00000  6.71441e-06  3.12153e+08
       779.10000  6.71441e-06  3.12287e+08
       779.20000  6.71441e-06  3.12354e+08
       779.30000  6.71441e-06  3.12489e+08
       779.40000  6.71441e-06  3.12556e+08
       779.50000  6.66881e-06  3.10500e+08
       779.60000  6.66881e-06  3.10566e+08
       779.70000  6.66881e-06  3.10633e+08
       779.80000  6.66881e-06  3.10700e+08
       779.90000  6.66881e-06  3.10767e+08
       780.00000  6.66881e-06  3.10833e+08
       780.10000  6.66881e-06  3.10833e+08
       780.20000  6.66881e-06  3.10900e+08
       780.30000  6.66881e-06  3.10900e+08
       780.40000  6.66881e-06  3.10900e+08
       780.50000  9.95340e-06  4.64027e+08
       780.60000  9.95340e-06  4.64027e+08
       780.70000  9.95340e-06  4.64027e+08
       780.80000  9.95340e-06  4.64027e+08
       780.90000  9.95340e-06  4.64027e+08
       781.00000  9.95340e-06  4.63928e+08
       781.10000  9.95340e-06  4.63928e+08
       781.20000  9.95340e-06  4.63828e+08
       781.30000  9.89806e-06  4.61151e+08
       781.40000  9.89806e-06  4.61052e+08
       781.50000  4.92367e-06  2.29295e+08
       781.60000  4.92367e-06  2.29246e+08
       781.70000  4.92367e-06  2.29197e+08
       781.80000  4.92367e-06  2.29148e+08
       781.90000  4.92367e-06  2.29049e+08
       782.00000  4.92367e-06  2.29000e+08
       782.10000  4.92367e-06  2.28901e+08
       782.20000  4.92367e-06  2.28803e+08
       782.30000  4.92367e-06  2.28754e+08
       782.40000  4.92367e-06  2.28655e+08
       782.50000  4.89853e-06  2.27390e+08
       782.60000  4.89853e-06  2.27243e+08
       782.70000  4.89853e-06  2.27145e+08
       782.80000  4.89853e-06  2.27047e+08
       782.90000  4.89853e-06  2.26900e+08
       783.00000  4.89853e-06  2.26802e+08
       783.10000  4.89853e-06  2.26900e+08
       783.20000  4.89853e-06  2.26998e+08
       783.30000  4.89853e-06  2.27096e+08
       783.40000  4.89853e-06  2.27145e+08
       783.50000  3.24386e-06  1.50482e+08
       783.60000  3.24386e-06  1.50547e+08
       783.70000  3.24386e-06  1.50580e+08
       783.80000  3.22732e-06  1.49877e+08
       783.90000  3.22732e-06  1.49941e+08
       784.00000  3.22732e-06  1.49974e+08
       784.10000  3.22732e-06  1.50006e+08
       784.20000  3.22732e-06  1.50070e+08
       784.30000  3.22732e-06  1.50103e+08
       784.40000  3.22732e-06  1.50135e+08
       784.50000  6.42433e-06  2.98924e+08
       784.60000  6.42433e-06  2.98988e+08
       784.70000  6.42433e-06  2.99053e+08
       784.80000  6.42433e-06  2.99117e+08
       784.90000  6.42433e-06  2.99181e+08
       785.00000  6.42433e-06  2.99181e+08
       785.10000  6.42433e-06  2.99181e+08
       785.20000  6.42433e-06  2.99181e+08
       785.30000  6.42433e-06  2.99181e+08
       785.40000  6.42433e-06  2.99181e+08
       785.50000  4.79264e-06  2.23193e+08
       785.60000  4.79264e-06  2.23193e+08
       785.70000  4.79264e-06  2.23193e+08
       785.80000  4.79264e-06  2.23193e+08
       785.90000  4.79264e-06  2.23193e+08
       786.00000  4.79264e-06  2.23193e+08
       786.10000  4.79264e-06  2.23193e+08
       786.20000  4.79264e-06  2.23193e+08
       786.30000  4.78461e-06  2.22819e+08
       786.40000  4.78461e-06  2.22819e+08
       786.50000  4.75498e-06  2.21439e+08
       786.60000  4.75498e-06  2.21439e+08
       786.70000  4.75498e-06  2.21439e+08
       786.80000  4.75498e-06  2.21439e+08
       786.90000  4.75498e-06  2.21439e+08
       787.00000  4.75498e-06  2.21439e+08
       787.10000  4.75498e-06  2.21439e+08
       787.20000  4.75498e-06  2.21439e+08
       787.30000  4.75498e-06  2.21439e+08
       787.40000  4.75498e-06  2.21439e+08
       787.50000  3.15842e-06  1.47088e+08
       787.60000  3.15842e-06  1.47088e+08
       787.70000  3.15842e-06  1.47088e+08
       787.80000  3.15842e-06  1.47088e+08
       787.90000  3.15842e-06  1.47088e+08
       788.00000  3.15842e-06  1.47088e+08
       788.10000  3.15842e-06  1.47088e+08
       788.20000  3.15842e-06  1.47088e+08
       788.30000  3.15842e-06  1.47088e+08
       788.40000  3.15842e-06  1.47088e+08
       788.50000  3.13090e-06  1.45806e+08
       788.60000  3.13090e-06  1.45806e+08
       788.70000  3.13090e-06  1.45806e+08
       788.80000  3.13144e-06  1.45831e+08
       788.90000  3.13144e-06  1.45831e+08
       789.00000  3.13144e-06  1.45831e+08
       789.10000  3.13144e-06  1.45769e+08
       789.20000  3.13144e-06  1.45675e+08
       789.30000  3.13144e-06  1.45581e+08
       789.40000  3.13144e-06  1.45518e+08
       789.50000  7.79589e-06  3.62041e+08
       789.60000  7.79589e-06  3.61807e+08
       789.70000  7.79589e-06  3.61651e+08
       789.80000  7.79589e-06  3.61417e+08
       789.90000  7.79589e-06  3.61183e+08
       790.00000  7.79589e-06  3.61027e+08
       790.10000  7.79589e-06  3.60794e+08
       790.20000  7.79589e-06  3.60638e+08
       790.30000  7.79589e-06  3.60404e+08
       790.40000  7.79589e-06  3.60248e+08
       790.50000  6.19385e-06  2.86032e+08
       790.60000  6.19385e-06  2.85846e+08
       790.70000  6.19385e-06  2.85722e+08
       790.80000  6.19385e-06  2.85537e+08
       790.90000  6.19385e-06  2.85413e+08
       791.00000  6.19385e-06  2.85227e+08
       791.10000  6.19385e-06  2.85041e+08
       791.20000  6.19385e-06  2.84917e+08
       791.30000  6.17580e-06  2.83902e+08
       791.40000  6.17580e-06  2.83716e+08
       791.50000  3.06904e-06  1.40899e+08
       791.60000  3.06904e-06  1.40807e+08
       791.70000  3.06904e-06  1.40746e+08
       791.80000  3.06904e-06  1.40654e+08
       791.90000  3.06904e-06  1.40593e+08
       792.00000  3.06904e-06  1.40500e+08
       792.10000  3.06904e-06  1.40439e+08
       792.20000  3.06904e-06  1.40378e+08
       792.30000  3.06904e-06  1.40286e+08
       792.40000  3.06904e-06  1.40224e+08
       792.50000  6.10191e-06  2.78674e+08
       792.60000  6.10191e-06  2.78552e+08
       792.70000  6.10191e-06  2.78430e+08
       792.80000  6.10191e-06  2.78308e+08
       792.90000  6.10191e-06  2.78186e+08
       793.00000  6.10191e-06  2.78064e+08
       793.10000  6.10191e-06  2.77881e+08
       793.20000  6.10191e-06  2.77637e+08
       793.30000  6.10191e-06  2.77454e+08
       793.40000  6.10191e-06  2.77271e+08
       793.50000  6.06441e-06  2.75385e+08
       793.60000  6.06441e-06  2.75264e+08
       793.70000  6.06441e-06  2.75082e+08
       793.80000  6.04711e-06  2.74236e+08
       793.90000  6.04711e-06  2.74115e+08
       794.00000  6.04711e-06  2.74055e+08
       794.10000  6.04711e-06  2.73934e+08
       794.20000  6.04711e-06  2.73934e+08
       794.30000  6.04711e-06  2.73874e+08
       794.40000  6.04711e-06  2.73874e+08
       794.50000  7.51275e-06  3.40252e+08
       794.60000  7.51275e-06  3.40252e+08
       794.70000  7.51275e-06  3.40327e+08
       794.80000  7.51275e-06  3.40327e+08
       794.90000  7.51275e-06  3.40403e+08
       795.00000  7.51275e-06  3.40553e+08
       795.10000  7.51275e-06  3.41079e+08
       795.20000  7.51275e-06  3.41605e+08
       795.30000  7.51275e-06  3.42130e+08
       795.40000  7.51275e-06  3.42656e+08
       795.50000  1.37871e-06  6.29656e+07
       795.60000  1.37871e-06  6.30483e+07
       795.70000  1.37871e-06  6.31172e+07
       795.80000  1.37871e-06  6.31862e+07
       795.90000  1.37871e-06  6.32551e+07
       796.00000  1.37871e-06  6.33102e+07
       796.10000  1.37871e-06  6.33654e+07
       796.20000  1.37871e-06  6.34205e+07
       796.30000  1.37687e-06  6.33774e+07
       796.40000  1.37687e-06  6.34188e+07
       796.50000  2.96219e-06  1.36527e+08
       796.60000  2.96219e-06  1.36587e+08
       796.70000  2.96219e-06  1.36646e+08
       796.80000  2.96219e-06  1.36676e+08
       796.90000  2.96219e-06  1.36705e+08
       797.00000  2.96219e-06  1.36735e+08
       797.10000  2.96219e-06  1.36764e+08
       797.20000  2.96219e-06  1.36764e+08
       797.30000  2.96219e-06  1.36764e+08
       797.40000  2.96219e-06  1.36735e+08
       797.50000  4.42045e-06  2.04004e+08
       797.60000  4.42045e-06  2.03960e+08
       797.70000  4.42045e-06  2.03871e+08
       797.80000  4.42045e-06  2.03783e+08
       797.90000  4.42045e-06  2.03694e+08
       798.00000  4.42045e-06  2.03562e+08
       798.10000  4.42045e-06  2.03429e+08
       798.20000  4.42045e-06  2.03297e+08
       798.30000  4.42045e-06  2.03120e+08
       798.40000  4.42045e-06  2.02943e+08
       798.50000  2.92659e-06  1.34243e+08
       798.60000  2.92659e-06  1.34096e+08
       798.70000  2.92659e-06  1.33950e+08
       798.80000  2.91990e-06  1.33498e+08
       798.90000  2.91990e-06  1.33323e+08
       799.00000  2.91990e-06  1.33148e+08
       799.10000  2.91990e-06  1.33235e+08
       799.20000  2.91990e-06  1.33352e+08
       799.30000  2.91990e-06  1.33469e+08
       799.40000  2.91990e-06  1.33556e+08
       799.50000  0.000111741  5.11437e+09
       799.60000  0.000111741  5.11772e+09
       799.70000  0.000111741  5.12107e+09
       799.80000  0.000111741  5.12330e+09
       799.90000  0.000111741  5.12554e+09
       800.00000  0.000111741  5.12777e+09
       800.10000  0.000111741  5.13001e+09
       800.20000  0.000111741  5.13224e+09
       800.30000  0.000111741  5.13448e+09
       800.40000  0.000111741  5.13560e+09
       800.50000  0.000119746  5.50471e+09
       800.60000  0.000119746  5.50591e+09
       800.70000  0.000119746  5.50591e+09
       800.80000  0.000119746  5.50711e+09
       800.90000  0.000119746  5.50711e+09
       801.00000  0.000119746  5.50711e+09
       801.10000  0.000119746  5.50471e+09
       801.20000  0.000119746  5.50232e+09
       801.30000  0.000119394  5.48378e+09
       801.40000  0.000119394  5.48139e+09
       801.50000  8.87186e-05  4.07130e+09
       801.60000  8.87186e-05  4.06952e+09
       801.70000  8.87186e-05  4.06775e+09
       801.80000  8.87186e-05  4.06597e+09
       801.90000  8.87186e-05  4.06420e+09
       802.00000  8.87186e-05  4.06242e+09
       802.10000  8.87186e-05  4.06065e+09
       802.20000  8.87186e-05  4.05887e+09
       802.30000  8.87186e-05  4.05710e+09
       802.40000  8.87186e-05  4.05533e+09
       802.50000  8.81386e-05  4.02705e+09
       802.60000  8.81386e-05  4.02529e+09
       802.70000  8.81386e-05  4.02353e+09
       802.80000  8.81386e-05  4.02088e+09
       802.90000  8.81386e-05  4.01912e+09
       803.00000  8.81386e-05  4.01736e+09
       803.10000  8.81386e-05  4.01559e+09
       803.20000  8.81386e-05  4.01383e+09
       803.30000  8.81386e-05  4.01207e+09
       803.40000  8.81386e-05  4.00942e+09
       803.50000  0.000100154  4.55399e+09
       803.60000  0.000100154  4.55199e+09
       803.70000  0.000100154  4.54999e+09
       803.80000  9.98426e-05  4.53385e+09
       803.90000  9.98426e-05  4.53086e+09
       804.00000  9.98426e-05  4.52886e+09
       804.10000  9.98426e-05  4.52687e+09
       804.20000  9.98426e-05  4.52487e+09
       804.30000  9.98426e-05  4.52187e+09
       804.40000  9.98426e-05  4.51988e+09
       804.50000  8.54426e-05  3.86628e+09
       804.60000  8.54426e-05  3.86371e+09
       804.70000  8.54426e-05  3.86200e+09
       804.80000  8.54426e-05  3.86029e+09
       804.90000  8.54426e-05  3.85773e+09
       805.00000  8.54426e-05  3.85602e+09
       805.10000  8.54426e-05  3.85944e+09
       805.20000  8.54426e-05  3.86371e+09
       805.30000  8.54426e-05  3.86628e+09
       805.40000  8.54426e-05  3.86969e+09
       805.50000  0.000105578  4.78480e+09
       805.60000  0.000105578  4.78796e+09
       805.70000  0.000105578  4.79113e+09
       805.80000  0.000105578  4.79324e+09
       805.90000  0.000105578  4.79535e+09
       806.00000  0.000105578  4.79747e+09
       806.10000  0.000105578  4.79852e+09
       806.20000  0.000105578  4.79958e+09
       806.30000  0.000105372  4.79125e+09
       806.40000  0.000105372  4.79230e+09
       806.50000  0.000104590  4.75676e+09
       806.60000  0.000104590  4.75676e+09
       806.70000  0.000104590  4.75571e+09
       806.80000  0.000104590  4.75571e+09
       806.90000  0.000104590  4.75467e+09
       807.00000  0.000104590  4.75258e+09
       807.10000  0.000104590  4.74421e+09
       807.20000  0.000104590  4.73480e+09
       807.30000  0.000104590  4.72643e+09
       807.40000  0.000104590  4.71911e+09
       807.50000  0.000101230  4.56040e+09
       807.60000  0.000101230  4.55331e+09
       807.70000  0.000101230  4.54724e+09
       807.80000  0.000101230  4.54218e+09
       807.90000  0.000101230  4.53712e+09
       808.00000  0.000101230  4.53206e+09
       808.10000  0.000101230  4.52801e+09
       808.20000  0.000101230  4.52396e+09
       808.30000  0.000101230  4.51991e+09
       808.40000  0.000101230  4.51687e+09
       808.50000  9.37593e-05  4.18166e+09
       808.60000  9.37593e-05  4.17979e+09
       808.70000  9.37593e-05  4.17791e+09
       808.80000  9.36706e-05  4.17303e+09
       808.90000  9.36706e-05  4.17209e+09
       809.00000  9.36706e-05  4.17209e+09
       809.10000  9.36706e-05  4.17209e+09
       809.20000  9.36706e-05  4.17303e+09
       809.30000  9.36706e-05  4.17396e+09
       809.40000  9.36706e-05  4.17490e+09
       809.50000  9.84219e-05  4.38863e+09
       809.60000  9.84219e-05  4.39158e+09
       809.70000  9.84219e-05  4.39454e+09
       809.80000  9.84219e-05  4.39749e+09
       809.90000  9.84219e-05  4.40143e+09
       810.00000  9.84219e-05  4.40536e+09
       810.10000  9.84219e-05  4.41028e+09
       810.20000  9.84219e-05  4.41520e+09
       810.30000  9.84219e-05  4.42013e+09
       810.40000  9.84219e-05  4.42603e+09
       810.50000  9.24843e-05  4.16549e+09
       810.60000  9.24843e-05  4.17104e+09
       810.70000  9.24843e-05  4.17844e+09
       810.80000  9.24843e-05  4.18584e+09
       810.90000  9.24843e-05  4.19324e+09
       811.00000  9.24843e-05  4.20156e+09
       811.10000  9.24843e-05  4.20249e+09
       811.20000  9.24843e-05  4.20434e+09
       811.30000  9.24234e-05  4.20249e+09
       811.40000  9.24234e-05  4.20434e+09
       811.50000  7.32177e-05  3.33140e+09
       811.60000  7.32177e-05  3.33214e+09
       811.70000  7.32177e-05  3.33287e+09
       811.80000  7.32177e-05  3.33360e+09
       811.90000  7.32177e-05  3.33433e+09
       812.00000  7.32177e-05  3.33507e+09
       812.10000  7.32177e-05  3.33507e+09
       812.20000  7.32177e-05  3.33580e+09
       812.30000  7.32177e-05  3.33653e+09
       812.40000  7.32177e-05  3.33653e+09
       812.50000  8.59142e-05  3.91511e+09
       812.60000  8.59142e-05  3.91597e+09
       812.70000  8.59142e-05  3.91597e+09
       812.80000  8.59142e-05  3.91597e+09
       812.90000  8.59142e-05  3.91597e+09
       813.00000  8.59142e-05  3.91597e+09
       813.10000  8.59142e-05  3.91425e+09
       813.20000  8.59142e-05  3.91339e+09
       813.30000  8.59142e-05  3.91167e+09
       813.40000  8.59142e-05  3.91081e+09
       813.50000  9.44923e-05  4.29940e+09
       813.60000  9.44923e-05  4.29845e+09
       813.70000  9.44923e-05  4.29751e+09
       813.80000  9.44819e-05  4.29609e+09
       813.90000  9.44819e-05  4.29515e+09
       814.00000  9.44819e-05  4.29326e+09
       814.10000  9.44819e-05  4.29231e+09
       814.20000  9.44819e-05  4.29137e+09
       814.30000  9.44819e-05  4.29042e+09
       814.40000  9.44819e-05  4.29042e+09
       814.50000  9.10661e-05  4.13440e+09
       814.60000  9.10661e-05  4.13349e+09
       814.70000  9.10661e-05  4.13258e+09
       814.80000  9.10661e-05  4.13167e+09
       814.90000  9.10661e-05  4.13167e+09
       815.00000  9.10661e-05  4.13076e+09
       815.10000  9.10661e-05  4.13440e+09
       815.20000  9.10661e-05  4.13713e+09
       815.30000  9.10661e-05  4.13987e+09
       815.40000  9.10661e-05  4.14169e+09
       815.50000  0.000129109  5.87576e+09
       815.60000  0.000129109  5.87705e+09
       815.70000  0.000129109  5.87963e+09
       815.80000  0.000129109  5.87963e+09
       815.90000  0.000129109  5.88092e+09
       816.00000  0.000129109  5.88092e+09
       816.10000  0.000129109  5.88092e+09
       816.20000  0.000129109  5.87963e+09
       816.30000  0.000129106  5.87818e+09
       816.40000  0.000129106  5.87689e+09
       816.50000  9.63489e-05  4.38388e+09
       816.60000  9.63489e-05  4.38195e+09
       816.70000  9.63489e-05  4.37906e+09
       816.80000  9.63489e-05  4.37617e+09
       816.90000  9.63489e-05  4.37328e+09
       817.00000  9.63489e-05  4.36942e+09
       817.10000  9.63489e-05  4.35594e+09
       817.20000  9.63489e-05  4.34341e+09
       817.30000  9.63489e-05  4.33185e+09
       817.40000  9.63489e-05  4.32029e+09
       817.50000  9.17873e-05  4.10565e+09
       817.60000  9.17873e-05  4.09647e+09
       817.70000  9.17873e-05  4.08729e+09
       817.80000  9.17873e-05  4.07811e+09
       817.90000  9.17873e-05  4.07077e+09
       818.00000  9.17873e-05  4.06250e+09
       818.10000  9.17873e-05  4.05608e+09
       818.20000  9.17873e-05  4.04966e+09
       818.30000  9.17873e-05  4.04323e+09
       818.40000  9.17873e-05  4.03864e+09
       818.50000  0.000103967  4.56832e+09
       818.60000  0.000103967  4.56416e+09
       818.70000  0.000103967  4.56000e+09
       818.80000  0.000103951  4.55515e+09
       818.90000  0.000103951  4.55307e+09
       819.00000  0.000103951  4.54995e+09
       819.10000  0.000103951  4.54891e+09
       819.20000  0.000103951  4.54787e+09
       819.30000  0.000103951  4.54683e+09
       819.40000  0.000103951  4.54683e+09
       819.50000  9.04218e-05  3.95595e+09
       819.60000  9.04218e-05  3.95686e+09
       819.70000  9.04218e-05  3.95866e+09
       819.80000  9.04218e-05  3.96138e+09
       819.90000  9.04218e-05  3.96409e+09
       820.00000  9.04218e-05  3.96771e+09
       820.10000  9.04218e-05  3.97132e+09
       820.20000  9.04218e-05  3.97584e+09
       820.30000  9.04218e-05  3.98127e+09
       820.40000  9.04218e-05  3.98669e+09
       820.50000  8.59635e-05  3.79615e+09
       820.60000  8.59635e-05  3.80216e+09
       820.70000  8.59635e-05  3.80904e+09
       820.80000  8.59635e-05  3.81592e+09
       820.90000  8.59635e-05  3.82365e+09
       821.00000  8.59635e-05  3.83225e+09
       821.10000  8.59635e-05  3.83053e+09
       821.20000  8.59635e-05  3.82967e+09
       821.30000  8.62099e-05  3.83893e+09
       821.40000  8.62099e-05  3.83807e+09
       821.50000  8.69937e-05  3.87122e+09
       821.60000  8.69937e-05  3.87035e+09
       821.70000  8.69937e-05  3.86948e+09
       821.80000  8.69937e-05  3.86774e+09
       821.90000  8.69937e-05  3.86687e+09
       822.00000  8.69937e-05  3.86600e+09
       822.10000  8.69937e-05  3.86600e+09
       822.20000  8.69937e-05  3.86513e+09
       822.30000  8.69937e-05  3.86426e+09
       822.40000  8.69937e-05  3.86426e+09
       822.50000  9.12696e-05  4.05328e+09
       822.60000  9.12696e-05  4.05328e+09
       822.70000  9.12696e-05  4.05237e+09
       822.80000  9.12696e-05  4.05237e+09
       822.90000  9.12696e-05  4.05237e+09
       823.00000  9.12696e-05  4.05237e+09
       823.10000  9.12696e-05  4.05237e+09
       823.20000  9.12696e-05  4.05237e+09
       823.30000  9.12696e-05  4.05237e+09
       823.40000  9.12696e-05  4.05237e+09
       823.50000  6.84871e-05  3.04151e+09
       823.60000  6.84871e-05  3.04151e+09
       823.70000  6.84871e-05  3.04219e+09
       823.80000  6.86739e-05  3.05050e+09
       823.90000  6.86739e-05  3.05118e+09
       824.00000  6.86739e-05  3.05187e+09
       824.10000  6.86739e-05  3.05256e+09
       824.20000  6.86739e-05  3.05324e+09
       824.30000  6.86739e-05  3.05393e+09
       824.40000  6.86739e-05  3.05530e+09
       824.50000  9.84322e-05  4.38023e+09
       824.60000  9.84322e-05  4.38220e+09
       824.70000  9.84322e-05  4.38318e+09
       824.80000  9.84322e-05  4.38515e+09
       824.90000  9.84322e-05  4.38712e+09
       825.00000  9.84322e-05  4.38909e+09
       825.10000  9.84322e-05  4.39106e+09
       825.20000  9.84322e-05  4.39303e+09
       825.30000  9.84322e-05  4.39598e+09
       825.40000  9.84322e-05  4.39795e+09
       825.50000  6.65911e-05  2.97729e+09
       825.60000  6.65911e-05  2.97862e+09
       825.70000  6.65911e-05  2.98062e+09
       825.80000  6.65911e-05  2.98262e+09
       825.90000  6.65911e-05  2.98461e+09
       826.00000  6.65911e-05  2.98661e+09
       826.10000  6.65911e-05  2.98861e+09
       826.20000  6.65911e-05  2.98994e+09
       826.30000  6.66354e-05  2.99393e+09
       826.40000  6.66354e-05  2.99526e+09
       826.50000  7.56303e-05  3.40034e+09
       826.60000  7.56303e-05  3.40185e+09
       826.70000  7.56303e-05  3.40336e+09
       826.80000  7.56303e-05  3.40412e+09
       826.90000  7.56303e-05  3.40488e+09
       827.00000  7.56303e-05  3.40563e+09
       827.10000  7.56303e-05  3.40563e+09
       827.20000  7.56303e-05  3.40639e+09
       827.30000  7.56303e-05  3.40639e+09
       827.40000  7.56303e-05  3.40639e+09
       827.50000  5.59414e-05  2.51960e+09
       827.60000  5.59414e-05  2.51960e+09
       827.70000  5.59414e-05  2.51904e+09
       827.80000  5.59414e-05  2.51848e+09
       827.90000  5.59414e-05  2.51792e+09
       828.00000  5.59414e-05  2.51736e+09
       828.10000  5.59414e-05  2.51569e+09
       828.20000  5.59414e-05  2.51345e+09
       828.30000  5.59414e-05  2.51121e+09
       828.40000  5.59414e-05  2.50897e+09
       828.50000  8.02213e-05  3.59552e+09
       828.60000  8.02213e-05  3.59231e+09
       828.70000  8.02213e-05  3.58990e+09
       828.80000  8.01562e-05  3.58459e+09
       828.90000  8.01562e-05  3.58138e+09
       829.00000  8.01562e-05  3.57898e+09
       829.10000  8.01562e-05  3.57657e+09
       829.20000  8.01562e-05  3.57417e+09
       829.30000  8.01562e-05  3.57176e+09
       829.40000  8.01562e-05  3.56936e+09
       829.50000  8.79208e-05  3.91248e+09
       829.60000  8.79208e-05  3.90984e+09
       829.70000  8.79208e-05  3.90720e+09
       829.80000  8.79208e-05  3.90456e+09
       829.90000  8.79208e-05  3.90281e+09
       830.00000  8.79208e-05  3.90017e+09
       830.10000  8.79208e-05  3.89841e+09
       830.20000  8.79208e-05  3.89577e+09
       830.30000  8.79208e-05  3.89401e+09
       830.40000  8.79208e-05  3.89138e+09
       830.50000  8.71832e-05  3.85699e+09
       830.60000  8.71832e-05  3.85524e+09
       830.70000  8.71832e-05  3.85263e+09
       830.80000  8.71832e-05  3.85088e+09
       830.90000  8.71832e-05  3.84914e+09
       831.00000  8.71832e-05  3.84740e+09
       831.10000  8.71832e-05  3.84565e+09
       831.20000  8.71832e-05  3.84391e+09
       831.30000  8.74196e-05  3.85345e+09
       831.40000  8.74196e-05  3.85171e+09
       831.50000  0.000101550  4.47226e+09
       831.60000  0.000101550  4.47124e+09
       831.70000  0.000101550  4.46921e+09
       831.80000  0.000101550  4.46718e+09
       831.90000  0.000101550  4.46617e+09
       832.00000  0.000101550  4.46515e+09
       832.10000  0.000101550  4.46109e+09
       832.20000  0.000101550  4.45703e+09
       832.30000  0.000101550  4.45398e+09
       832.40000  0.000101550  4.45093e+09
       832.50000  8.82354e-05  3.86471e+09
       832.60000  8.82354e-05  3.86295e+09
       832.70000  8.82354e-05  3.86118e+09
       832.80000  8.82354e-05  3.85853e+09
       832.90000  8.82354e-05  3.85765e+09
       833.00000  8.82354e-05  3.85589e+09
       833.10000  8.82354e-05  3.85412e+09
       833.20000  8.82354e-05  3.85324e+09
       833.30000  8.82354e-05  3.85236e+09
       833.40000  8.82354e-05  3.85147e+09
       833.50000  7.96849e-05  3.47824e+09
       833.60000  7.96849e-05  3.47745e+09
       833.70000  7.96849e-05  3.47745e+09
       833.80000  7.97680e-05  3.48108e+09
       833.90000  7.97680e-05  3.48187e+09
       834.00000  7.97680e-05  3.48187e+09
       834.10000  7.97680e-05  3.48586e+09
       834.20000  7.97680e-05  3.48905e+09
       834.30000  7.97680e-05  3.49304e+09
       834.40000  7.97680e-05  3.49623e+09
       834.50000  8.11922e-05  3.56190e+09
       834.60000  8.11922e-05  3.56515e+09
       834.70000  8.11922e-05  3.56758e+09
       834.80000  8.11922e-05  3.57002e+09
       834.90000  8.11922e-05  3.57327e+09
       835.00000  8.11922e-05  3.57570e+09
       835.10000  8.11922e-05  3.57733e+09
       835.20000  8.11922e-05  3.57976e+09
       835.30000  8.11922e-05  3.58139e+09
       835.40000  8.11922e-05  3.58301e+09
       835.50000  8.04808e-05  3.55323e+09
       835.60000  8.04808e-05  3.55484e+09
       835.70000  8.04808e-05  3.55564e+09
       835.80000  8.04808e-05  3.55725e+09
       835.90000  8.04808e-05  3.55806e+09
       836.00000  8.04808e-05  3.55886e+09
       836.10000  8.04808e-05  3.55725e+09
       836.20000  8.04808e-05  3.55645e+09
       836.30000  8.04444e-05  3.55323e+09
       836.40000  8.04444e-05  3.55242e+09
       836.50000  8.32161e-05  3.67399e+09
       836.60000  8.32161e-05  3.67233e+09
       836.70000  8.32161e-05  3.67149e+09
       836.80000  8.32161e-05  3.67066e+09
       836.90000  8.32161e-05  3.66900e+09
       837.00000  8.32161e-05  3.66817e+09
       837.10000  8.32161e-05  3.66733e+09
       837.20000  8.32161e-05  3.66650e+09
       837.30000  8.32161e-05  3.66567e+09
       837.40000  8.32161e-05  3.66484e+09
       837.50000  7.80322e-05  3.43576e+09
       837.60000  7.80322e-05  3.43498e+09
       837.70000  7.80322e-05  3.43420e+09
       837.80000  7.80322e-05  3.43342e+09
       837.90000  7.80322e-05  3.43342e+09
       838.00000  7.80322e-05  3.43264e+09
       838.10000  7.80322e-05  3.43185e+09
       838.20000  7.80322e-05  3.43185e+09
       838.30000  7.80322e-05  3.43185e+09
       838.40000  7.80322e-05  3.43185e+09
       838.50000  6.43053e-05  2.82751e+09
       838.60000  6.43053e-05  2.82751e+09
       838.70000  6.43053e-05  2.82751e+09
       838.80000  6.41109e-05  2.81832e+09
       838.90000  6.41109e-05  2.81832e+09
       839.00000  6.41109e-05  2.81832e+09
       839.10000  6.41109e-05  2.81767e+09
       839.20000  6.41109e-05  2.81767e+09
       839.30000  6.41109e-05  2.81767e+09
       839.40000  6.41109e-05  2.81703e+09
       839.50000  8.41580e-05  3.69790e+09
       839.60000  8.41580e-05  3.69790e+09
       839.70000  8.41580e-05  3.69706e+09
       839.80000  8.41580e-05  3.69706e+09
       839.90000  8.41580e-05  3.69706e+09
       840.00000  8.41580e-05  3.69622e+09
       840.10000  8.41580e-05  3.69622e+09
       840.20000  8.41580e-05  3.69622e+09
       840.30000  8.41580e-05  3.69538e+09
       840.40000  8.41580e-05  3.69538e+09
       840.50000  7.38002e-05  3.24057e+09
       840.60000  7.38002e-05  3.23983e+09
       840.70000  7.38002e-05  3.23983e+09
       840.80000  7.38002e-05  3.23983e+09
       840.90000  7.38002e-05  3.23909e+09
       841.00000  7.38002e-05  3.23909e+09
       841.10000  7.38002e-05  3.23909e+09
       841.20000  7.38002e-05  3.23909e+09
       841.30000  7.37962e-05  3.23818e+09
       841.40000  7.37962e-05  3.23818e+09
       841.50000  9.85070e-05  4.32249e+09
       841.60000  9.85070e-05  4.32150e+09
       841.70000  9.85070e-05  4.32150e+09
       841.80000  9.85070e-05  4.32150e+09
       841.90000  9.85070e-05  4.32052e+09
       842.00000  9.85070e-05  4.32052e+09
       842.10000  9.85070e-05  4.31658e+09
       842.20000  9.85070e-05  4.31362e+09
       842.30000  9.85070e-05  4.31067e+09
       842.40000  9.85070e-05  4.30673e+09
       842.50000  7.01887e-05  3.06654e+09
       842.60000  7.01887e-05  3.06514e+09
       842.70000  7.01887e-05  3.06304e+09
       842.80000  7.01887e-05  3.06163e+09
       842.90000  7.01887e-05  3.05953e+09
       843.00000  7.01887e-05  3.05812e+09
       843.10000  7.01887e-05  3.05672e+09
       843.20000  7.01887e-05  3.05531e+09
       843.30000  7.01887e-05  3.05461e+09
       843.40000  7.01887e-05  3.05321e+09
       843.50000  8.22095e-05  3.57529e+09
       843.60000  8.22095e-05  3.57447e+09
       843.70000  8.22095e-05  3.57365e+09
       843.80000  8.23281e-05  3.57798e+09
       843.90000  8.23281e-05  3.57798e+09
       844.00000  8.23281e-05  3.57716e+09
       844.10000  8.23281e-05  3.57963e+09
       844.20000  8.23281e-05  3.58127e+09
       844.30000  8.23281e-05  3.58292e+09
       844.40000  8.23281e-05  3.58456e+09
       844.50000  7.43067e-05  3.23680e+09
       844.60000  7.43067e-05  3.23829e+09
       844.70000  7.43067e-05  3.23903e+09
       844.80000  7.43067e-05  3.24052e+09
       844.90000  7.43067e-05  3.24126e+09
       845.00000  7.43067e-05  3.24275e+09
       845.10000  7.43067e-05  3.24349e+09
       845.20000  7.43067e-05  3.24423e+09
       845.30000  7.43067e-05  3.24572e+09
       845.40000  7.43067e-05  3.24646e+09
       845.50000  9.60454e-05  4.19622e+09
       845.60000  9.60454e-05  4.19718e+09
       845.70000  9.60454e-05  4.19814e+09
       845.80000  9.60454e-05  4.19910e+09
       845.90000  9.60454e-05  4.19910e+09
       846.00000  9.60454e-05  4.20006e+09
       846.10000  9.60454e-05  4.20006e+09
       846.20000  9.60454e-05  4.20006e+09
       846.30000  9.62982e-05  4.21112e+09
       846.40000  9.62982e-05  4.21208e+09
       846.50000  8.95466e-05  3.91677e+09
       846.60000  8.95466e-05  3.91587e+09
       846.70000  8.95466e-05  3.91587e+09
       846.80000  8.95466e-05  3.91587e+09
       846.90000  8.95466e-05  3.91498e+09
       847.00000  8.95466e-05  3.91498e+09
       847.10000  8.95466e-05  3.91408e+09
       847.20000  8.95466e-05  3.91408e+09
       847.30000  8.95466e-05  3.91319e+09
       847.40000  8.95466e-05  3.91229e+09
       847.50000  8.85908e-05  3.86964e+09
       847.60000  8.85908e-05  3.86876e+09
       847.70000  8.85908e-05  3.86787e+09
       847.80000  8.85908e-05  3.86699e+09
       847.90000  8.85908e-05  3.86522e+09
       848.00000  8.85908e-05  3.86433e+09
       848.10000  8.85908e-05  3.84573e+09
       848.20000  8.85908e-05  3.82889e+09
       848.30000  8.85908e-05  3.81206e+09
       848.40000  8.85908e-05  3.79611e+09
       848.50000  9.75636e-05  4.16402e+09
       848.60000  9.75636e-05  4.14938e+09
       848.70000  9.75636e-05  4.13475e+09
       848.80000  9.79360e-05  4.13682e+09
       848.90000  9.79360e-05  4.12409e+09
       849.00000  9.79360e-05  4.11233e+09
       849.10000  9.79360e-05  4.10058e+09
       849.20000  9.79360e-05  4.09079e+09
       849.30000  9.79360e-05  4.08197e+09
       849.40000  9.79360e-05  4.07316e+09
       849.50000  9.43109e-05  3.91579e+09
       849.60000  9.43109e-05  3.90919e+09
       849.70000  9.43109e-05  3.90447e+09
       849.80000  9.43109e-05  3.89976e+09
       849.90000  9.43109e-05  3.89599e+09
       850.00000  9.43109e-05  3.89316e+09
       850.10000  9.43109e-05  3.91390e+09
       850.20000  9.43109e-05  3.93371e+09
       850.30000  9.43109e-05  3.95163e+09
       850.40000  9.43109e-05  3.96766e+09
       850.50000  0.000100162  4.22985e+09
       850.60000  0.000100162  4.24388e+09
       850.70000  0.000100162  4.25590e+09
       850.80000  0.000100162  4.26691e+09
       850.90000  0.000100162  4.27593e+09
       851.00000  0.000100162  4.28394e+09
       851.10000  0.000100162  4.28995e+09
       851.20000  0.000100162  4.29496e+09
       851.30000  0.000100268  4.30252e+09
       851.40000  0.000100268  4.30352e+09
       851.50000  0.000134152  5.75780e+09
       851.60000  0.000134152  5.75512e+09
       851.70000  0.000134152  5.75110e+09
       851.80000  0.000134152  5.74439e+09
       851.90000  0.000134152  5.73500e+09
       852.00000  0.000134152  5.72427e+09
       852.10000  0.000134152  5.71085e+09
       852.20000  0.000134152  5.69609e+09
       852.30000  0.000134152  5.67865e+09
       852.40000  0.000134152  5.65987e+09
       852.50000  0.000134964  5.67117e+09
       852.60000  0.000134964  5.64823e+09
       852.70000  0.000134964  5.62124e+09
       852.80000  0.000134964  5.59424e+09
       852.90000  0.000134964  5.56320e+09
       853.00000  0.000134964  5.53081e+09
       853.10000  0.000134964  5.49572e+09
       853.20000  0.000134964  5.45928e+09
       853.30000  0.000134964  5.42014e+09
       853.40000  0.000134964  5.37965e+09
       853.50000  0.000123459  4.88157e+09
       853.60000  0.000123459  4.83959e+09
       853.70000  0.000123459  4.79638e+09
       853.80000  0.000123624  4.75705e+09
       853.90000  0.000123624  4.71007e+09
       854.00000  0.000123624  4.66062e+09
       854.10000  0.000123624  4.69524e+09
       854.20000  0.000123624  4.72985e+09
       854.30000  0.000123624  4.76323e+09
       854.40000  0.000123624  4.79537e+09
       854.50000  0.000131330  5.12711e+09
       854.60000  0.000131330  5.15994e+09
       854.70000  0.000131330  5.19146e+09
       854.80000  0.000131330  5.22166e+09
       854.90000  0.000131330  5.25187e+09
       855.00000  0.000131330  5.28076e+09
       855.10000  0.000131330  5.30834e+09
       855.20000  0.000131330  5.33461e+09
       855.30000  0.000131330  5.36087e+09
       855.40000  0.000131330  5.38451e+09
       855.50000  0.000144327  5.94482e+09
       855.60000  0.000144327  5.96936e+09
       855.70000  0.000144327  5.99389e+09
       855.80000  0.000144327  6.01699e+09
       855.90000  0.000144327  6.03864e+09
       856.00000  0.000144327  6.05884e+09
       856.10000  0.000144327  6.07472e+09
       856.20000  0.000144327  6.08915e+09
       856.30000  0.000144489  6.11044e+09
       856.40000  0.000144489  6.12489e+09
       856.50000  0.000175129  7.43946e+09
       856.60000  0.000175129  7.45522e+09
       856.70000  0.000175129  7.46923e+09
       856.80000  0.000175129  7.48324e+09
       856.90000  0.000175129  7.49550e+09
       857.00000  0.000175129  7.50776e+09
       857.10000  0.000175129  7.52002e+09
       857.20000  0.000175129  7.53053e+09
       857.30000  0.000175129  7.54103e+09
       857.40000  0.000175129  7.54979e+09
       857.50000  0.000189300  8.17020e+09
       857.60000  0.000189300  8.17966e+09
       857.70000  0.000189300  8.18723e+09
       857.80000  0.000189300  8.19481e+09
       857.90000  0.000189300  8.20049e+09
       858.00000  0.000189300  8.20806e+09
       858.10000  0.000189300  8.21184e+09
       858.20000  0.000189300  8.21563e+09
       858.30000  0.000189300  8.21942e+09
       858.40000  0.000189300  8.22131e+09
       858.50000  0.000215441  9.35874e+09
       858.60000  0.000215441  9.36090e+09
       858.70000  0.000215441  9.36090e+09
       858.80000  0.000216093  9.38923e+09
       858.90000  0.000216093  9.38706e+09
       859.00000  0.000216093  9.38490e+09
       859.10000  0.000216093  9.38274e+09
       859.20000  0.000216093  9.37842e+09
       859.30000  0.000216093  9.37410e+09
       859.40000  0.000216093  9.36762e+09
       859.50000  0.000253784  1.09939e+10
       859.60000  0.000253784  1.09863e+10
       859.70000  0.000253784  1.09762e+10
       859.80000  0.000253784  1.09635e+10
       859.90000  0.000253784  1.09533e+10
       860.00000  0.000253784  1.09406e+10
       860.10000  0.000253784  1.09381e+10
       860.20000  0.000253784  1.09356e+10
       860.30000  0.000253784  1.09356e+10
       860.40000  0.000253784  1.09356e+10
       860.50000  0.000297107  1.27994e+10
       860.60000  0.000297107  1.27994e+10
       860.70000  0.000297107  1.27994e+10
       860.80000  0.000297107  1.27994e+10
       860.90000  0.000297107  1.27994e+10
       861.00000  0.000297107  1.27994e+10
       861.10000  0.000297107  1.27994e+10
       861.20000  0.000297107  1.27994e+10
       861.30000  0.000298084  1.28414e+10
       861.40000  0.000298084  1.28444e+10
       861.50000  0.000326898  1.40860e+10
       861.60000  0.000326898  1.40860e+10
       861.70000  0.000326898  1.40893e+10
       861.80000  0.000326898  1.40926e+10
       861.90000  0.000326898  1.40926e+10
       862.00000  0.000326898  1.40958e+10
       862.10000  0.000326898  1.41416e+10
       862.20000  0.000326898  1.41808e+10
       862.30000  0.000326898  1.42168e+10
       862.40000  0.000326898  1.42495e+10
       862.50000  0.000394432  1.72248e+10
       862.60000  0.000394432  1.72525e+10
       862.70000  0.000394432  1.72761e+10
       862.80000  0.000394432  1.72958e+10
       862.90000  0.000394432  1.73077e+10
       863.00000  0.000394432  1.73156e+10
       863.10000  0.000394432  1.73195e+10
       863.20000  0.000394432  1.73195e+10
       863.30000  0.000394432  1.73116e+10
       863.40000  0.000394432  1.72998e+10
       863.50000  0.000470995  2.06390e+10
       863.60000  0.000470995  2.06108e+10
       863.70000  0.000470995  2.05778e+10
       863.80000  0.000472313  2.05976e+10
       863.90000  0.000472313  2.05551e+10
       864.00000  0.000472313  2.05031e+10
       864.10000  0.000472313  2.04464e+10
       864.20000  0.000472313  2.03850e+10
       864.30000  0.000472313  2.03142e+10
       864.40000  0.000472313  2.02433e+10
       864.50000  0.000560966  2.39420e+10
       864.60000  0.000560966  2.38410e+10
       864.70000  0.000560966  2.37288e+10
       864.80000  0.000560966  2.36167e+10
       864.90000  0.000560966  2.34876e+10
       865.00000  0.000560966  2.33586e+10
       865.10000  0.000560966  2.32184e+10
       865.20000  0.000560966  2.30725e+10
       865.30000  0.000560966  2.29211e+10
       865.40000  0.000560966  2.27584e+10
       865.50000  0.000688518  2.77266e+10
       865.60000  0.000688518  2.75132e+10
       865.70000  0.000688518  2.72928e+10
       865.80000  0.000688518  2.70587e+10
       865.90000  0.000688518  2.68178e+10
       866.00000  0.000688518  2.65699e+10
       866.10000  0.000688518  2.66663e+10
       866.20000  0.000688518  2.67558e+10
       866.30000  0.000690553  2.69316e+10
       866.40000  0.000690553  2.70213e+10
       866.50000  0.000833830  3.27361e+10
       866.60000  0.000833830  3.28446e+10
       866.70000  0.000833830  3.29529e+10
       866.80000  0.000833830  3.30613e+10
       866.90000  0.000833830  3.31614e+10
       867.00000  0.000833830  3.32615e+10
       867.10000  0.000833830  3.33615e+10
       867.20000  0.000833830  3.34616e+10
       867.30000  0.000833830  3.35616e+10
       867.40000  0.000833830  3.36534e+10
       867.50000   0.00102742  4.15797e+10
       867.60000   0.00102742  4.16928e+10
       867.70000   0.00102742  4.18058e+10
       867.80000   0.00102742  4.19188e+10
       867.90000   0.00102742  4.20215e+10
       868.00000   0.00102742  4.21243e+10
       868.10000   0.00102742  4.22373e+10
       868.20000   0.00102742  4.23503e+10
       868.30000   0.00102742  4.24531e+10
       868.40000   0.00102742  4.25558e+10
       868.50000   0.00130829  5.43201e+10
       868.60000   0.00130829  5.44379e+10
       868.70000   0.00130829  5.45687e+10
       868.80000   0.00131157  5.48103e+10
       868.90000   0.00131157  5.49284e+10
       869.00000   0.00131157  5.50333e+10
       869.10000   0.00131157  5.51382e+10
       869.20000   0.00131157  5.52431e+10
       869.30000   0.00131157  5.53481e+10
       869.40000   0.00131157  5.54399e+10
       869.50000   0.00165472  7.00609e+10
       869.60000   0.00165472  7.01601e+10
       869.70000   0.00165472  7.02594e+10
       869.80000   0.00165472  7.03587e+10
       869.90000   0.00165472  7.04580e+10
       870.00000   0.00165472  7.05573e+10
       870.10000   0.00165472  7.06400e+10
       870.20000   0.00165472  7.07227e+10
       870.30000   0.00165472  7.07889e+10
       870.40000   0.00165472  7.08551e+10
       870.50000   0.00215339  9.22941e+10
       870.60000   0.00215339  9.23803e+10
       870.70000   0.00215339  9.24449e+10
       870.80000   0.00215339  9.25310e+10
       870.90000   0.00215339  9.25741e+10
       871.00000   0.00215339  9.26387e+10
       871.10000   0.00215339  9.26817e+10
       871.20000   0.00215339  9.27248e+10
       871.30000   0.00216591  9.33072e+10
       871.40000   0.00216591  9.33289e+10
       871.50000   0.00282098  1.21584e+11
       871.60000   0.00282098  1.21612e+11
       871.70000   0.00282098  1.21612e+11
       871.80000   0.00282098  1.21641e+11
       871.90000   0.00282098  1.21612e+11
       872.00000   0.00282098  1.21612e+11
       872.10000   0.00282098  1.21528e+11
       872.20000   0.00282098  1.21471e+11
       872.30000   0.00282098  1.21387e+11
       872.40000   0.00282098  1.21330e+11
       872.50000   0.00370242  1.59130e+11
       872.60000   0.00370242  1.59056e+11
       872.70000   0.00370242  1.58982e+11
       872.80000   0.00370242  1.58908e+11
       872.90000   0.00370242  1.58797e+11
       873.00000   0.00370242  1.58723e+11
       873.10000   0.00370242  1.58649e+11
       873.20000   0.00370242  1.58575e+11
       873.30000   0.00370242  1.58501e+11
       873.40000   0.00370242  1.58427e+11
       873.50000   0.00496895  2.12522e+11
       873.60000   0.00496895  2.12422e+11
       873.70000   0.00496895  2.12323e+11
       873.80000   0.00499519  2.13394e+11
       873.90000   0.00499519  2.13295e+11
       874.00000   0.00499519  2.13195e+11
       874.10000   0.00499519  2.13045e+11
       874.20000   0.00499519  2.12895e+11
       874.30000   0.00499519  2.12795e+11
       874.40000   0.00499519  2.12645e+11
       874.50000   0.00683067  2.90645e+11
       874.60000   0.00683067  2.90508e+11
       874.70000   0.00683067  2.90372e+11
       874.80000   0.00683067  2.90303e+11
       874.90000   0.00683067  2.90167e+11
       875.00000   0.00683067  2.90099e+11
       875.10000   0.00683067  2.90030e+11
       875.20000   0.00683067  2.89962e+11
       875.30000   0.00683067  2.89962e+11
       875.40000   0.00683067  2.89894e+11
       875.50000   0.00919276  3.90141e+11
       875.60000   0.00919276  3.90141e+11
       875.70000   0.00919276  3.90141e+11
       875.80000   0.00919276  3.90233e+11
       875.90000   0.00919276  3.90233e+11
       876.00000   0.00919276  3.90325e+11
       876.10000   0.00919276  3.90417e+11
       876.20000   0.00919276  3.90509e+11
       876.30000   0.00924120  3.92658e+11
       876.40000   0.00924120  3.92843e+11
       876.50000    0.0126991  5.40094e+11
       876.60000    0.0126991  5.40348e+11
       876.70000    0.0126991  5.40602e+11
       876.80000    0.0126991  5.40856e+11
       876.90000    0.0126991  5.41237e+11
       877.00000    0.0126991  5.41618e+11
       877.10000    0.0126991  5.41999e+11
       877.20000    0.0126991  5.42380e+11
       877.30000    0.0126991  5.42761e+11
       877.40000    0.0126991  5.43269e+11
       877.50000    0.0175691  7.52310e+11
       877.60000    0.0175691  7.53013e+11
       877.70000    0.0175691  7.53716e+11
       877.80000    0.0175691  7.54419e+11
       877.90000    0.0175691  7.55297e+11
       878.00000    0.0175691  7.56175e+11
       878.10000    0.0175691  7.55121e+11
       878.20000    0.0175691  7.54243e+11
       878.30000    0.0175691  7.53364e+11
       878.40000    0.0175691  7.52486e+11
       878.50000    0.0236251  1.01068e+12
       878.60000    0.0236251  1.00974e+12
       878.70000    0.0236251  1.00856e+12
       878.80000    0.0237311  1.01213e+12
       878.90000    0.0237311  1.01118e+12
       879.00000    0.0237311  1.01023e+12
       879.10000    0.0237311  1.00928e+12
       879.20000    0.0237311  1.00857e+12
       879.30000    0.0237311  1.00762e+12
       879.40000    0.0237311  1.00691e+12
       879.50000    0.0314326  1.33274e+12
       879.60000    0.0314326  1.33180e+12
       879.70000    0.0314326  1.33085e+12
       879.80000    0.0314326  1.33023e+12
       879.90000    0.0314326  1.32928e+12
       880.00000    0.0314326  1.32865e+12
       880.10000    0.0314326  1.32834e+12
       880.20000    0.0314326  1.32771e+12
       880.30000    0.0314326  1.32740e+12
       880.40000    0.0314326  1.32677e+12
       880.50000    0.0409105  1.72642e+12
       880.60000    0.0409105  1.72602e+12
       880.70000    0.0409105  1.72561e+12
       880.80000    0.0409105  1.72561e+12
       880.90000    0.0409105  1.72520e+12
       881.00000    0.0409105  1.72479e+12
       881.10000    0.0409105  1.72479e+12
       881.20000    0.0409105  1.72479e+12
       881.30000    0.0411558  1.73513e+12
       881.40000    0.0411558  1.73472e+12
       881.50000    0.0503634  2.12332e+12
       881.60000    0.0503634  2.12332e+12
       881.70000    0.0503634  2.12332e+12
       881.80000    0.0503634  2.12382e+12
       881.90000    0.0503634  2.12382e+12
       882.00000    0.0503634  2.12433e+12
       882.10000    0.0503634  2.12685e+12
       882.20000    0.0503634  2.12886e+12
       882.30000    0.0503634  2.13088e+12
       882.40000    0.0503634  2.13289e+12
       882.50000    0.0589827  2.50027e+12
       882.60000    0.0589827  2.50204e+12
       882.70000    0.0589827  2.50381e+12
       882.80000    0.0589827  2.50558e+12
       882.90000    0.0589827  2.50676e+12
       883.00000    0.0589827  2.50794e+12
       883.10000    0.0589827  2.50912e+12
       883.20000    0.0589827  2.51030e+12
       883.30000    0.0589827  2.51089e+12
       883.40000    0.0589827  2.51148e+12
       883.50000    0.0660013  2.81100e+12
       883.60000    0.0660013  2.81100e+12
       883.70000    0.0660013  2.81100e+12
       883.80000    0.0662417  2.82124e+12
       883.90000    0.0662417  2.82057e+12
       884.00000    0.0662417  2.81991e+12
       884.10000    0.0662417  2.81594e+12
       884.20000    0.0662417  2.81196e+12
       884.30000    0.0662417  2.80799e+12
       884.40000    0.0662417  2.80401e+12
       884.50000    0.0704428  2.97762e+12
       884.60000    0.0704428  2.97409e+12
       884.70000    0.0704428  2.97057e+12
       884.80000    0.0704428  2.96775e+12
       884.90000    0.0704428  2.96423e+12
       885.00000    0.0704428  2.96141e+12
       885.10000    0.0704428  2.95930e+12
       885.20000    0.0704428  2.95648e+12
       885.30000    0.0704428  2.95437e+12
       885.40000    0.0704428  2.95226e+12
       885.50000    0.0720726  3.01912e+12
       885.60000    0.0720726  3.01696e+12
       885.70000    0.0720726  3.01552e+12
       885.80000    0.0720726  3.01480e+12
       885.90000    0.0720726  3.01336e+12
       886.00000    0.0720726  3.01264e+12
       886.10000    0.0720726  3.01191e+12
       886.20000    0.0720726  3.01119e+12
       886.30000    0.0722552  3.01882e+12
       886.40000    0.0722552  3.01882e+12
       886.50000    0.0719173  3.00471e+12
       886.60000    0.0719173  3.00543e+12
       886.70000    0.0719173  3.00615e+12
       886.80000    0.0719173  3.00686e+12
       886.90000    0.0719173  3.00758e+12
       887.00000    0.0719173  3.00902e+12
       887.10000    0.0719173  3.01046e+12
       887.20000    0.0719173  3.01190e+12
       887.30000    0.0719173  3.01334e+12
       887.40000    0.0719173  3.01549e+12
       887.50000    0.0706040  2.96254e+12
       887.60000    0.0706040  2.96537e+12
       887.70000    0.0706040  2.96749e+12
       887.80000    0.0706040  2.97031e+12
       887.90000    0.0706040  2.97384e+12
       888.00000    0.0706040  2.97666e+12
       888.10000    0.0706040  2.98019e+12
       888.20000    0.0706040  2.98302e+12
       888.30000    0.0706040  2.98655e+12
       888.40000    0.0706040  2.98937e+12
       888.50000    0.0688432  2.91757e+12
       888.60000    0.0688432  2.91964e+12
       888.70000    0.0688432  2.92170e+12
       888.80000    0.0691344  2.93614e+12
       888.90000    0.0691344  2.93821e+12
       889.00000    0.0691344  2.94029e+12
       889.10000    0.0691344  2.94167e+12
       889.20000    0.0691344  2.94305e+12
       889.30000    0.0691344  2.94443e+12
       889.40000    0.0691344  2.94512e+12
       889.50000    0.0673860  2.87199e+12
       889.60000    0.0673860  2.87266e+12
       889.70000    0.0673860  2.87334e+12
       889.80000    0.0673860  2.87334e+12
       889.90000    0.0673860  2.87334e+12
       890.00000    0.0673860  2.87334e+12
       890.10000    0.0673860  2.87132e+12
       890.20000    0.0673860  2.86929e+12
       890.30000    0.0673860  2.86727e+12
       890.40000    0.0673860  2.86525e+12
       890.50000    0.0658407  2.79757e+12
       890.60000    0.0658407  2.79560e+12
       890.70000    0.0658407  2.79362e+12
       890.80000    0.0658407  2.79165e+12
       890.90000    0.0658407  2.78967e+12
       891.00000    0.0658407  2.78835e+12
       891.10000    0.0658407  2.78638e+12
       891.20000    0.0658407  2.78506e+12
       891.30000    0.0661603  2.79660e+12
       891.40000    0.0661603  2.79527e+12
       891.50000    0.0648750  2.73967e+12
       891.60000    0.0648750  2.73837e+12
       891.70000    0.0648750  2.73708e+12
       891.80000    0.0648750  2.73578e+12
       891.90000    0.0648750  2.73448e+12
       892.00000    0.0648750  2.73318e+12
       892.10000    0.0648750  2.73189e+12
       892.20000    0.0648750  2.73124e+12
       892.30000    0.0648750  2.72994e+12
       892.40000    0.0648750  2.72929e+12
       892.50000    0.0638203  2.68364e+12
       892.60000    0.0638203  2.68301e+12
       892.70000    0.0638203  2.68237e+12
       892.80000    0.0638203  2.68173e+12
       892.90000    0.0638203  2.68109e+12
       893.00000    0.0638203  2.68045e+12
       893.10000    0.0638203  2.67981e+12
       893.20000    0.0638203  2.67918e+12
       893.30000    0.0638203  2.67854e+12
       893.40000    0.0638203  2.67854e+12
       893.50000    0.0629689  2.64217e+12
       893.60000    0.0629689  2.64217e+12
       893.70000    0.0629689  2.64154e+12
       893.80000    0.0635175  2.66456e+12
       893.90000    0.0635175  2.66456e+12
       894.00000    0.0635175  2.66456e+12
       894.10000    0.0635175  2.66646e+12
       894.20000    0.0635175  2.66773e+12
       894.30000    0.0635175  2.66964e+12
       894.40000    0.0635175  2.67091e+12
       894.50000    0.0628370  2.64418e+12
       894.60000    0.0628370  2.64544e+12
       894.70000    0.0628370  2.64669e+12
       894.80000    0.0628370  2.64795e+12
       894.90000    0.0628370  2.64921e+12
       895.00000    0.0628370  2.65046e+12
       895.10000    0.0628370  2.65109e+12
       895.20000    0.0628370  2.65235e+12
       895.30000    0.0628370  2.65298e+12
       895.40000    0.0628370  2.65361e+12
       895.50000    0.0623135  2.63275e+12
       895.60000    0.0623135  2.63337e+12
       895.70000    0.0623135  2.63399e+12
       895.80000    0.0623135  2.63399e+12
       895.90000    0.0623135  2.63462e+12
       896.00000    0.0623135  2.63524e+12
       896.10000    0.0623135  2.63586e+12
       896.20000    0.0623135  2.63586e+12
       896.30000    0.0627391  2.65449e+12
       896.40000    0.0627391  2.65449e+12
       896.50000    0.0622765  2.63492e+12
       896.60000    0.0622765  2.63492e+12
       896.70000    0.0622765  2.63492e+12
       896.80000    0.0622765  2.63492e+12
       896.90000    0.0622765  2.63492e+12
       897.00000    0.0622765  2.63430e+12
       897.10000    0.0622765  2.63430e+12
       897.20000    0.0622765  2.63368e+12
       897.30000    0.0622765  2.63305e+12
       897.40000    0.0622765  2.63243e+12
       897.50000    0.0618277  2.61222e+12
       897.60000    0.0618277  2.61160e+12
       897.70000    0.0618277  2.61036e+12
       897.80000    0.0618277  2.60975e+12
       897.90000    0.0618277  2.60851e+12
       898.00000    0.0618277  2.60727e+12
       898.10000    0.0618277  2.60542e+12
       898.20000    0.0618277  2.60418e+12
       898.30000    0.0618277  2.60294e+12
       898.40000    0.0618277  2.60109e+12
       898.50000    0.0615188  2.58625e+12
       898.60000    0.0615188  2.58441e+12
       898.70000    0.0615188  2.58256e+12
       898.80000    0.0619592  2.59919e+12
       898.90000    0.0619592  2.59671e+12
       899.00000    0.0619592  2.59485e+12
       899.10000    0.0619592  2.59237e+12
       899.20000    0.0619592  2.58989e+12
       899.30000    0.0619592  2.58742e+12
       899.40000    0.0619592  2.58494e+12
       899.50000    0.0616791  2.57078e+12
       899.60000    0.0616791  2.56770e+12
       899.70000    0.0616791  2.56523e+12
       899.80000    0.0616791  2.56215e+12
       899.90000    0.0616791  2.55906e+12
       900.00000    0.0616791  2.55598e+12
       900.10000    0.0616791  2.54858e+12
       900.20000    0.0616791  2.54241e+12
       900.30000    0.0616791  2.53563e+12
       900.40000    0.0616791  2.53007e+12
       900.50000    0.0614625  2.51566e+12
       900.60000    0.0614625  2.51074e+12
       900.70000    0.0614625  2.50583e+12
       900.80000    0.0614625  2.50214e+12
       900.90000    0.0614625  2.49845e+12
       901.00000    0.0614625  2.49476e+12
       901.10000    0.0614625  2.49230e+12
       901.20000    0.0614625  2.48985e+12
       901.30000    0.0617129  2.49752e+12
       901.40000    0.0617129  2.49629e+12
       901.50000    0.0615098  2.48684e+12
       901.60000    0.0615098  2.48623e+12
       901.70000    0.0615098  2.48561e+12
       901.80000    0.0615098  2.48561e+12
       901.90000    0.0615098  2.48623e+12
       902.00000    0.0615098  2.48746e+12
       902.10000    0.0615098  2.49607e+12
       902.20000    0.0615098  2.50406e+12
       902.30000    0.0615098  2.51206e+12
       902.40000    0.0615098  2.51944e+12
       902.50000    0.0612913  2.51784e+12
       902.60000    0.0612913  2.52459e+12
       902.70000    0.0612913  2.53133e+12
       902.80000    0.0612913  2.53746e+12
       902.90000    0.0612913  2.54359e+12
       903.00000    0.0612913  2.54910e+12
       903.10000    0.0612913  2.55462e+12
       903.20000    0.0612913  2.55952e+12
       903.30000    0.0612913  2.56381e+12
       903.40000    0.0612913  2.56810e+12
       903.50000    0.0610432  2.56137e+12
       903.60000    0.0610432  2.56503e+12
       903.70000    0.0610432  2.56870e+12
       903.80000    0.0613665  2.58476e+12
       903.90000    0.0613665  2.58783e+12
       904.00000    0.0613665  2.58967e+12
       904.10000    0.0613665  2.59151e+12
       904.20000    0.0613665  2.59335e+12
       904.30000    0.0613665  2.59458e+12
       904.40000    0.0613665  2.59519e+12
       904.50000    0.0610714  2.58332e+12
       904.60000    0.0610714  2.58393e+12
       904.70000    0.0610714  2.58393e+12
       904.80000    0.0610714  2.58332e+12
       904.90000    0.0610714  2.58271e+12
       905.00000    0.0610714  2.58149e+12
       905.10000    0.0610714  2.58027e+12
       905.20000    0.0610714  2.57843e+12
       905.30000    0.0610714  2.57660e+12
       905.40000    0.0610714  2.57416e+12
       905.50000    0.0606981  2.55539e+12
       905.60000    0.0606981  2.55236e+12
       905.70000    0.0606981  2.54932e+12
       905.80000    0.0606981  2.54568e+12
       905.90000    0.0606981  2.54143e+12
       906.00000    0.0606981  2.53718e+12
       906.10000    0.0606981  2.53475e+12
       906.20000    0.0606981  2.53293e+12
       906.30000    0.0609782  2.54279e+12
       906.40000    0.0609782  2.54035e+12
       906.50000    0.0605449  2.52048e+12
       906.60000    0.0605449  2.51867e+12
       906.70000    0.0605449  2.51685e+12
       906.80000    0.0605449  2.51503e+12
       906.90000    0.0605449  2.51322e+12
       907.00000    0.0605449  2.51140e+12
       907.10000    0.0605449  2.50958e+12
       907.20000    0.0605449  2.50777e+12
       907.30000    0.0605449  2.50595e+12
       907.40000    0.0605449  2.50414e+12
       907.50000    0.0600635  2.48242e+12
       907.60000    0.0600635  2.48122e+12
       907.70000    0.0600635  2.47942e+12
       907.80000    0.0600635  2.47762e+12
       907.90000    0.0600635  2.47642e+12
       908.00000    0.0600635  2.47461e+12
       908.10000    0.0600635  2.47221e+12
       908.20000    0.0600635  2.47041e+12
       908.30000    0.0600635  2.46801e+12
       908.40000    0.0600635  2.46621e+12
       908.50000    0.0595581  2.44367e+12
       908.60000    0.0595581  2.44188e+12
       908.70000    0.0595581  2.44069e+12
       908.80000    0.0597629  2.44729e+12
       908.90000    0.0597629  2.44610e+12
       909.00000    0.0597629  2.44490e+12
       909.10000    0.0597629  2.44371e+12
       909.20000    0.0597629  2.44251e+12
       909.30000    0.0597629  2.44132e+12
       909.40000    0.0597629  2.44072e+12
       909.50000    0.0592072  2.41743e+12
       909.60000    0.0592072  2.41684e+12
       909.70000    0.0592072  2.41625e+12
       909.80000    0.0592072  2.41566e+12
       909.90000    0.0592072  2.41566e+12
       910.00000    0.0592072  2.41506e+12
       910.10000    0.0592072  2.41506e+12
       910.20000    0.0592072  2.41506e+12
       910.30000    0.0592072  2.41566e+12
       910.40000    0.0592072  2.41566e+12
       910.50000    0.0586285  2.39263e+12
       910.60000    0.0586285  2.39263e+12
       910.70000    0.0586285  2.39321e+12
       910.80000    0.0586285  2.39439e+12
       910.90000    0.0586285  2.39497e+12
       911.00000    0.0586285  2.39556e+12
       911.10000    0.0586285  2.39673e+12
       911.20000    0.0586285  2.39790e+12
       911.30000    0.0586828  2.40130e+12
       911.40000    0.0586828  2.40247e+12
       911.50000    0.0580749  2.37933e+12
       911.60000    0.0580749  2.38049e+12
       911.70000    0.0580749  2.38223e+12
       911.80000    0.0580749  2.38397e+12
       911.90000    0.0580749  2.38572e+12
       912.00000    0.0580749  2.38804e+12
       912.10000    0.0580749  2.39094e+12
       912.20000    0.0580749  2.39327e+12
       912.30000    0.0580749  2.39559e+12
       912.40000    0.0580749  2.39791e+12
       912.50000    0.0574821  2.37574e+12
       912.60000    0.0574821  2.37804e+12
       912.70000    0.0574821  2.38034e+12
       912.80000    0.0574821  2.38206e+12
       912.90000    0.0574821  2.38378e+12
       913.00000    0.0574821  2.38551e+12
       913.10000    0.0574821  2.38723e+12
       913.20000    0.0574821  2.38838e+12
       913.30000    0.0574821  2.39011e+12
       913.40000    0.0574821  2.39126e+12
       913.50000    0.0568619  2.36659e+12
       913.60000    0.0568619  2.36773e+12
       913.70000    0.0568619  2.36830e+12
       913.80000    0.0571652  2.38150e+12
       913.90000    0.0571652  2.38265e+12
       914.00000    0.0571652  2.38322e+12
       914.10000    0.0571652  2.38207e+12
       914.20000    0.0571652  2.38150e+12
       914.30000    0.0571652  2.38093e+12
       914.40000    0.0571652  2.38036e+12
       914.50000    0.0565615  2.35466e+12
       914.60000    0.0565615  2.35352e+12
       914.70000    0.0565615  2.35296e+12
       914.80000    0.0565615  2.35239e+12
       914.90000    0.0565615  2.35183e+12
       915.00000    0.0565615  2.35126e+12
       915.10000    0.0565615  2.35070e+12
       915.20000    0.0565615  2.35013e+12
       915.30000    0.0565615  2.34956e+12
       915.40000    0.0565615  2.34900e+12
       915.50000    0.0559181  2.32172e+12
       915.60000    0.0559181  2.32116e+12
       915.70000    0.0559181  2.32060e+12
       915.80000    0.0559181  2.32004e+12
       915.90000    0.0559181  2.31948e+12
       916.00000    0.0559181  2.31892e+12
       916.10000    0.0559181  2.31836e+12
       916.20000    0.0559181  2.31780e+12
       916.30000    0.0563170  2.33378e+12
       916.40000    0.0563170  2.33321e+12
       916.50000    0.0557184  2.30786e+12
       916.60000    0.0557184  2.30786e+12
       916.70000    0.0557184  2.30730e+12
       916.80000    0.0557184  2.30674e+12
       916.90000    0.0557184  2.30619e+12
       917.00000    0.0557184  2.30563e+12
       917.10000    0.0557184  2.30563e+12
       917.20000    0.0557184  2.30507e+12
       917.30000    0.0557184  2.30451e+12
       917.40000    0.0557184  2.30396e+12
       917.50000    0.0551118  2.27887e+12
       917.60000    0.0551118  2.27832e+12
       917.70000    0.0551118  2.27777e+12
       917.80000    0.0551118  2.27777e+12
       917.90000    0.0551118  2.27722e+12
       918.00000    0.0551118  2.27667e+12
       918.10000    0.0551118  2.27777e+12
       918.20000    0.0551118  2.27887e+12
       918.30000    0.0551118  2.27997e+12
       918.40000    0.0551118  2.28053e+12
       918.50000    0.0545370  2.25729e+12
       918.60000    0.0545370  2.25783e+12
       918.70000    0.0545370  2.25783e+12
       918.80000    0.0550444  2.27884e+12
       918.90000    0.0550444  2.27884e+12
       919.00000    0.0550444  2.27884e+12
       919.10000    0.0550444  2.27829e+12
       919.20000    0.0550444  2.27774e+12
       919.30000    0.0550444  2.27719e+12
       919.40000    0.0550444  2.27609e+12
       919.50000    0.0544547  2.25061e+12
       919.60000    0.0544547  2.24953e+12
       919.70000    0.0544547  2.24844e+12
       919.80000    0.0544547  2.24680e+12
       919.90000    0.0544547  2.24571e+12
       920.00000    0.0544547  2.24408e+12
       920.10000    0.0544547  2.23918e+12
       920.20000    0.0544547  2.23482e+12
       920.30000    0.0544547  2.23047e+12
       920.40000    0.0544547  2.22611e+12
       920.50000    0.0538725  2.19800e+12
       920.60000    0.0538725  2.19423e+12
       920.70000    0.0538725  2.19046e+12
       920.80000    0.0538725  2.18722e+12
       920.90000    0.0538725  2.18345e+12
       921.00000    0.0538725  2.18022e+12
       921.10000    0.0538725  2.17699e+12
       921.20000    0.0538725  2.17429e+12
       921.30000    0.0540952  2.18004e+12
       921.40000    0.0540952  2.17733e+12
       921.50000    0.0535059  2.15094e+12
       921.60000    0.0535059  2.14880e+12
       921.70000    0.0535059  2.14666e+12
       921.80000    0.0535059  2.14452e+12
       921.90000    0.0535059  2.14238e+12
       922.00000    0.0535059  2.14077e+12
       922.10000    0.0535059  2.13863e+12
       922.20000    0.0535059  2.13756e+12
       922.30000    0.0535059  2.13596e+12
       922.40000    0.0535059  2.13489e+12
       922.50000    0.0529415  2.11078e+12
       922.60000    0.0529415  2.11025e+12
       922.70000    0.0529415  2.10919e+12
       922.80000    0.0529415  2.10866e+12
       922.90000    0.0529415  2.10813e+12
       923.00000    0.0529415  2.10760e+12
       923.10000    0.0529415  2.10760e+12
       923.20000    0.0529415  2.10707e+12
       923.30000    0.0529415  2.10707e+12
       923.40000    0.0529415  2.10760e+12
       923.50000    0.0523303  2.08327e+12
       923.60000    0.0523303  2.08379e+12
       923.70000    0.0523303  2.08432e+12
       923.80000    0.0524489  2.09009e+12
       923.90000    0.0524489  2.09061e+12
       924.00000    0.0524489  2.09166e+12
       924.10000    0.0524489  2.09166e+12
       924.20000    0.0524489  2.09166e+12
       924.30000    0.0524489  2.09166e+12
       924.40000    0.0524489  2.09166e+12
       924.50000    0.0518529  2.06789e+12
       924.60000    0.0518529  2.06789e+12
       924.70000    0.0518529  2.06841e+12
       924.80000    0.0518529  2.06893e+12
       924.90000    0.0518529  2.06893e+12
       925.00000    0.0518529  2.06945e+12
       925.10000    0.0518529  2.07048e+12
       925.20000    0.0518529  2.07100e+12
       925.30000    0.0518529  2.07152e+12
       925.40000    0.0518529  2.07256e+12
       925.50000    0.0512120  2.04797e+12
       925.60000    0.0512120  2.04899e+12
       925.70000    0.0512120  2.05002e+12
       925.80000    0.0512120  2.05104e+12
       925.90000    0.0512120  2.05207e+12
       926.00000    0.0512120  2.05360e+12
       926.10000    0.0512120  2.05668e+12
       926.20000    0.0512120  2.06026e+12
       926.30000    0.0514244  2.07189e+12
       926.40000    0.0514244  2.07498e+12
       926.50000    0.0507802  2.05203e+12
       926.60000    0.0507802  2.05457e+12
       926.70000    0.0507802  2.05711e+12
       926.80000    0.0507802  2.05965e+12
       926.90000    0.0507802  2.06219e+12
       927.00000    0.0507802  2.06422e+12
       927.10000    0.0507802  2.06625e+12
       927.20000    0.0507802  2.06828e+12
       927.30000    0.0507802  2.06980e+12
       927.40000    0.0507802  2.07133e+12
       927.50000    0.0501379  2.04663e+12
       927.60000    0.0501379  2.04763e+12
       927.70000    0.0501379  2.04914e+12
       927.80000    0.0501379  2.05014e+12
       927.90000    0.0501379  2.05064e+12
       928.00000    0.0501379  2.05114e+12
       928.10000    0.0501379  2.05014e+12
       928.20000    0.0501379  2.04914e+12
       928.30000    0.0501379  2.04763e+12
       928.40000    0.0501379  2.04663e+12
       928.50000    0.0494212  2.01639e+12
       928.60000    0.0494212  2.01540e+12
       928.70000    0.0494212  2.01441e+12
       928.80000    0.0496509  2.02278e+12
       928.90000    0.0496509  2.02178e+12
       929.00000    0.0496509  2.02129e+12
       929.10000    0.0496509  2.02029e+12
       929.20000    0.0496509  2.01930e+12
       929.30000    0.0496509  2.01881e+12
       929.40000    0.0496509  2.01781e+12
       929.50000    0.0489843  1.99023e+12
       929.60000    0.0489843  1.98974e+12
       929.70000    0.0489843  1.98876e+12
       929.80000    0.0489843  1.98827e+12
       929.90000    0.0489843  1.98778e+12
       930.00000    0.0489843  1.98730e+12
       930.10000    0.0489843  1.98730e+12
       930.20000    0.0489843  1.98730e+12
       930.30000    0.0489843  1.98681e+12
       930.40000    0.0489843  1.98681e+12
       930.50000    0.0482608  1.95746e+12
       930.60000    0.0482608  1.95746e+12
       930.70000    0.0482608  1.95698e+12
       930.80000    0.0482608  1.95698e+12
       930.90000    0.0482608  1.95698e+12
       931.00000    0.0482608  1.95698e+12
       931.10000    0.0482608  1.95698e+12
       931.20000    0.0482608  1.95649e+12
       931.30000    0.0484783  1.96531e+12
       931.40000    0.0484783  1.96531e+12
       931.50000    0.0477492  1.93575e+12
       931.60000    0.0477492  1.93575e+12
       931.70000    0.0477492  1.93575e+12
       931.80000    0.0477492  1.93575e+12
       931.90000    0.0477492  1.93575e+12
       932.00000    0.0477492  1.93575e+12
       932.10000    0.0477492  1.93575e+12
       932.20000    0.0477492  1.93575e+12
       932.30000    0.0477492  1.93575e+12
       932.40000    0.0477492  1.93575e+12
       932.50000    0.0469964  1.90523e+12
       932.60000    0.0469964  1.90523e+12
       932.70000    0.0469964  1.90523e+12
       932.80000    0.0469964  1.90570e+12
       932.90000    0.0469964  1.90570e+12
       933.00000    0.0469964  1.90570e+12
       933.10000    0.0469964  1.90570e+12
       933.20000    0.0469964  1.90570e+12
       933.30000    0.0469964  1.90617e+12
       933.40000    0.0469964  1.90617e+12
       933.50000    0.0462511  1.87594e+12
       933.60000    0.0462511  1.87641e+12
       933.70000    0.0462511  1.87641e+12
       933.80000    0.0464254  1.88348e+12
       933.90000    0.0464254  1.88394e+12
       934.00000    0.0464254  1.88394e+12
       934.10000    0.0464254  1.88255e+12
       934.20000    0.0464254  1.88116e+12
       934.30000    0.0464254  1.87977e+12
       934.40000    0.0464254  1.87837e+12
       934.50000    0.0456369  1.84510e+12
       934.60000    0.0456369  1.84419e+12
       934.70000    0.0456369  1.84328e+12
       934.80000    0.0456369  1.84191e+12
       934.90000    0.0456369  1.84099e+12
       935.00000    0.0456369  1.84054e+12
       935.10000    0.0456369  1.83963e+12
       935.20000    0.0456369  1.83871e+12
       935.30000    0.0456369  1.83826e+12
       935.40000    0.0456369  1.83780e+12
       935.50000    0.0448658  1.80630e+12
       935.60000    0.0448658  1.80585e+12
       935.70000    0.0448658  1.80540e+12
       935.80000    0.0448658  1.80495e+12
       935.90000    0.0448658  1.80495e+12
       936.00000    0.0448658  1.80450e+12
       936.10000    0.0448658  1.80585e+12
       936.20000    0.0448658  1.80719e+12
       936.30000    0.0450219  1.81483e+12
       936.40000    0.0450219  1.81618e+12
       936.50000    0.0442475  1.78583e+12
       936.60000    0.0442475  1.78672e+12
       936.70000    0.0442475  1.78760e+12
       936.80000    0.0442475  1.78849e+12
       936.90000    0.0442475  1.78893e+12
       937.00000    0.0442475  1.78981e+12
       937.10000    0.0442475  1.79026e+12
       937.20000    0.0442475  1.79070e+12
       937.30000    0.0442475  1.79070e+12
       937.40000    0.0442475  1.79114e+12
       937.50000    0.0434366  1.75831e+12
       937.60000    0.0434366  1.75831e+12
       937.70000    0.0434366  1.75831e+12
       937.80000    0.0434366  1.75831e+12
       937.90000    0.0434366  1.75788e+12
       938.00000    0.0434366  1.75788e+12
       938.10000    0.0434366  1.75744e+12
       938.20000    0.0434366  1.75657e+12
       938.30000    0.0434366  1.75614e+12
       938.40000    0.0434366  1.75527e+12
       938.50000    0.0426606  1.72349e+12
       938.60000    0.0426606  1.72264e+12
       938.70000    0.0426606  1.72136e+12
       938.80000    0.0427803  1.72533e+12
       938.90000    0.0427803  1.72405e+12
       939.00000    0.0427803  1.72319e+12
       939.10000    0.0427803  1.72191e+12
       939.20000    0.0427803  1.72020e+12
       939.30000    0.0427803  1.71891e+12
       939.40000    0.0427803  1.71720e+12
       939.50000    0.0419778  1.68331e+12
       939.60000    0.0419778  1.68163e+12
       939.70000    0.0419778  1.67995e+12
       939.80000    0.0419778  1.67827e+12
       939.90000    0.0419778  1.67617e+12
       940.00000    0.0419778  1.67407e+12
       940.10000    0.0419778  1.67114e+12
       940.20000    0.0419778  1.66820e+12
       940.30000    0.0419778  1.66568e+12
       940.40000    0.0419778  1.66316e+12
       940.50000    0.0412070  1.63015e+12
       940.60000    0.0412070  1.62809e+12
       940.70000    0.0412070  1.62603e+12
       940.80000    0.0412070  1.62397e+12
       940.90000    0.0412070  1.62191e+12
       941.00000    0.0412070  1.62026e+12
       941.10000    0.0412070  1.61861e+12
       941.20000    0.0412070  1.61737e+12
       941.30000    0.0412601  1.61822e+12
       941.40000    0.0412601  1.61698e+12
       941.50000    0.0404740  1.58496e+12
       941.60000    0.0404740  1.58415e+12
       941.70000    0.0404740  1.58334e+12
       941.80000    0.0404740  1.58253e+12
       941.90000    0.0404740  1.58172e+12
       942.00000    0.0404740  1.58132e+12
       942.10000    0.0404740  1.58253e+12
       942.20000    0.0404740  1.58334e+12
       942.30000    0.0404740  1.58456e+12
       942.40000    0.0404740  1.58537e+12
       942.50000    0.0397554  1.55801e+12
       942.60000    0.0397554  1.55921e+12
       942.70000    0.0397554  1.56000e+12
       942.80000    0.0397554  1.56080e+12
       942.90000    0.0397554  1.56159e+12
       943.00000    0.0397554  1.56239e+12
       943.10000    0.0397554  1.56358e+12
       943.20000    0.0397554  1.56438e+12
       943.30000    0.0397554  1.56517e+12
       943.40000    0.0397554  1.56597e+12
       943.50000    0.0390279  1.53809e+12
       943.60000    0.0390279  1.53887e+12
       943.70000    0.0390279  1.53965e+12
       943.80000    0.0390218  1.54019e+12
       943.90000    0.0390218  1.54097e+12
       944.00000    0.0390218  1.54175e+12
       944.10000    0.0390218  1.54253e+12
       944.20000    0.0390218  1.54331e+12
       944.30000    0.0390218  1.54370e+12
       944.40000    0.0390218  1.54448e+12
       944.50000    0.0383145  1.51725e+12
       944.60000    0.0383145  1.51802e+12
       944.70000    0.0383145  1.51840e+12
       944.80000    0.0383145  1.51917e+12
       944.90000    0.0383145  1.51994e+12
       945.00000    0.0383145  1.52032e+12
       945.10000    0.0383145  1.52108e+12
       945.20000    0.0383145  1.52185e+12
       945.30000    0.0383145  1.52223e+12
       945.40000    0.0383145  1.52300e+12
       945.50000    0.0376308  1.49620e+12
       945.60000    0.0376308  1.49695e+12
       945.70000    0.0376308  1.49733e+12
       945.80000    0.0376308  1.49808e+12
       945.90000    0.0376308  1.49846e+12
       946.00000    0.0376308  1.49884e+12
       946.10000    0.0376308  1.49959e+12
       946.20000    0.0376308  1.50034e+12
       946.30000    0.0376420  1.50154e+12
       946.40000    0.0376420  1.50229e+12
       946.50000    0.0369706  1.47624e+12
       946.60000    0.0369706  1.47661e+12
       946.70000    0.0369706  1.47735e+12
       946.80000    0.0369706  1.47771e+12
       946.90000    0.0369706  1.47808e+12
       947.00000    0.0369706  1.47882e+12
       947.10000    0.0369706  1.47919e+12
       947.20000    0.0369706  1.47956e+12
       947.30000    0.0369706  1.47993e+12
       947.40000    0.0369706  1.48030e+12
       947.50000    0.0363089  1.45381e+12
       947.60000    0.0363089  1.45417e+12
       947.70000    0.0363089  1.45453e+12
       947.80000    0.0363089  1.45453e+12
       947.90000    0.0363089  1.45490e+12
       948.00000    0.0363089  1.45490e+12
       948.10000    0.0363089  1.45490e+12
       948.20000    0.0363089  1.45490e+12
       948.30000    0.0363089  1.45453e+12
       948.40000    0.0363089  1.45453e+12
       948.50000    0.0356427  1.42749e+12
       948.60000    0.0356427  1.42749e+12
       948.70000    0.0356427  1.42749e+12
       948.80000    0.0357533  1.43156e+12
       948.90000    0.0357533  1.43156e+12
       949.00000    0.0357533  1.43121e+12
       949.10000    0.0357533  1.43121e+12
       949.20000    0.0357533  1.43085e+12
       949.30000    0.0357533  1.43085e+12
       949.40000    0.0357533  1.43049e+12
       949.50000    0.0350988  1.40430e+12
       949.60000    0.0350988  1.40395e+12
       949.70000    0.0350988  1.40360e+12
       949.80000    0.0350988  1.40360e+12
       949.90000    0.0350988  1.40325e+12
       950.00000    0.0350988  1.40290e+12
       950.10000    0.0350988  1.40290e+12
       950.20000    0.0350988  1.40255e+12
       950.30000    0.0350988  1.40220e+12
       950.40000    0.0350988  1.40220e+12
       950.50000    0.0347208  1.38675e+12
       950.60000    0.0347208  1.38640e+12
       950.70000    0.0347208  1.38606e+12
       950.80000    0.0347208  1.38606e+12
       950.90000    0.0347208  1.38571e+12
       951.00000    0.0347208  1.38536e+12
       951.10000    0.0347208  1.38501e+12
       951.20000    0.0347208  1.38467e+12
       951.30000    0.0346877  1.38335e+12
       951.40000    0.0346877  1.38300e+12
       951.50000    0.0343075  1.36750e+12
       951.60000    0.0343075  1.36715e+12
       951.70000    0.0343075  1.36681e+12
       951.80000    0.0343075  1.36647e+12
       951.90000    0.0343075  1.36612e+12
       952.00000    0.0343075  1.36578e+12
       952.10000    0.0343075  1.36304e+12
       952.20000    0.0343075  1.36029e+12
       952.30000    0.0343075  1.35789e+12
       952.40000    0.0343075  1.35549e+12
       952.50000    0.0339651  1.33958e+12
       952.60000    0.0339651  1.33721e+12
       952.70000    0.0339651  1.33517e+12
       952.80000    0.0339651  1.33313e+12
       952.90000    0.0339651  1.33109e+12
       953.00000    0.0339651  1.32939e+12
       953.10000    0.0339651  1.32770e+12
       953.20000    0.0339651  1.32600e+12
       953.30000    0.0339651  1.32464e+12
       953.40000    0.0339651  1.32294e+12
       953.50000    0.0336088  1.30772e+12
       953.60000    0.0336088  1.30671e+12
       953.70000    0.0336088  1.30536e+12
       953.80000    0.0336805  1.30714e+12
       953.90000    0.0336805  1.30613e+12
       954.00000    0.0336805  1.30545e+12
       954.10000    0.0336805  1.30512e+12
       954.20000    0.0336805  1.30478e+12
       954.30000    0.0336805  1.30478e+12
       954.40000    0.0336805  1.30478e+12
       954.50000    0.0333164  1.29034e+12
       954.60000    0.0333164  1.29034e+12
       954.70000    0.0333164  1.29034e+12
       954.80000    0.0333164  1.29034e+12
       954.90000    0.0333164  1.29068e+12
       955.00000    0.0333164  1.29068e+12
       955.10000    0.0333164  1.29101e+12
       955.20000    0.0333164  1.29101e+12
       955.30000    0.0333164  1.29134e+12
       955.40000    0.0333164  1.29168e+12
       955.50000    0.0329633  1.27832e+12
       955.60000    0.0329633  1.27865e+12
       955.70000    0.0329633  1.27898e+12
       955.80000    0.0329633  1.27964e+12
       955.90000    0.0329633  1.27997e+12
       956.00000    0.0329633  1.28063e+12
       956.10000    0.0329633  1.28128e+12
       956.20000    0.0329633  1.28161e+12
       956.30000    0.0330752  1.28663e+12
       956.40000    0.0330752  1.28762e+12
       956.50000    0.0327109  1.27409e+12
       956.60000    0.0327109  1.27474e+12
       956.70000    0.0327109  1.27572e+12
       956.80000    0.0327109  1.27638e+12
       956.90000    0.0327109  1.27736e+12
       957.00000    0.0327109  1.27834e+12
       957.10000    0.0327109  1.27932e+12
       957.20000    0.0327109  1.28030e+12
       957.30000    0.0327109  1.28161e+12
       957.40000    0.0327109  1.28259e+12
       957.50000    0.0323428  1.26913e+12
       957.60000    0.0323428  1.27042e+12
       957.70000    0.0323428  1.27172e+12
       957.80000    0.0323428  1.27301e+12
       957.90000    0.0323428  1.27431e+12
       958.00000    0.0323428  1.27560e+12
       958.10000    0.0323428  1.27560e+12
       958.20000    0.0323428  1.27528e+12
       958.30000    0.0323428  1.27528e+12
       958.40000    0.0323428  1.27528e+12
       958.50000    0.0319905  1.26139e+12
       958.60000    0.0319905  1.26107e+12
       958.70000    0.0319905  1.26107e+12
       958.80000    0.0320235  1.26237e+12
       958.90000    0.0320235  1.26205e+12
       959.00000    0.0320235  1.26205e+12
       959.10000    0.0320235  1.26173e+12
       959.20000    0.0320235  1.26173e+12
       959.30000    0.0320235  1.26141e+12
       959.40000    0.0320235  1.26109e+12
       959.50000    0.0316437  1.24613e+12
       959.60000    0.0316437  1.24581e+12
       959.70000    0.0316437  1.24581e+12
       959.80000    0.0316437  1.24550e+12
       959.90000    0.0316437  1.24518e+12
       960.00000    0.0316437  1.24486e+12
       960.10000    0.0316437  1.24455e+12
       960.20000    0.0316437  1.24423e+12
       960.30000    0.0316437  1.24391e+12
       960.40000    0.0316437  1.24360e+12
       960.50000    0.0312664  1.22846e+12
       960.60000    0.0312664  1.22814e+12
       960.70000    0.0312664  1.22783e+12
       960.80000    0.0312664  1.22752e+12
       960.90000    0.0312664  1.22721e+12
       961.00000    0.0312664  1.22689e+12
       961.10000    0.0312664  1.22658e+12
       961.20000    0.0312664  1.22627e+12
       961.30000    0.0313277  1.22836e+12
       961.40000    0.0313277  1.22805e+12
       961.50000    0.0309271  1.21203e+12
       961.60000    0.0309271  1.21142e+12
       961.70000    0.0309271  1.21111e+12
       961.80000    0.0309271  1.21080e+12
       961.90000    0.0309271  1.21049e+12
       962.00000    0.0309271  1.21018e+12
       962.10000    0.0309271  1.20956e+12
       962.20000    0.0309271  1.20925e+12
       962.30000    0.0309271  1.20894e+12
       962.40000    0.0309271  1.20832e+12
       962.50000    0.0305146  1.19190e+12
       962.60000    0.0305146  1.19160e+12
       962.70000    0.0305146  1.19099e+12
       962.80000    0.0305146  1.19068e+12
       962.90000    0.0305146  1.19007e+12
       963.00000    0.0305146  1.18976e+12
       963.10000    0.0305146  1.18946e+12
       963.20000    0.0305146  1.18885e+12
       963.30000    0.0305146  1.18854e+12
       963.40000    0.0305146  1.18793e+12
       963.50000    0.0300898  1.17109e+12
       963.60000    0.0300898  1.17049e+12
       963.70000    0.0300898  1.17019e+12
       963.80000    0.0301533  1.17206e+12
       963.90000    0.0301533  1.17146e+12
       964.00000    0.0301533  1.17115e+12
       964.10000    0.0301533  1.17055e+12
       964.20000    0.0301533  1.16965e+12
       964.30000    0.0301533  1.16904e+12
       964.40000    0.0301533  1.16874e+12
       964.50000    0.0297216  1.15141e+12
       964.60000    0.0297216  1.15082e+12
       964.70000    0.0297216  1.15052e+12
       964.80000    0.0297216  1.14993e+12
       964.90000    0.0297216  1.14963e+12
       965.00000    0.0297216  1.14904e+12
       965.10000    0.0297216  1.14874e+12
       965.20000    0.0297216  1.14844e+12
       965.30000    0.0297216  1.14814e+12
       965.40000    0.0297216  1.14814e+12
       965.50000    0.0292958  1.13141e+12
       965.60000    0.0292958  1.13111e+12
       965.70000    0.0292958  1.13111e+12
       965.80000    0.0292958  1.13082e+12
       965.90000    0.0292958  1.13082e+12
       966.00000    0.0292958  1.13082e+12
       966.10000    0.0292958  1.13111e+12
       966.20000    0.0292958  1.13141e+12
       966.30000    0.0293919  1.13570e+12
       966.40000    0.0293919  1.13600e+12
       966.50000    0.0289450  1.11901e+12
       966.60000    0.0289450  1.11930e+12
       966.70000    0.0289450  1.11959e+12
       966.80000    0.0289450  1.11988e+12
       966.90000    0.0289450  1.12017e+12
       967.00000    0.0289450  1.12046e+12
       967.10000    0.0289450  1.12075e+12
       967.20000    0.0289450  1.12104e+12
       967.30000    0.0289450  1.12133e+12
       967.40000    0.0289450  1.12162e+12
       967.50000    0.0284883  1.10392e+12
       967.60000    0.0284883  1.10421e+12
       967.70000    0.0284883  1.10449e+12
       967.80000    0.0284883  1.10449e+12
       967.90000    0.0284883  1.10478e+12
       968.00000    0.0284883  1.10506e+12
       968.10000    0.0284883  1.10506e+12
       968.20000    0.0284883  1.10535e+12
       968.30000    0.0284883  1.10535e+12
       968.40000    0.0284883  1.10535e+12
       968.50000    0.0280478  1.08854e+12
       968.60000    0.0280478  1.08854e+12
       968.70000    0.0280478  1.08854e+12
       968.80000    0.0281141  1.09139e+12
       968.90000    0.0281141  1.09139e+12
       969.00000    0.0281141  1.09139e+12
       969.10000    0.0281141  1.09139e+12
       969.20000    0.0281141  1.09139e+12
       969.30000    0.0281141  1.09139e+12
       969.40000    0.0281141  1.09139e+12
       969.50000    0.0276904  1.07494e+12
       969.60000    0.0276904  1.07494e+12
       969.70000    0.0276904  1.07494e+12
       969.80000    0.0276904  1.07494e+12
       969.90000    0.0276904  1.07494e+12
       970.00000    0.0276904  1.07494e+12
       970.10000    0.0276904  1.07522e+12
       970.20000    0.0276904  1.07550e+12
       970.30000    0.0276904  1.07550e+12
       970.40000    0.0276904  1.07577e+12
       970.50000    0.0272590  1.05901e+12
       970.60000    0.0272590  1.05928e+12
       970.70000    0.0272590  1.05928e+12
       970.80000    0.0272590  1.05928e+12
       970.90000    0.0272590  1.05928e+12
       971.00000    0.0272590  1.05928e+12
       971.10000    0.0272590  1.05928e+12
       971.20000    0.0272590  1.05901e+12
       971.30000    0.0273031  1.06073e+12
       971.40000    0.0273031  1.06045e+12
       971.50000    0.0268623  1.04333e+12
       971.60000    0.0268623  1.04306e+12
       971.70000    0.0268623  1.04279e+12
       971.80000    0.0268623  1.04253e+12
       971.90000    0.0268623  1.04226e+12
       972.00000    0.0268623  1.04172e+12
       972.10000    0.0268623  1.04065e+12
       972.20000    0.0268623  1.03957e+12
       972.30000    0.0268623  1.03877e+12
       972.40000    0.0268623  1.03769e+12
       972.50000    0.0264314  1.02025e+12
       972.60000    0.0264314  1.01920e+12
       972.70000    0.0264314  1.01840e+12
       972.80000    0.0264314  1.01761e+12
       972.90000    0.0264314  1.01682e+12
       973.00000    0.0264314  1.01629e+12
       973.10000    0.0264314  1.01550e+12
       973.20000    0.0264314  1.01497e+12
       973.30000    0.0264314  1.01444e+12
       973.40000    0.0264314  1.01391e+12
       973.50000    0.0259893  9.96430e+11
       973.60000    0.0259893  9.95910e+11
       973.70000    0.0259893  9.95650e+11
       973.80000    0.0260034  9.95669e+11
       973.90000    0.0260034  9.95409e+11
       974.00000    0.0260034  9.95149e+11
       974.10000    0.0260034  9.95409e+11
       974.20000    0.0260034  9.95929e+11
       974.30000    0.0260034  9.96189e+11
       974.40000    0.0260034  9.96449e+11
       974.50000    0.0255376  9.78857e+11
       974.60000    0.0255376  9.79113e+11
       974.70000    0.0255376  9.79368e+11
       974.80000    0.0255376  9.79624e+11
       974.90000    0.0255376  9.79624e+11
       975.00000    0.0255376  9.79879e+11
       975.10000    0.0255376  9.80134e+11
       975.20000    0.0255376  9.80134e+11
       975.30000    0.0255376  9.80390e+11
       975.40000    0.0255376  9.80390e+11
       975.50000    0.0250574  9.61953e+11
       975.60000    0.0250574  9.62204e+11
       975.70000    0.0250574  9.62204e+11
       975.80000    0.0250574  9.62204e+11
       975.90000    0.0250574  9.62204e+11
       976.00000    0.0250574  9.62204e+11
       976.10000    0.0250574  9.61953e+11
       976.20000    0.0250574  9.61702e+11
       976.30000    0.0250405  9.60805e+11
       976.40000    0.0250405  9.60555e+11
       976.50000    0.0245490  9.41701e+11
       976.60000    0.0245490  9.41456e+11
       976.70000    0.0245490  9.41210e+11
       976.80000    0.0245490  9.40965e+11
       976.90000    0.0245490  9.40965e+11
       977.00000    0.0245490  9.40719e+11
       977.10000    0.0245490  9.40474e+11
       977.20000    0.0245490  9.40228e+11
       977.30000    0.0245490  9.40228e+11
       977.40000    0.0245490  9.39983e+11
       977.50000    0.0240447  9.20431e+11
       977.60000    0.0240447  9.20431e+11
       977.70000    0.0240447  9.20190e+11
       977.80000    0.0240447  9.19950e+11
       977.90000    0.0240447  9.19950e+11
       978.00000    0.0240447  9.19709e+11
       978.10000    0.0240447  9.19709e+11
       978.20000    0.0240447  9.19469e+11
       978.30000    0.0240447  9.19469e+11
       978.40000    0.0240447  9.19228e+11
       978.50000    0.0234925  8.97885e+11
       978.60000    0.0234925  8.97885e+11
       978.70000    0.0234925  8.97885e+11
       978.80000    0.0234887  8.97502e+11
       978.90000    0.0234887  8.97502e+11
       979.00000    0.0234887  8.97267e+11
       979.10000    0.0234887  8.97267e+11
       979.20000    0.0234887  8.97032e+11
       979.30000    0.0234887  8.97032e+11
       979.40000    0.0234887  8.97032e+11
       979.50000    0.0229353  8.75669e+11
       979.60000    0.0229353  8.75669e+11
       979.70000    0.0229353  8.75669e+11
       979.80000    0.0229353  8.75440e+11
       979.90000    0.0229353  8.75440e+11
       980.00000    0.0229353  8.75440e+11
       980.10000    0.0229353  8.75898e+11
       980.20000    0.0229353  8.76128e+11
       980.30000    0.0229353  8.76586e+11
       980.40000    0.0229353  8.76816e+11
       980.50000    0.0223704  8.55669e+11
       980.60000    0.0223704  8.55893e+11
       980.70000    0.0223704  8.56116e+11
       980.80000    0.0223704  8.56340e+11
       980.90000    0.0223704  8.56564e+11
       981.00000    0.0223704  8.56788e+11
       981.10000    0.0223704  8.57011e+11
       981.20000    0.0223704  8.57235e+11
       981.30000    0.0224905  8.61834e+11
       981.40000    0.0224905  8.62059e+11
       981.50000    0.0219250  8.40386e+11
       981.60000    0.0219250  8.40386e+11
       981.70000    0.0219250  8.40605e+11
       981.80000    0.0219250  8.40605e+11
       981.90000    0.0219250  8.40605e+11
       982.00000    0.0219250  8.40386e+11
       982.10000    0.0219250  8.40166e+11
       982.20000    0.0219250  8.39728e+11
       982.30000    0.0219250  8.39509e+11
       982.40000    0.0219250  8.39070e+11
       982.50000    0.0213638  8.17379e+11
       982.60000    0.0213638  8.16952e+11
       982.70000    0.0213638  8.16738e+11
       982.80000    0.0213638  8.16525e+11
       982.90000    0.0213638  8.16097e+11
       983.00000    0.0213638  8.15884e+11
       983.10000    0.0213638  8.15670e+11
       983.20000    0.0213638  8.15456e+11
       983.30000    0.0213638  8.15243e+11
       983.40000    0.0213638  8.14816e+11
       983.50000    0.0208079  7.93405e+11
       983.60000    0.0208079  7.93197e+11
       983.70000    0.0208079  7.92988e+11
       983.80000    0.0208242  7.93400e+11
       983.90000    0.0208242  7.93192e+11
       984.00000    0.0208242  7.92984e+11
       984.10000    0.0208242  7.92984e+11
       984.20000    0.0208242  7.92775e+11
       984.30000    0.0208242  7.92567e+11
       984.40000    0.0208242  7.92359e+11
       984.50000    0.0202957  7.72251e+11
       984.60000    0.0202957  7.72048e+11
       984.70000    0.0202957  7.71845e+11
       984.80000    0.0202957  7.71845e+11
       984.90000    0.0202957  7.71642e+11
       985.00000    0.0202957  7.71439e+11
       985.10000    0.0202957  7.71439e+11
       985.20000    0.0202957  7.71236e+11
       985.30000    0.0202957  7.71236e+11
       985.40000    0.0202957  7.71236e+11
       985.50000    0.0197817  7.51506e+11
       985.60000    0.0197817  7.51506e+11
       985.70000    0.0197817  7.51506e+11
       985.80000    0.0197817  7.51308e+11
       985.90000    0.0197817  7.51308e+11
       986.00000    0.0197817  7.51308e+11
       986.10000    0.0197817  7.51110e+11
       986.20000    0.0197817  7.51110e+11
       986.30000    0.0196683  7.46807e+11
       986.40000    0.0196683  7.46610e+11
       986.50000    0.0191795  7.27862e+11
       986.60000    0.0191795  7.27862e+11
       986.70000    0.0191795  7.27670e+11
       986.80000    0.0191795  7.27670e+11
       986.90000    0.0191795  7.27479e+11
       987.00000    0.0191795  7.27287e+11
       987.10000    0.0191795  7.27095e+11
       987.20000    0.0191795  7.27095e+11
       987.30000    0.0191795  7.26903e+11
       987.40000    0.0191795  7.26711e+11
       987.50000    0.0187210  7.09150e+11
       987.60000    0.0187210  7.08963e+11
       987.70000    0.0187210  7.08776e+11
       987.80000    0.0187210  7.08589e+11
       987.90000    0.0187210  7.08401e+11
       988.00000    0.0187210  7.08214e+11
       988.10000    0.0187210  7.07653e+11
       988.20000    0.0187210  7.07278e+11
       988.30000    0.0187210  7.06716e+11
       988.40000    0.0187210  7.06342e+11
       988.50000    0.0182788  6.89295e+11
       988.60000    0.0182788  6.88930e+11
       988.70000    0.0182788  6.88564e+11
       988.80000    0.0183293  6.90098e+11
       988.90000    0.0183293  6.89731e+11
       989.00000    0.0183293  6.89548e+11
       989.10000    0.0183293  6.89365e+11
       989.20000    0.0183293  6.88998e+11
       989.30000    0.0183293  6.88815e+11
       989.40000    0.0183293  6.88632e+11
       989.50000    0.0179056  6.72534e+11
       989.60000    0.0179056  6.72355e+11
       989.70000    0.0179056  6.72355e+11
       989.80000    0.0179056  6.72176e+11
       989.90000    0.0179056  6.72176e+11
       990.00000    0.0179056  6.72176e+11
       990.10000    0.0179056  6.71997e+11
       990.20000    0.0179056  6.71997e+11
       990.30000    0.0179056  6.72176e+11
       990.40000    0.0179056  6.72176e+11
       990.50000    0.0175087  6.57275e+11
       990.60000    0.0175087  6.57450e+11
       990.70000    0.0175087  6.57450e+11
       990.80000    0.0175087  6.57625e+11
       990.90000    0.0175087  6.57800e+11
       991.00000    0.0175087  6.57975e+11
       991.10000    0.0175087  6.58150e+11
       991.20000    0.0175087  6.58326e+11
       991.30000    0.0175458  6.59896e+11
       991.40000    0.0175458  6.60247e+11
       991.50000    0.0171629  6.46011e+11
       991.60000    0.0171629  6.46354e+11
       991.70000    0.0171629  6.46697e+11
       991.80000    0.0171629  6.47041e+11
       991.90000    0.0171629  6.47384e+11
       992.00000    0.0171629  6.47727e+11
       992.10000    0.0171629  6.47899e+11
       992.20000    0.0171629  6.47899e+11
       992.30000    0.0171629  6.47899e+11
       992.40000    0.0171629  6.47899e+11
       992.50000    0.0167830  6.33724e+11
       992.60000    0.0167830  6.33724e+11
       992.70000    0.0167830  6.33724e+11
       992.80000    0.0167830  6.33724e+11
       992.90000    0.0167830  6.33724e+11
       993.00000    0.0167830  6.33892e+11
       993.10000    0.0167830  6.33892e+11
       993.20000    0.0167830  6.33892e+11
       993.30000    0.0167830  6.33892e+11
       993.40000    0.0167830  6.33892e+11
       993.50000    0.0164393  6.20914e+11
       993.60000    0.0164393  6.20914e+11
       993.70000    0.0164393  6.20914e+11
       993.80000    0.0164485  6.21260e+11
       993.90000    0.0164485  6.21096e+11
       994.00000    0.0164485  6.21096e+11
       994.10000    0.0164485  6.21096e+11
       994.20000    0.0164485  6.20931e+11
       994.30000    0.0164485  6.20931e+11
       994.40000    0.0164485  6.20767e+11
       994.50000    0.0161045  6.07784e+11
       994.60000    0.0161045  6.07623e+11
       994.70000    0.0161045  6.07623e+11
       994.80000    0.0161045  6.07462e+11
       994.90000    0.0161045  6.07462e+11
       995.00000    0.0161045  6.07301e+11
       995.10000    0.0161045  6.07301e+11
       995.20000    0.0161045  6.07301e+11
       995.30000    0.0161045  6.07140e+11
       995.40000    0.0161045  6.07140e+11
       995.50000    0.0157623  5.94240e+11
       995.60000    0.0157623  5.94082e+11
       995.70000    0.0157623  5.94082e+11
       995.80000    0.0157623  5.94082e+11
       995.90000    0.0157623  5.94082e+11
       996.00000    0.0157623  5.93924e+11
       996.10000    0.0157623  5.94082e+11
       996.20000    0.0157623  5.94082e+11
       996.30000    0.0157807  5.94775e+11
       996.40000    0.0157807  5.94775e+11
       996.50000    0.0154504  5.82324e+11
       996.60000    0.0154504  5.82324e+11
       996.70000    0.0154504  5.82324e+11
       996.80000    0.0154504  5.82324e+11
       996.90000    0.0154504  5.82324e+11
       997.00000    0.0154504  5.82324e+11
       997.10000    0.0154504  5.82324e+11
       997.20000    0.0154504  5.82324e+11
       997.30000    0.0154504  5.82324e+11
       997.40000    0.0154504  5.82324e+11
       997.50000    0.0151219  5.69945e+11
       997.60000    0.0151219  5.69945e+11
       997.70000    0.0151219  5.69945e+11
       997.80000    0.0151219  5.69945e+11
       997.90000    0.0151219  5.69945e+11
       998.00000    0.0151219  5.69794e+11
       998.10000    0.0151219  5.69794e+11
       998.20000    0.0151219  5.69643e+11
       998.30000    0.0151219  5.69643e+11
       998.40000    0.0151219  5.69492e+11
       998.50000    0.0147755  5.56298e+11
       998.60000    0.0147755  5.56298e+11
       998.70000    0.0147755  5.56150e+11
       998.80000    0.0148967  5.60713e+11
       998.90000    0.0148967  5.60713e+11
       999.00000    0.0148967  5.60564e+11
       999.10000    0.0148967  5.60564e+11
       999.20000    0.0148967  5.60415e+11
       999.30000    0.0148967  5.60415e+11
       999.40000    0.0148967  5.60415e+11
       999.50000    0.0145543  5.47387e+11
       999.60000    0.0145543  5.47387e+11
       999.70000    0.0145543  5.47387e+11
       999.80000    0.0145543  5.47387e+11
       999.90000    0.0145543  5.47387e+11
       1000.0000    0.0145543  5.47241e+11
       1000.1000    0.0145543  5.47241e+11
       1000.2000    0.0145543  5.47241e+11
       1000.3000    0.0145543  5.47241e+11
       1000.4000    0.0145543  5.47241e+11
       1000.5000    0.0143699  5.40309e+11
       1000.6000    0.0143699  5.40309e+11
       1000.7000    0.0143699  5.40309e+11
       1000.8000    0.0143699  5.40309e+11
       1000.9000    0.0143699  5.40309e+11
       1001.0000    0.0143699  5.40309e+11
       1001.1000    0.0143699  5.40309e+11
       1001.2000    0.0143699  5.40452e+11
       1001.3000    0.0142015  5.34118e+11
       1001.4000    0.0142015  5.34118e+11
       1001.5000    0.0140015  5.26597e+11
       1001.6000    0.0140015  5.26597e+11
       1001.7000    0.0140015  5.26737e+11
       1001.8000    0.0140015  5.26737e+11
       1001.9000    0.0140015  5.26737e+11
       1002.0000    0.0140015  5.26877e+11
       1002.1000    0.0140015  5.26037e+11
       1002.2000    0.0140015  5.25197e+11
       1002.3000    0.0140015  5.24497e+11
       1002.4000    0.0140015  5.23657e+11
       1002.5000    0.0137851  5.14873e+11
       1002.6000    0.0137851  5.14046e+11
       1002.7000    0.0137851  5.13357e+11
       1002.8000    0.0137851  5.12668e+11
       1002.9000    0.0137851  5.11978e+11
       1003.0000    0.0137851  5.11289e+11
       1003.1000    0.0137851  5.10600e+11
       1003.2000    0.0137851  5.09911e+11
       1003.3000    0.0137851  5.09359e+11
       1003.4000    0.0137851  5.08670e+11
       1003.5000    0.0135581  4.99750e+11
       1003.6000    0.0135581  4.99208e+11
       1003.7000    0.0135581  4.98530e+11
       1003.8000    0.0135544  4.97855e+11
       1003.9000    0.0135544  4.97312e+11
       1004.0000    0.0135544  4.96770e+11
       1004.1000    0.0135544  4.95957e+11
       1004.2000    0.0135544  4.95008e+11
       1004.3000    0.0135544  4.94331e+11
       1004.4000    0.0135544  4.93517e+11
       1004.5000    0.0133032  4.83704e+11
       1004.6000    0.0133032  4.83039e+11
       1004.7000    0.0133032  4.82507e+11
       1004.8000    0.0133032  4.81975e+11
       1004.9000    0.0133032  4.81576e+11
       1005.0000    0.0133032  4.81177e+11
       1005.1000    0.0133032  4.80777e+11
       1005.2000    0.0133032  4.80511e+11
       1005.3000    0.0133032  4.80245e+11
       1005.4000    0.0133032  4.80112e+11
       1005.5000    0.0130481  4.70774e+11
       1005.6000    0.0130481  4.70643e+11
       1005.7000    0.0130481  4.70643e+11
       1005.8000    0.0130481  4.70774e+11
       1005.9000    0.0130481  4.70774e+11
       1006.0000    0.0130481  4.70904e+11
       1006.1000    0.0130481  4.71165e+11
       1006.2000    0.0130481  4.71426e+11
       1006.3000    0.0130209  4.70707e+11
       1006.4000    0.0130209  4.71098e+11
       1006.5000    0.0127478  4.61599e+11
       1006.6000    0.0127478  4.62109e+11
       1006.7000    0.0127478  4.62619e+11
       1006.8000    0.0127478  4.63129e+11
       1006.9000    0.0127478  4.63766e+11
       1007.0000    0.0127478  4.64404e+11
       1007.1000    0.0127478  4.65169e+11
       1007.2000    0.0127478  4.65933e+11
       1007.3000    0.0127478  4.66698e+11
       1007.4000    0.0127478  4.67591e+11
       1007.5000    0.0124790  4.58602e+11
       1007.6000    0.0124790  4.59601e+11
       1007.7000    0.0124790  4.60599e+11
       1007.8000    0.0124790  4.61597e+11
       1007.9000    0.0124790  4.62720e+11
       1008.0000    0.0124790  4.63843e+11
       1008.1000    0.0124790  4.63968e+11
       1008.2000    0.0124790  4.63968e+11
       1008.3000    0.0124790  4.63968e+11
       1008.4000    0.0124790  4.63968e+11
       1008.5000    0.0122151  4.54157e+11
       1008.6000    0.0122151  4.54157e+11
       1008.7000    0.0122151  4.54157e+11
       1008.8000    0.0121895  4.53204e+11
       1008.9000    0.0121895  4.53204e+11
       1009.0000    0.0121895  4.53082e+11
       1009.1000    0.0121895  4.53082e+11
       1009.2000    0.0121895  4.53082e+11
       1009.3000    0.0121895  4.53082e+11
       1009.4000    0.0121895  4.52960e+11
       1009.5000    0.0119341  4.43472e+11
       1009.6000    0.0119341  4.43472e+11
       1009.7000    0.0119341  4.43353e+11
       1009.8000    0.0119341  4.43353e+11
       1009.9000    0.0119341  4.43233e+11
       1010.0000    0.0119341  4.43233e+11
       1010.1000    0.0119341  4.43114e+11
       1010.2000    0.0119341  4.42995e+11
       1010.3000    0.0119341  4.42875e+11
       1010.4000    0.0119341  4.42756e+11
       1010.5000    0.0116846  4.33380e+11
       1010.6000    0.0116846  4.33263e+11
       1010.7000    0.0116846  4.33146e+11
       1010.8000    0.0116846  4.33030e+11
       1010.9000    0.0116846  4.32913e+11
       1011.0000    0.0116846  4.32796e+11
       1011.1000    0.0116846  4.32796e+11
       1011.2000    0.0116846  4.32679e+11
       1011.3000    0.0116533  4.31404e+11
       1011.4000    0.0116533  4.31288e+11
       1011.5000    0.0114097  4.22158e+11
       1011.6000    0.0114097  4.22044e+11
       1011.7000    0.0114097  4.21930e+11
       1011.8000    0.0114097  4.21815e+11
       1011.9000    0.0114097  4.21701e+11
       1012.0000    0.0114097  4.21587e+11
       1012.1000    0.0114097  4.21473e+11
       1012.2000    0.0114097  4.21359e+11
       1012.3000    0.0114097  4.21245e+11
       1012.4000    0.0114097  4.21131e+11
       1012.5000    0.0111715  4.12228e+11
       1012.6000    0.0111715  4.12116e+11
       1012.7000    0.0111715  4.12005e+11
       1012.8000    0.0111715  4.11893e+11
       1012.9000    0.0111715  4.11893e+11
       1013.0000    0.0111715  4.11781e+11
       1013.1000    0.0111715  4.11669e+11
       1013.2000    0.0111715  4.11558e+11
       1013.3000    0.0111715  4.11446e+11
       1013.4000    0.0111715  4.11334e+11
       1013.5000    0.0109220  4.02038e+11
       1013.6000    0.0109220  4.01929e+11
       1013.7000    0.0109220  4.01819e+11
       1013.8000    0.0109135  4.01398e+11
       1013.9000    0.0109135  4.01289e+11
       1014.0000    0.0109135  4.01180e+11
       1014.1000    0.0109135  4.00961e+11
       1014.2000    0.0109135  4.00743e+11
       1014.3000    0.0109135  4.00525e+11
       1014.4000    0.0109135  4.00307e+11
       1014.5000    0.0106436  3.90299e+11
       1014.6000    0.0106436  3.90086e+11
       1014.7000    0.0106436  3.89873e+11
       1014.8000    0.0106436  3.89767e+11
       1014.9000    0.0106436  3.89554e+11
       1015.0000    0.0106436  3.89448e+11
       1015.1000    0.0106436  3.89235e+11
       1015.2000    0.0106436  3.89128e+11
       1015.3000    0.0106436  3.89022e+11
       1015.4000    0.0106436  3.88809e+11
       1015.5000    0.0103307  3.77278e+11
       1015.6000    0.0103307  3.77174e+11
       1015.7000    0.0103307  3.77071e+11
       1015.8000    0.0103307  3.76968e+11
       1015.9000    0.0103307  3.76864e+11
       1016.0000    0.0103307  3.76761e+11
       1016.1000    0.0103307  3.76761e+11
       1016.2000    0.0103307  3.76761e+11
       1016.3000    0.0103474  3.77371e+11
       1016.4000    0.0103474  3.77267e+11
       1016.5000   0.00996713  3.63402e+11
       1016.6000   0.00996713  3.63402e+11
       1016.7000   0.00996713  3.63402e+11
       1016.8000   0.00996713  3.63302e+11
       1016.9000   0.00996713  3.63302e+11
       1017.0000   0.00996713  3.63202e+11
       1017.1000   0.00996713  3.63202e+11
       1017.2000   0.00996713  3.63103e+11
       1017.3000   0.00996713  3.63103e+11
       1017.4000   0.00996713  3.63003e+11
       1017.5000   0.00951740  3.46624e+11
       1017.6000   0.00951740  3.46529e+11
       1017.7000   0.00951740  3.46434e+11
       1017.8000   0.00951740  3.46338e+11
       1017.9000   0.00951740  3.46243e+11
       1018.0000   0.00951740  3.46243e+11
       1018.1000   0.00951740  3.46053e+11
       1018.2000   0.00951740  3.45862e+11
       1018.3000   0.00951740  3.45672e+11
       1018.4000   0.00951740  3.45482e+11
       1018.5000   0.00897041  3.25536e+11
       1018.6000   0.00897041  3.25357e+11
       1018.7000   0.00897041  3.25267e+11
       1018.8000   0.00896618  3.24934e+11
       1018.9000   0.00896618  3.24845e+11
       1019.0000   0.00896618  3.24665e+11
       1019.1000   0.00896618  3.24576e+11
       1019.2000   0.00896618  3.24486e+11
       1019.3000   0.00896618  3.24396e+11
       1019.4000   0.00896618  3.24217e+11
       1019.5000   0.00830691  3.00295e+11
       1019.6000   0.00830691  3.00212e+11
       1019.7000   0.00830691  3.00129e+11
       1019.8000   0.00830691  3.00129e+11
       1019.9000   0.00830691  3.00046e+11
       1020.0000   0.00830691  2.99962e+11
       1020.1000   0.00830691  2.99879e+11
       1020.2000   0.00830691  2.99796e+11
       1020.3000   0.00830691  2.99796e+11
       1020.4000   0.00830691  2.99713e+11
       1020.5000   0.00757570  2.73331e+11
       1020.6000   0.00757570  2.73256e+11
       1020.7000   0.00757570  2.73256e+11
       1020.8000   0.00757570  2.73180e+11
       1020.9000   0.00757570  2.73180e+11
       1021.0000   0.00757570  2.73180e+11
       1021.1000   0.00757570  2.73180e+11
       1021.2000   0.00757570  2.73180e+11
       1021.3000   0.00755961  2.72599e+11
       1021.4000   0.00755961  2.72599e+11
       1021.5000   0.00677482  2.44300e+11
       1021.6000   0.00677482  2.44300e+11
       1021.7000   0.00677482  2.44300e+11
       1021.8000   0.00677482  2.44368e+11
       1021.9000   0.00677482  2.44368e+11
       1022.0000   0.00677482  2.44435e+11
       1022.1000   0.00677482  2.44435e+11
       1022.2000   0.00677482  2.44503e+11
       1022.3000   0.00677482  2.44571e+11
       1022.4000   0.00677482  2.44571e+11
       1022.5000   0.00591124  2.13455e+11
       1022.6000   0.00591124  2.13514e+11
       1022.7000   0.00591124  2.13573e+11
       1022.8000   0.00591124  2.13632e+11
       1022.9000   0.00591124  2.13691e+11
       1023.0000   0.00591124  2.13751e+11
       1023.1000   0.00591124  2.13869e+11
       1023.2000   0.00591124  2.13928e+11
       1023.3000   0.00591124  2.13987e+11
       1023.4000   0.00591124  2.14105e+11
       1023.5000   0.00507151  1.83741e+11
       1023.6000   0.00507151  1.83842e+11
       1023.7000   0.00507151  1.83893e+11
       1023.8000   0.00505667  1.83456e+11
       1023.9000   0.00505667  1.83557e+11
       1024.0000   0.00505667  1.83658e+11
       1024.1000   0.00505667  1.83658e+11
       1024.2000   0.00505667  1.83608e+11
       1024.3000   0.00505667  1.83608e+11
       1024.4000   0.00505667  1.83608e+11
       1024.5000   0.00426057  1.54701e+11
       1024.6000   0.00426057  1.54659e+11
       1024.7000   0.00426057  1.54659e+11
       1024.8000   0.00426057  1.54659e+11
       1024.9000   0.00426057  1.54616e+11
       1025.0000   0.00426057  1.54616e+11
       1025.1000   0.00426057  1.54616e+11
       1025.2000   0.00426057  1.54574e+11
       1025.3000   0.00426057  1.54574e+11
       1025.4000   0.00426057  1.54574e+11
       1025.5000   0.00350738  1.27213e+11
       1025.6000   0.00350738  1.27213e+11
       1025.7000   0.00350738  1.27177e+11
       1025.8000   0.00350738  1.27177e+11
       1025.9000   0.00350738  1.27142e+11
       1026.0000   0.00350738  1.27142e+11
       1026.1000   0.00350738  1.27142e+11
       1026.2000   0.00350738  1.27107e+11
       1026.3000   0.00349486  1.26654e+11
       1026.4000   0.00349486  1.26619e+11
       1026.5000   0.00282364  1.02300e+11
       1026.6000   0.00282364  1.02272e+11
       1026.7000   0.00282364  1.02244e+11
       1026.8000   0.00282364  1.02244e+11
       1026.9000   0.00282364  1.02216e+11
       1027.0000   0.00282364  1.02216e+11
       1027.1000   0.00282364  1.02187e+11
       1027.2000   0.00282364  1.02159e+11
       1027.3000   0.00282364  1.02159e+11
       1027.4000   0.00282364  1.02131e+11
       1027.5000   0.00226412  8.18705e+10
       1027.6000   0.00226412  8.18705e+10
       1027.7000   0.00226412  8.18479e+10
       1027.8000   0.00226412  8.18252e+10
       1027.9000   0.00226412  8.18026e+10
       1028.0000   0.00226412  8.17799e+10
       1028.1000   0.00226412  8.17799e+10
       1028.2000   0.00226412  8.17573e+10
       1028.3000   0.00226412  8.17347e+10
       1028.4000   0.00226412  8.17120e+10
       1028.5000   0.00178455  6.43864e+10
       1028.6000   0.00178455  6.43686e+10
       1028.7000   0.00178455  6.43507e+10
       1028.8000   0.00178507  6.43517e+10
       1028.9000   0.00178507  6.43339e+10
       1029.0000   0.00178507  6.43160e+10
       1029.1000   0.00178507  6.42982e+10
       1029.2000   0.00178507  6.42803e+10
       1029.3000   0.00178507  6.42625e+10
       1029.4000   0.00178507  6.42446e+10
       1029.5000   0.00139006  5.00143e+10
       1029.6000   0.00139006  5.00004e+10
       1029.7000   0.00139006  4.99865e+10
       1029.8000   0.00139006  4.99726e+10
       1029.9000   0.00139006  4.99587e+10
       1030.0000   0.00139006  4.99309e+10
       1030.1000   0.00139006  4.99448e+10
       1030.2000   0.00139006  4.99448e+10
       1030.3000   0.00139006  4.99448e+10
       1030.4000   0.00139006  4.99448e+10
       1030.5000   0.00108226  3.88856e+10
       1030.6000   0.00108226  3.88856e+10
       1030.7000   0.00108226  3.88747e+10
       1030.8000   0.00108226  3.88747e+10
       1030.9000   0.00108226  3.88747e+10
       1031.0000   0.00108226  3.88639e+10
       1031.1000   0.00108226  3.88639e+10
       1031.2000   0.00108226  3.88531e+10
       1031.3000   0.00108257  3.88643e+10
       1031.4000   0.00108257  3.88535e+10
       1031.5000  0.000836917  3.00286e+10
       1031.6000  0.000836917  3.00202e+10
       1031.7000  0.000836917  3.00119e+10
       1031.8000  0.000836917  3.00035e+10
       1031.9000  0.000836917  2.99951e+10
       1032.0000  0.000836917  2.99868e+10
       1032.1000  0.000836917  2.99616e+10
       1032.2000  0.000836917  2.99282e+10
       1032.3000  0.000836917  2.99031e+10
       1032.4000  0.000836917  2.98863e+10
       1032.5000  0.000646217  2.30570e+10
       1032.6000  0.000646217  2.30376e+10
       1032.7000  0.000646217  2.30247e+10
       1032.8000  0.000646217  2.30053e+10
       1032.9000  0.000646217  2.29924e+10
       1033.0000  0.000646217  2.29795e+10
       1033.1000  0.000646217  2.29666e+10
       1033.2000  0.000646217  2.29601e+10
       1033.3000  0.000646217  2.29472e+10
       1033.4000  0.000646217  2.29407e+10
       1033.5000  0.000501923  1.78082e+10
       1033.6000  0.000501923  1.78032e+10
       1033.7000  0.000501923  1.77982e+10
       1033.8000  0.000502646  1.78188e+10
       1033.9000  0.000502646  1.78188e+10
       1034.0000  0.000502646  1.78138e+10
       1034.1000  0.000502646  1.78138e+10
       1034.2000  0.000502646  1.78088e+10
       1034.3000  0.000502646  1.78088e+10
       1034.4000  0.000502646  1.78088e+10
       1034.5000  0.000389413  1.37969e+10
       1034.6000  0.000389413  1.38008e+10
       1034.7000  0.000389413  1.38008e+10
       1034.8000  0.000389413  1.38047e+10
       1034.9000  0.000389413  1.38047e+10
       1035.0000  0.000389413  1.38086e+10
       1035.1000  0.000389413  1.38125e+10
       1035.2000  0.000389413  1.38164e+10
       1035.3000  0.000389413  1.38242e+10
       1035.4000  0.000389413  1.38280e+10
       1035.5000  0.000301962  1.07287e+10
       1035.6000  0.000301962  1.07347e+10
       1035.7000  0.000301962  1.07378e+10
       1035.8000  0.000301962  1.07438e+10
       1035.9000  0.000301962  1.07529e+10
       1036.0000  0.000301962  1.07589e+10
       1036.1000  0.000301962  1.07529e+10
       1036.2000  0.000301962  1.07468e+10
       1036.3000  0.000301463  1.07230e+10
       1036.4000  0.000301463  1.07170e+10
       1036.5000  0.000237422  8.43562e+09
       1036.6000  0.000237422  8.43087e+09
       1036.7000  0.000237422  8.42850e+09
       1036.8000  0.000237422  8.42375e+09
       1036.9000  0.000237422  8.41900e+09
       1037.0000  0.000237422  8.41663e+09
       1037.1000  0.000237422  8.41425e+09
       1037.2000  0.000237422  8.40950e+09
       1037.3000  0.000237422  8.40713e+09
       1037.4000  0.000237422  8.40475e+09
       1037.5000  0.000188795  6.68146e+09
       1037.6000  0.000188795  6.67957e+09
       1037.7000  0.000188795  6.67769e+09
       1037.8000  0.000188795  6.67580e+09
       1037.9000  0.000188795  6.67391e+09
       1038.0000  0.000188795  6.67202e+09
       1038.1000  0.000188795  6.67202e+09
       1038.2000  0.000188795  6.67202e+09
       1038.3000  0.000188795  6.67391e+09
       1038.4000  0.000188795  6.67391e+09
       1038.5000  0.000148064  5.23405e+09
       1038.6000  0.000148064  5.23405e+09
       1038.7000  0.000148064  5.23405e+09
       1038.8000  0.000147738  5.22255e+09
       1038.9000  0.000147738  5.22255e+09
       1039.0000  0.000147738  5.22255e+09
       1039.1000  0.000147738  5.22255e+09
       1039.2000  0.000147738  5.22255e+09
       1039.3000  0.000147738  5.22255e+09
       1039.4000  0.000147738  5.22255e+09
       1039.5000  0.000118385  4.18491e+09
       1039.6000  0.000118385  4.18491e+09
       1039.7000  0.000118385  4.18491e+09
       1039.8000  0.000118385  4.18491e+09
       1039.9000  0.000118385  4.18491e+09
       1040.0000  0.000118385  4.18491e+09
       1040.1000  0.000118385  4.18491e+09
       1040.2000  0.000118385  4.18491e+09
       1040.3000  0.000118385  4.18491e+09
       1040.4000  0.000118385  4.18491e+09
       1040.5000  9.74917e-05  3.44633e+09
       1040.6000  9.74917e-05  3.44633e+09
       1040.7000  9.74917e-05  3.44633e+09
       1040.8000  9.74917e-05  3.44633e+09
       1040.9000  9.74917e-05  3.44633e+09
       1041.0000  9.74917e-05  3.44633e+09
       1041.1000  9.74917e-05  3.44633e+09
       1041.2000  9.74917e-05  3.44633e+09
       1041.3000  9.74558e-05  3.44506e+09
       1041.4000  9.74558e-05  3.44506e+09
       1041.5000  7.80198e-05  2.75800e+09
       1041.6000  7.80198e-05  2.75800e+09
       1041.7000  7.80198e-05  2.75800e+09
       1041.8000  7.80198e-05  2.75722e+09
       1041.9000  7.80198e-05  2.75722e+09
       1042.0000  7.80198e-05  2.75722e+09
       1042.1000  7.80198e-05  2.75800e+09
       1042.2000  7.80198e-05  2.75800e+09
       1042.3000  7.80198e-05  2.75878e+09
       1042.4000  7.80198e-05  2.75878e+09
       1042.5000  6.46085e-05  2.28456e+09
       1042.6000  6.46085e-05  2.28456e+09
       1042.7000  6.46085e-05  2.28456e+09
       1042.8000  6.46085e-05  2.28391e+09
       1042.9000  6.46085e-05  2.28391e+09
       1043.0000  6.46085e-05  2.28391e+09
       1043.1000  6.46085e-05  2.28326e+09
       1043.2000  6.46085e-05  2.28262e+09
       1043.3000  6.46085e-05  2.28262e+09
       1043.4000  6.46085e-05  2.28197e+09
       1043.5000  5.39202e-05  1.90392e+09
       1043.6000  5.39202e-05  1.90338e+09
       1043.7000  5.39202e-05  1.90284e+09
       1043.8000  5.40882e-05  1.90769e+09
       1043.9000  5.40882e-05  1.90715e+09
       1044.0000  5.40882e-05  1.90607e+09
       1044.1000  5.40882e-05  1.90390e+09
       1044.2000  5.40882e-05  1.90120e+09
       1044.3000  5.40882e-05  1.89904e+09
       1044.4000  5.40882e-05  1.89687e+09
       1044.5000  4.47006e-05  1.56586e+09
       1044.6000  4.47006e-05  1.56452e+09
       1044.7000  4.47006e-05  1.56273e+09
       1044.8000  4.47006e-05  1.56139e+09
       1044.9000  4.47006e-05  1.56005e+09
       1045.0000  4.47006e-05  1.55871e+09
       1045.1000  4.47006e-05  1.55782e+09
       1045.2000  4.47006e-05  1.55647e+09
       1045.3000  4.47006e-05  1.55558e+09
       1045.4000  4.47006e-05  1.55469e+09
       1045.5000  3.66962e-05  1.27593e+09
       1045.6000  3.66962e-05  1.27519e+09
       1045.7000  3.66962e-05  1.27483e+09
       1045.8000  3.66962e-05  1.27446e+09
       1045.9000  3.66962e-05  1.27409e+09
       1046.0000  3.66962e-05  1.27373e+09
       1046.1000  3.66962e-05  1.27373e+09
       1046.2000  3.66962e-05  1.27336e+09
       1046.3000  3.67873e-05  1.27652e+09
       1046.4000  3.67873e-05  1.27652e+09
       1046.5000  3.04589e-05  1.05723e+09
       1046.6000  3.04589e-05  1.05723e+09
       1046.7000  3.04589e-05  1.05753e+09
       1046.8000  3.04589e-05  1.05784e+09
       1046.9000  3.04589e-05  1.05814e+09
       1047.0000  3.04589e-05  1.05875e+09
       1047.1000  3.04589e-05  1.05906e+09
       1047.2000  3.04589e-05  1.05967e+09
       1047.3000  3.04589e-05  1.06027e+09
       1047.4000  3.04589e-05  1.06088e+09
       1047.5000  2.50301e-05  8.72548e+08
       1047.6000  2.50301e-05  8.73048e+08
       1047.7000  2.50301e-05  8.73799e+08
       1047.8000  2.50301e-05  8.74550e+08
       1047.9000  2.50301e-05  8.75301e+08
       1048.0000  2.50301e-05  8.76302e+08
       1048.1000  2.50301e-05  8.76302e+08
       1048.2000  2.50301e-05  8.76302e+08
       1048.3000  2.50301e-05  8.76302e+08
       1048.4000  2.50301e-05  8.76052e+08
       1048.5000  1.99079e-05  6.96777e+08
       1048.6000  1.99079e-05  6.96777e+08
       1048.7000  1.99079e-05  6.96777e+08
       1048.8000  1.99032e-05  6.96612e+08
       1048.9000  1.99032e-05  6.96612e+08
       1049.0000  1.99032e-05  6.96413e+08
       1049.1000  1.99032e-05  6.96413e+08
       1049.2000  1.99032e-05  6.96413e+08
       1049.3000  1.99032e-05  6.96214e+08
       1049.4000  1.99032e-05  6.96214e+08
       1049.5000  1.56470e-05  5.47333e+08
       1049.6000  1.56470e-05  5.47177e+08
       1049.7000  1.56470e-05  5.47177e+08
       1049.8000  1.56470e-05  5.47177e+08
       1049.9000  1.56470e-05  5.47020e+08
       1050.0000  1.56470e-05  5.47020e+08
       1050.1000  1.56470e-05  5.46864e+08
       1050.2000  1.56470e-05  5.46864e+08
       1050.3000  1.56470e-05  5.46707e+08
       1050.4000  1.56470e-05  5.46551e+08
       1050.5000  1.22431e-05  4.27653e+08
       1050.6000  1.22431e-05  4.27530e+08
       1050.7000  1.22431e-05  4.27530e+08
       1050.8000  1.22431e-05  4.27408e+08
       1050.9000  1.22431e-05  4.27285e+08
       1051.0000  1.22431e-05  4.27285e+08
       1051.1000  1.22431e-05  4.27163e+08
       1051.2000  1.22431e-05  4.27163e+08
       1051.3000  1.21976e-05  4.25452e+08
       1051.4000  1.21976e-05  4.25330e+08
       1051.5000  9.13950e-06  3.18695e+08
       1051.6000  9.13950e-06  3.18603e+08
       1051.7000  9.13950e-06  3.18512e+08
       1051.8000  9.13950e-06  3.18512e+08
       1051.9000  9.13950e-06  3.18420e+08
       1052.0000  9.13950e-06  3.18420e+08
       1052.1000  9.13950e-06  3.18329e+08
       1052.2000  9.13950e-06  3.18238e+08
       1052.3000  9.13950e-06  3.18238e+08
       1052.4000  9.13950e-06  3.18146e+08
       1052.5000  6.57142e-06  2.28685e+08
       1052.6000  6.57142e-06  2.28685e+08
       1052.7000  6.57142e-06  2.28620e+08
       1052.8000  6.57142e-06  2.28554e+08
       1052.9000  6.57142e-06  2.28554e+08
       1053.0000  6.57142e-06  2.28488e+08
       1053.1000  6.57142e-06  2.28488e+08
       1053.2000  6.57142e-06  2.28422e+08
       1053.3000  6.57142e-06  2.28357e+08
       1053.4000  6.57142e-06  2.28357e+08
       1053.5000  4.68392e-06  1.62719e+08
       1053.6000  4.68392e-06  1.62672e+08
       1053.7000  4.68392e-06  1.62672e+08
       1053.8000  4.65219e-06  1.61524e+08
       1053.9000  4.65219e-06  1.61477e+08
       1054.0000  4.65219e-06  1.61477e+08
       1054.1000  4.65219e-06  1.61570e+08
       1054.2000  4.65219e-06  1.61617e+08
       1054.3000  4.65219e-06  1.61710e+08
       1054.4000  4.65219e-06  1.61803e+08
       1054.5000  2.92722e-06  1.01838e+08
       1054.6000  2.92722e-06  1.01867e+08
       1054.7000  2.92722e-06  1.01896e+08
       1054.8000  2.92722e-06  1.01926e+08
       1054.9000  2.92722e-06  1.01955e+08
       1055.0000  2.92722e-06  1.01984e+08
       1055.1000  2.92722e-06  1.01984e+08
       1055.2000  2.92722e-06  1.01984e+08
       1055.3000  2.92722e-06  1.02013e+08
       1055.4000  2.92722e-06  1.02013e+08
       1055.5000  1.53141e-06  5.33542e+07
       1055.6000  1.53141e-06  5.33542e+07
       1055.7000  1.53141e-06  5.33542e+07
       1055.8000  1.53141e-06  5.33389e+07
       1055.9000  1.53141e-06  5.33236e+07
       1056.0000  1.53141e-06  5.33082e+07
       1056.1000  1.53141e-06  5.32623e+07
       1056.2000  1.53141e-06  5.32164e+07
       1056.3000  1.51588e-06  5.26314e+07
       1056.4000  1.51588e-06  5.25708e+07
       1056.5000  4.20360e-07  1.45655e+07
       1056.6000  4.20360e-07  1.45571e+07
       1056.7000  4.20360e-07  1.45445e+07
       1056.8000  4.20360e-07  1.45319e+07
       1056.9000  4.20360e-07  1.45192e+07
       1057.0000  4.20360e-07  1.45108e+07
