PDS_VERSION_ID         = PDS3
RECORD_TYPE            = STREAM
OBJECT                 = TEXT
  PUBLICATION_DATE     = 2014-04-25
  INTERCHANGE_FORMAT   = ASCII
  NOTE                 = "System transmission vs. wavelength."
END_OBJECT             = TEXT
END
    
The systrans directory contains the non-wavelength-integrated system 
transmission values (QE*optics*filter1*filter2) for each filter combination. 
The naming convention for these files is as follows:

<camera><filter 1><filter 2>_systrans.tab

where <camera> is "issna" or "isswa," and <filter 1> and <filter 2> represent
the filter names. For polarized filter combinations, values are given for the
parallel orientation of the filter (full transmission), with values for the 
perpendicular (blocking) orientation provided in files with subscript 
"_b_systrans.tab". 

Columns in systrans files are as follows:

 1st column: Wavelength (nm)  
 2nd column: Transmitted Flux
 3rd column: Transmitted Flux * Solar Flux (phot per cm^2-s-angstrom at 1 AU)

The solar spectrum used for this calculation is provided in solarflux.tab.

\begindata
       661.00000  4.94009e-08  2.57922e+06
       661.10000  4.94009e-08  2.57774e+06
       661.20000  4.94009e-08  2.57576e+06
       661.30000  4.92783e-08  2.56789e+06
       661.40000  4.92783e-08  2.56641e+06
       661.50000  5.07569e-08  2.64189e+06
       661.60000  5.07569e-08  2.64088e+06
       661.70000  5.07569e-08  2.63936e+06
       661.80000  5.07569e-08  2.63834e+06
       661.90000  5.07569e-08  2.63733e+06
       662.00000  5.07569e-08  2.63631e+06
       662.10000  5.07569e-08  2.63530e+06
       662.20000  5.07569e-08  2.63428e+06
       662.30000  5.07569e-08  2.63377e+06
       662.40000  5.07569e-08  2.63327e+06
       662.50000  8.70556e-08  4.51470e+06
       662.60000  8.70556e-08  4.51470e+06
       662.70000  8.70556e-08  4.51383e+06
       662.80000  8.70556e-08  4.51296e+06
       662.90000  8.70556e-08  4.51296e+06
       663.00000  8.70556e-08  4.51296e+06
       663.10000  8.70556e-08  4.51644e+06
       663.20000  8.70556e-08  4.51905e+06
       663.30000  8.70556e-08  4.52254e+06
       663.40000  8.70556e-08  4.52515e+06
       663.50000  7.20003e-08  3.74474e+06
       663.60000  7.20003e-08  3.74690e+06
       663.70000  7.20003e-08  3.74834e+06
       663.80000  7.18467e-08  3.74250e+06
       663.90000  7.18467e-08  3.74393e+06
       664.00000  7.18467e-08  3.74465e+06
       664.10000  7.18467e-08  3.74609e+06
       664.20000  7.18467e-08  3.74681e+06
       664.30000  7.18467e-08  3.74753e+06
       664.40000  7.18467e-08  3.74824e+06
       664.50000  7.41224e-08  3.86697e+06
       664.60000  7.41224e-08  3.86697e+06
       664.70000  7.41224e-08  3.86697e+06
       664.80000  7.41224e-08  3.86697e+06
       664.90000  7.41224e-08  3.86697e+06
       665.00000  7.41224e-08  3.86623e+06
       665.10000  7.41224e-08  3.86548e+06
       665.20000  7.41224e-08  3.86474e+06
       665.30000  7.41224e-08  3.86326e+06
       665.40000  7.41224e-08  3.86178e+06
       665.50000  3.82052e-08  1.98972e+06
       665.60000  3.82052e-08  1.98896e+06
       665.70000  3.82052e-08  1.98781e+06
       665.80000  3.82052e-08  1.98705e+06
       665.90000  3.82052e-08  1.98590e+06
       666.00000  3.82052e-08  1.98438e+06
       666.10000  3.82052e-08  1.98323e+06
       666.20000  3.82052e-08  1.98170e+06
       666.30000  3.81092e-08  1.97520e+06
       666.40000  3.81092e-08  1.97368e+06
       666.50000  5.91758e-09      306176.
       666.60000  5.91758e-09      305880.
       666.70000  5.91758e-09      305584.
       666.80000  5.91758e-09      305288.
       666.90000  5.91758e-09      304992.
       667.00000  5.91758e-09      304637.
       667.10000  5.91758e-09      304992.
       667.20000  5.91758e-09      305288.
       667.30000  5.91758e-09      305584.
       667.40000  5.91758e-09      305880.
       667.50000  6.09788e-08  3.15504e+06
       667.60000  6.09788e-08  3.15748e+06
       667.70000  6.09788e-08  3.15992e+06
       667.80000  6.09788e-08  3.16175e+06
       667.90000  6.09788e-08  3.16358e+06
       668.00000  6.09788e-08  3.16541e+06
       668.10000  6.09788e-08  3.16724e+06
       668.20000  6.09788e-08  3.16846e+06
       668.30000  6.09788e-08  3.16968e+06
       668.40000  6.09788e-08  3.17029e+06
       668.50000  5.17691e-09      269199.
       668.60000  5.17691e-09      269251.
       668.70000  5.17691e-09      269251.
       668.80000  5.16844e-09      268811.
       668.90000  5.16844e-09      268811.
       669.00000  5.16844e-09      268759.
       669.10000  5.16844e-09      268397.
       669.20000  5.16844e-09      268035.
       669.30000  5.16844e-09      267725.
       669.40000  5.16844e-09      267415.
       669.50000  1.77460e-08      917113.
       669.60000  1.77460e-08      916048.
       669.70000  1.77460e-08      915161.
       669.80000  1.77460e-08      914274.
       669.90000  1.77460e-08      913387.
       670.00000  1.77460e-08      912677.
       670.10000  1.77460e-08      911967.
       670.20000  1.77460e-08      911257.
       670.30000  1.77460e-08      910547.
       670.40000  1.77460e-08      910015.
       670.50000  2.22854e-08  1.14213e+06
       670.60000  2.22854e-08  1.14146e+06
       670.70000  2.22854e-08  1.14101e+06
       670.80000  2.22854e-08  1.14057e+06
       670.90000  2.22854e-08  1.14012e+06
       671.00000  2.22854e-08  1.13990e+06
       671.10000  2.22854e-08  1.13945e+06
       671.20000  2.22854e-08  1.13945e+06
       671.30000  2.22863e-08  1.13927e+06
       671.40000  2.22863e-08  1.13927e+06
       671.50000  6.89116e-08  3.52276e+06
       671.60000  6.89116e-08  3.52276e+06
       671.70000  6.89116e-08  3.52276e+06
       671.80000  6.89116e-08  3.52345e+06
       671.90000  6.89116e-08  3.52414e+06
       672.00000  6.89116e-08  3.52552e+06
       672.10000  6.89116e-08  3.52689e+06
       672.20000  6.89116e-08  3.52827e+06
       672.30000  6.89116e-08  3.52965e+06
       672.40000  6.89116e-08  3.53172e+06
       672.50000  2.10325e-08  1.07855e+06
       672.60000  2.10325e-08  1.07918e+06
       672.70000  2.10325e-08  1.07981e+06
       672.80000  2.10325e-08  1.08065e+06
       672.90000  2.10325e-08  1.08149e+06
       673.00000  2.10325e-08  1.08254e+06
       673.10000  2.10325e-08  1.08212e+06
       673.20000  2.10325e-08  1.08170e+06
       673.30000  2.10325e-08  1.08128e+06
       673.40000  2.10325e-08  1.08107e+06
       673.50000  4.17951e-09      214743.
       673.60000  4.17951e-09      214701.
       673.70000  4.17951e-09      214659.
       673.80000  4.18117e-09      214661.
       673.90000  4.18117e-09      214620.
       674.00000  4.18117e-09      214578.
       674.10000  4.18117e-09      214536.
       674.20000  4.18117e-09      214494.
       674.30000  4.18117e-09      214452.
       674.40000  4.18117e-09      214411.
       674.50000  7.58487e-08  3.88876e+06
       674.60000  7.58487e-08  3.88876e+06
       674.70000  7.58487e-08  3.88800e+06
       674.80000  7.58487e-08  3.88800e+06
       674.90000  7.58487e-08  3.88725e+06
       675.00000  7.58487e-08  3.88725e+06
       675.10000  7.58487e-08  3.88800e+06
       675.20000  7.58487e-08  3.88876e+06
       675.30000  7.58487e-08  3.88952e+06
       675.40000  7.58487e-08  3.89028e+06
       675.50000  7.83360e-08  4.01785e+06
       675.60000  7.83360e-08  4.01864e+06
       675.70000  7.83360e-08  4.01942e+06
       675.80000  7.83360e-08  4.01942e+06
       675.90000  7.83360e-08  4.02020e+06
       676.00000  7.83360e-08  4.02020e+06
       676.10000  7.83360e-08  4.02099e+06
       676.20000  7.83360e-08  4.02099e+06
       676.30000  7.82561e-08  4.01689e+06
       676.40000  7.82561e-08  4.01689e+06
       676.50000  1.07595e-07  5.52394e+06
       676.60000  1.07595e-07  5.52394e+06
       676.70000  1.07595e-07  5.52394e+06
       676.80000  1.07595e-07  5.52287e+06
       676.90000  1.07595e-07  5.52287e+06
       677.00000  1.07595e-07  5.52287e+06
       677.10000  1.07595e-07  5.52287e+06
       677.20000  1.07595e-07  5.52179e+06
       677.30000  1.07595e-07  5.52179e+06
       677.40000  1.07595e-07  5.52072e+06
       677.50000  8.29857e-08  4.25800e+06
       677.60000  8.29857e-08  4.25717e+06
       677.70000  8.29857e-08  4.25717e+06
       677.80000  8.29857e-08  4.25634e+06
       677.90000  8.29857e-08  4.25551e+06
       678.00000  8.29857e-08  4.25468e+06
       678.10000  8.29857e-08  4.25385e+06
       678.20000  8.29857e-08  4.25302e+06
       678.30000  8.29857e-08  4.25219e+06
       678.40000  8.29857e-08  4.25136e+06
       678.50000  1.23303e-09      63143.4
       678.60000  1.23303e-09      63131.1
       678.70000  1.23303e-09      63118.8
       678.80000  1.23294e-09      63089.4
       678.90000  1.23294e-09      63077.0
       679.00000  1.23294e-09      63052.4
       679.10000  1.23294e-09      63052.4
       679.20000  1.23294e-09      63064.7
       679.30000  1.23294e-09      63064.7
       679.40000  1.23294e-09      63064.7
       679.50000  5.90106e-08  3.01839e+06
       679.60000  5.90106e-08  3.01839e+06
       679.70000  5.90106e-08  3.01839e+06
       679.80000  5.90106e-08  3.01839e+06
       679.90000  5.90106e-08  3.01839e+06
       680.00000  5.90106e-08  3.01780e+06
       680.10000  5.90106e-08  3.01780e+06
       680.20000  5.90106e-08  3.01780e+06
       680.30000  5.90106e-08  3.01721e+06
       680.40000  5.90106e-08  3.01721e+06
       680.50000  6.07775e-08  3.10694e+06
       680.60000  6.07775e-08  3.10694e+06
       680.70000  6.07775e-08  3.10634e+06
       680.80000  6.07775e-08  3.10573e+06
       680.90000  6.07775e-08  3.10512e+06
       681.00000  6.07775e-08  3.10512e+06
       681.10000  6.07775e-08  3.10451e+06
       681.20000  6.07775e-08  3.10391e+06
       681.30000  6.07717e-08  3.10361e+06
       681.40000  6.07717e-08  3.10300e+06
       681.50000  1.56662e-07  7.99757e+06
       681.60000  1.56662e-07  7.99600e+06
       681.70000  1.56662e-07  7.99444e+06
       681.80000  1.56662e-07  7.99131e+06
       681.90000  1.56662e-07  7.98974e+06
       682.00000  1.56662e-07  7.98817e+06
       682.10000  1.56662e-07  7.98504e+06
       682.20000  1.56662e-07  7.98191e+06
       682.30000  1.56662e-07  7.98034e+06
       682.40000  1.56662e-07  7.97721e+06
       682.50000  6.47532e-08  3.29594e+06
       682.60000  6.47532e-08  3.29464e+06
       682.70000  6.47532e-08  3.29335e+06
       682.80000  6.47532e-08  3.29205e+06
       682.90000  6.47532e-08  3.29011e+06
       683.00000  6.47532e-08  3.28881e+06
       683.10000  6.47532e-08  3.28752e+06
       683.20000  6.47532e-08  3.28558e+06
       683.30000  6.47532e-08  3.28363e+06
       683.40000  6.47532e-08  3.28169e+06
       683.50000  6.67827e-08  3.38321e+06
       683.60000  6.67827e-08  3.38121e+06
       683.70000  6.67827e-08  3.37920e+06
       683.80000  6.67315e-08  3.37394e+06
       683.90000  6.67315e-08  3.37194e+06
       684.00000  6.67315e-08  3.36994e+06
       684.10000  6.67315e-08  3.36727e+06
       684.20000  6.67315e-08  3.36527e+06
       684.30000  6.67315e-08  3.36260e+06
       684.40000  6.67315e-08  3.36060e+06
       684.50000  1.37577e-07  6.92288e+06
       684.60000  1.37577e-07  6.91738e+06
       684.70000  1.37577e-07  6.91187e+06
       684.80000  1.37577e-07  6.90637e+06
       684.90000  1.37577e-07  6.89949e+06
       685.00000  1.37577e-07  6.89399e+06
       685.10000  1.37577e-07  6.89949e+06
       685.20000  1.37577e-07  6.90637e+06
       685.30000  1.37577e-07  6.91187e+06
       685.40000  1.37577e-07  6.91600e+06
       685.50000  1.42169e-07  7.15253e+06
       685.60000  1.42169e-07  7.15821e+06
       685.70000  1.42169e-07  7.16248e+06
       685.80000  1.42169e-07  7.16674e+06
       685.90000  1.42169e-07  7.17101e+06
       686.00000  1.42169e-07  7.17527e+06
       686.10000  1.42169e-07  7.17954e+06
       686.20000  1.42169e-07  7.18238e+06
       686.30000  1.42020e-07  7.17910e+06
       686.40000  1.42020e-07  7.18194e+06
       686.50000  7.35571e-08  3.72125e+06
       686.60000  7.35571e-08  3.72272e+06
       686.70000  7.35571e-08  3.72420e+06
       686.80000  7.35571e-08  3.72493e+06
       686.90000  7.35571e-08  3.72640e+06
       687.00000  7.35571e-08  3.72714e+06
       687.10000  7.35571e-08  3.72787e+06
       687.20000  7.35571e-08  3.72787e+06
       687.30000  7.35571e-08  3.72787e+06
       687.40000  7.35571e-08  3.72787e+06
       687.50000  3.65525e-08  1.85248e+06
       687.60000  3.65525e-08  1.85248e+06
       687.70000  3.65525e-08  1.85248e+06
       687.80000  3.65525e-08  1.85248e+06
       687.90000  3.65525e-08  1.85248e+06
       688.00000  3.65525e-08  1.85211e+06
       688.10000  3.65525e-08  1.85211e+06
       688.20000  3.65525e-08  1.85211e+06
       688.30000  3.65525e-08  1.85175e+06
       688.40000  3.65525e-08  1.85175e+06
       688.50000  1.95758e-07  9.91514e+06
       688.60000  1.95758e-07  9.91318e+06
       688.70000  1.95758e-07  9.91318e+06
       688.80000  1.95508e-07  9.89858e+06
       688.90000  1.95508e-07  9.89662e+06
       689.00000  1.95508e-07  9.89467e+06
       689.10000  1.95508e-07  9.89271e+06
       689.20000  1.95508e-07  9.89076e+06
       689.30000  1.95508e-07  9.88880e+06
       689.40000  1.95508e-07  9.88685e+06
       689.50000  8.09322e-08  4.09193e+06
       689.60000  8.09322e-08  4.09112e+06
       689.70000  8.09322e-08  4.08950e+06
       689.80000  8.09322e-08  4.08869e+06
       689.90000  8.09322e-08  4.08788e+06
       690.00000  8.09322e-08  4.08626e+06
       690.10000  8.09322e-08  4.08465e+06
       690.20000  8.09322e-08  4.08384e+06
       690.30000  8.09322e-08  4.08222e+06
       690.40000  8.09322e-08  4.08060e+06
       690.50000  1.25336e-07  6.31819e+06
       690.60000  1.25336e-07  6.31569e+06
       690.70000  1.25336e-07  6.31318e+06
       690.80000  1.25336e-07  6.31067e+06
       690.90000  1.25336e-07  6.30817e+06
       691.00000  1.25336e-07  6.30566e+06
       691.10000  1.25336e-07  6.30817e+06
       691.20000  1.25336e-07  6.30942e+06
       691.30000  1.25216e-07  6.30590e+06
       691.40000  1.25216e-07  6.30715e+06
       691.50000  1.29860e-07  6.54237e+06
       691.60000  1.29860e-07  6.54496e+06
       691.70000  1.29860e-07  6.54626e+06
       691.80000  1.29860e-07  6.54756e+06
       691.90000  1.29860e-07  6.54886e+06
       692.00000  1.29860e-07  6.54886e+06
       692.10000  1.29860e-07  6.55016e+06
       692.20000  1.29860e-07  6.55146e+06
       692.30000  1.29860e-07  6.55146e+06
       692.40000  1.29860e-07  6.55146e+06
       692.50000  1.34150e-07  6.76922e+06
       692.60000  1.34150e-07  6.76922e+06
       692.70000  1.34150e-07  6.76922e+06
       692.80000  1.34150e-07  6.76922e+06
       692.90000  1.34150e-07  6.76922e+06
       693.00000  1.34150e-07  6.76788e+06
       693.10000  1.34150e-07  6.76788e+06
       693.20000  1.34150e-07  6.76654e+06
       693.30000  1.34150e-07  6.76520e+06
       693.40000  1.34150e-07  6.76386e+06
       693.50000  1.38745e-07  6.99414e+06
       693.60000  1.38745e-07  6.99275e+06
       693.70000  1.38745e-07  6.99137e+06
       693.80000  1.38195e-07  6.96225e+06
       693.90000  1.38195e-07  6.95948e+06
       694.00000  1.38195e-07  6.95810e+06
       694.10000  1.38195e-07  6.95672e+06
       694.20000  1.38195e-07  6.95396e+06
       694.30000  1.38195e-07  6.95257e+06
       694.40000  1.38195e-07  6.94981e+06
       694.50000  9.54641e-08  4.79898e+06
       694.60000  9.54641e-08  4.79802e+06
       694.70000  9.54641e-08  4.79611e+06
       694.80000  9.54641e-08  4.79420e+06
       694.90000  9.54641e-08  4.79230e+06
       695.00000  9.54641e-08  4.79039e+06
       695.10000  9.54641e-08  4.78848e+06
       695.20000  9.54641e-08  4.78657e+06
       695.30000  9.54641e-08  4.78370e+06
       695.40000  9.54641e-08  4.78180e+06
       695.50000  1.97348e-07  9.88120e+06
       695.60000  1.97348e-07  9.87528e+06
       695.70000  1.97348e-07  9.87133e+06
       695.80000  1.97348e-07  9.86541e+06
       695.90000  1.97348e-07  9.85949e+06
       696.00000  1.97348e-07  9.85554e+06
       696.10000  1.97348e-07  9.84962e+06
       696.20000  1.97348e-07  9.84370e+06
       696.30000  1.97154e-07  9.82812e+06
       696.40000  1.97154e-07  9.82221e+06
       696.50000  1.02070e-07  5.08206e+06
       696.60000  1.02070e-07  5.07899e+06
       696.70000  1.02070e-07  5.07491e+06
       696.80000  1.02070e-07  5.07185e+06
       696.90000  1.02070e-07  5.06879e+06
       697.00000  1.02070e-07  5.06470e+06
       697.10000  1.02070e-07  5.07185e+06
       697.20000  1.02070e-07  5.07695e+06
       697.30000  1.02070e-07  5.08308e+06
       697.40000  1.02070e-07  5.08818e+06
       697.50000  3.15567e-07  1.57468e+07
       697.60000  3.15567e-07  1.57594e+07
       697.70000  3.15567e-07  1.57720e+07
       697.80000  3.15567e-07  1.57815e+07
       697.90000  3.15567e-07  1.57910e+07
       698.00000  3.15567e-07  1.57973e+07
       698.10000  3.15567e-07  1.58036e+07
       698.20000  3.15567e-07  1.58099e+07
       698.30000  3.15567e-07  1.58131e+07
       698.40000  3.15567e-07  1.58162e+07
       698.50000  3.26959e-07  1.63904e+07
       698.60000  3.26959e-07  1.63904e+07
       698.70000  3.26959e-07  1.63872e+07
       698.80000  3.26401e-07  1.63559e+07
       698.90000  3.26401e-07  1.63527e+07
       699.00000  3.26401e-07  1.63461e+07
       699.10000  3.26401e-07  1.63168e+07
       699.20000  3.26401e-07  1.62841e+07
       699.30000  3.26401e-07  1.62580e+07
       699.40000  3.26401e-07  1.62286e+07
       699.50000  1.12243e-07  5.57176e+06
       699.60000  1.12243e-07  5.56278e+06
       699.70000  1.12243e-07  5.55493e+06
       699.80000  1.12243e-07  5.54707e+06
       699.90000  1.12243e-07  5.53921e+06
       700.00000  1.12243e-07  5.53248e+06
       700.10000  1.12243e-07  5.52574e+06
       700.20000  1.12243e-07  5.51901e+06
       700.30000  1.12243e-07  5.51340e+06
       700.40000  1.12243e-07  5.50778e+06
       700.50000  1.74122e-07  8.53545e+06
       700.60000  1.74122e-07  8.52849e+06
       700.70000  1.74122e-07  8.52152e+06
       700.80000  1.74122e-07  8.51630e+06
       700.90000  1.74122e-07  8.51108e+06
       701.00000  1.74122e-07  8.50585e+06
       701.10000  1.74122e-07  8.50411e+06
       701.20000  1.74122e-07  8.50237e+06
       701.30000  1.74003e-07  8.49483e+06
       701.40000  1.74003e-07  8.49483e+06
       701.50000  1.80089e-07  8.79196e+06
       701.60000  1.80089e-07  8.79196e+06
       701.70000  1.80089e-07  8.79196e+06
       701.80000  1.80089e-07  8.79376e+06
       701.90000  1.80089e-07  8.79376e+06
       702.00000  1.80089e-07  8.79556e+06
       702.10000  1.80089e-07  8.79916e+06
       702.20000  1.80089e-07  8.80096e+06
       702.30000  1.80089e-07  8.80456e+06
       702.40000  1.80089e-07  8.80636e+06
       702.50000  2.48436e-07  1.21535e+07
       702.60000  2.48436e-07  1.21609e+07
       702.70000  2.48436e-07  1.21659e+07
       702.80000  2.48436e-07  1.21734e+07
       702.90000  2.48436e-07  1.21808e+07
       703.00000  2.48436e-07  1.21883e+07
       703.10000  2.48436e-07  1.22106e+07
       703.20000  2.48436e-07  1.22330e+07
       703.30000  2.48436e-07  1.22529e+07
       703.40000  2.48436e-07  1.22727e+07
       703.50000  2.56794e-07  1.27036e+07
       703.60000  2.56794e-07  1.27242e+07
       703.70000  2.56794e-07  1.27396e+07
       703.80000  2.56103e-07  1.27232e+07
       703.90000  2.56103e-07  1.27386e+07
       704.00000  2.56103e-07  1.27514e+07
       704.10000  2.56103e-07  1.27667e+07
       704.20000  2.56103e-07  1.27796e+07
       704.30000  2.56103e-07  1.27898e+07
       704.40000  2.56103e-07  1.28000e+07
       704.50000  3.52264e-08  1.76202e+06
       704.60000  3.52264e-08  1.76343e+06
       704.70000  3.52264e-08  1.76449e+06
       704.80000  3.52264e-08  1.76519e+06
       704.90000  3.52264e-08  1.76625e+06
       705.00000  3.52264e-08  1.76696e+06
       705.10000  3.52264e-08  1.76731e+06
       705.20000  3.52264e-08  1.76766e+06
       705.30000  3.52264e-08  1.76801e+06
       705.40000  3.52264e-08  1.76836e+06
       705.50000  2.04801e-07  1.02810e+07
       705.60000  2.04801e-07  1.02810e+07
       705.70000  2.04801e-07  1.02789e+07
       705.80000  2.04801e-07  1.02769e+07
       705.90000  2.04801e-07  1.02748e+07
       706.00000  2.04801e-07  1.02708e+07
       706.10000  2.04801e-07  1.02667e+07
       706.20000  2.04801e-07  1.02605e+07
       706.30000  2.04955e-07  1.02621e+07
       706.40000  2.04955e-07  1.02559e+07
       706.50000  3.52924e-07  1.76462e+07
       706.60000  3.52924e-07  1.76321e+07
       706.70000  3.52924e-07  1.76179e+07
       706.80000  3.52924e-07  1.76003e+07
       706.90000  3.52924e-07  1.75826e+07
       707.00000  3.52924e-07  1.75650e+07
       707.10000  3.52924e-07  1.75509e+07
       707.20000  3.52924e-07  1.75403e+07
       707.30000  3.52924e-07  1.75262e+07
       707.40000  3.52924e-07  1.75156e+07
       707.50000  2.18159e-07  1.08207e+07
       707.60000  2.18159e-07  1.08141e+07
       707.70000  2.18159e-07  1.08098e+07
       707.80000  2.18159e-07  1.08032e+07
       707.90000  2.18159e-07  1.07989e+07
       708.00000  2.18159e-07  1.07945e+07
       708.10000  2.18159e-07  1.07901e+07
       708.20000  2.18159e-07  1.07858e+07
       708.30000  2.18159e-07  1.07814e+07
       708.40000  2.18159e-07  1.07770e+07
       708.50000  7.52644e-08  3.71731e+06
       708.60000  7.52644e-08  3.71580e+06
       708.70000  7.52644e-08  3.71505e+06
       708.80000  7.50082e-08  3.70165e+06
       708.90000  7.50082e-08  3.70090e+06
       709.00000  7.50082e-08  3.70090e+06
       709.10000  7.50082e-08  3.70240e+06
       709.20000  7.50082e-08  3.70390e+06
       709.30000  7.50082e-08  3.70465e+06
       709.40000  7.50082e-08  3.70615e+06
       709.50000  1.54398e-07  7.63034e+06
       709.60000  1.54398e-07  7.63343e+06
       709.70000  1.54398e-07  7.63497e+06
       709.80000  1.54398e-07  7.63651e+06
       709.90000  1.54398e-07  7.63806e+06
       710.00000  1.54398e-07  7.63960e+06
       710.10000  1.54398e-07  7.64114e+06
       710.20000  1.54398e-07  7.64269e+06
       710.30000  1.54398e-07  7.64269e+06
       710.40000  1.54398e-07  7.64423e+06
       710.50000  2.38634e-07  1.18148e+07
       710.60000  2.38634e-07  1.18148e+07
       710.70000  2.38634e-07  1.18148e+07
       710.80000  2.38634e-07  1.18148e+07
       710.90000  2.38634e-07  1.18148e+07
       711.00000  2.38634e-07  1.18148e+07
       711.10000  2.38634e-07  1.18148e+07
       711.20000  2.38634e-07  1.18124e+07
       711.30000  2.38686e-07  1.18149e+07
       711.40000  2.38686e-07  1.18126e+07
       711.50000  4.08489e-07  2.02120e+07
       711.60000  4.08489e-07  2.02080e+07
       711.70000  4.08489e-07  2.02039e+07
       711.80000  4.08489e-07  2.01998e+07
       711.90000  4.08489e-07  2.01957e+07
       712.00000  4.08489e-07  2.01875e+07
       712.10000  4.08489e-07  2.01834e+07
       712.20000  4.08489e-07  2.01753e+07
       712.30000  4.08489e-07  2.01712e+07
       712.40000  4.08489e-07  2.01630e+07
       712.50000  2.53149e-07  1.24904e+07
       712.60000  2.53149e-07  1.24853e+07
       712.70000  2.53149e-07  1.24777e+07
       712.80000  2.53149e-07  1.24726e+07
       712.90000  2.53149e-07  1.24676e+07
       713.00000  2.53149e-07  1.24600e+07
       713.10000  2.53149e-07  1.24600e+07
       713.20000  2.53149e-07  1.24600e+07
       713.30000  2.53149e-07  1.24600e+07
       713.40000  2.53149e-07  1.24574e+07
       713.50000  3.47104e-07  1.70810e+07
       713.60000  3.47104e-07  1.70810e+07
       713.70000  3.47104e-07  1.70775e+07
       713.80000  3.47023e-07  1.70735e+07
       713.90000  3.47023e-07  1.70701e+07
       714.00000  3.47023e-07  1.70701e+07
       714.10000  3.47023e-07  1.70666e+07
       714.20000  3.47023e-07  1.70631e+07
       714.30000  3.47023e-07  1.70631e+07
       714.40000  3.47023e-07  1.70597e+07
       714.50000  1.78942e-07  8.79499e+06
       714.60000  1.78942e-07  8.79320e+06
       714.70000  1.78942e-07  8.79320e+06
       714.80000  1.78942e-07  8.79141e+06
       714.90000  1.78942e-07  8.78962e+06
       715.00000  1.78942e-07  8.78783e+06
       715.10000  1.78942e-07  8.78604e+06
       715.20000  1.78942e-07  8.78604e+06
       715.30000  1.78942e-07  8.78604e+06
       715.40000  1.78942e-07  8.78425e+06
       715.50000  2.75153e-07  1.35045e+07
       715.60000  2.75153e-07  1.35018e+07
       715.70000  2.75153e-07  1.34990e+07
       715.80000  2.75153e-07  1.34962e+07
       715.90000  2.75153e-07  1.34935e+07
       716.00000  2.75153e-07  1.34880e+07
       716.10000  2.75153e-07  1.34852e+07
       716.20000  2.75153e-07  1.34797e+07
       716.30000  2.74756e-07  1.34548e+07
       716.40000  2.74756e-07  1.34493e+07
       716.50000  3.76922e-07  1.84428e+07
       716.60000  3.76922e-07  1.84353e+07
       716.70000  3.76922e-07  1.84277e+07
       716.80000  3.76922e-07  1.84164e+07
       716.90000  3.76922e-07  1.84089e+07
       717.00000  3.76922e-07  1.83976e+07
       717.10000  3.76922e-07  1.83863e+07
       717.20000  3.76922e-07  1.83750e+07
       717.30000  3.76922e-07  1.83636e+07
       717.40000  3.76922e-07  1.83523e+07
       717.50000  2.90489e-07  1.41352e+07
       717.60000  2.90489e-07  1.41236e+07
       717.70000  2.90489e-07  1.41149e+07
       717.80000  2.90489e-07  1.41032e+07
       717.90000  2.90489e-07  1.40916e+07
       718.00000  2.90489e-07  1.40800e+07
       718.10000  2.90489e-07  1.40684e+07
       718.20000  2.90489e-07  1.40568e+07
       718.30000  2.90489e-07  1.40451e+07
       718.40000  2.90489e-07  1.40306e+07
       718.50000  3.97154e-07  1.91667e+07
       718.60000  3.97154e-07  1.91468e+07
       718.70000  3.97154e-07  1.91269e+07
       718.80000  3.95523e-07  1.90286e+07
       718.90000  3.95523e-07  1.90088e+07
       719.00000  3.95523e-07  1.89891e+07
       719.10000  3.95523e-07  1.89891e+07
       719.20000  3.95523e-07  1.89891e+07
       719.30000  3.95523e-07  1.89891e+07
       719.40000  3.95523e-07  1.89930e+07
       719.50000  2.03038e-07  9.74990e+06
       719.60000  2.03038e-07  9.75193e+06
       719.70000  2.03038e-07  9.75193e+06
       719.80000  2.03038e-07  9.75396e+06
       719.90000  2.03038e-07  9.75599e+06
       720.00000  2.03038e-07  9.76005e+06
       720.10000  2.03038e-07  9.76208e+06
       720.20000  2.03038e-07  9.76411e+06
       720.30000  2.03038e-07  9.76817e+06
       720.40000  2.03038e-07  9.77020e+06
       720.50000  5.20713e-07  2.50671e+07
       720.60000  5.20713e-07  2.50775e+07
       720.70000  5.20713e-07  2.50879e+07
       720.80000  5.20713e-07  2.50984e+07
       720.90000  5.20713e-07  2.51140e+07
       721.00000  5.20713e-07  2.51244e+07
       721.10000  5.20713e-07  2.51504e+07
       721.20000  5.20713e-07  2.51765e+07
       721.30000  5.19653e-07  2.51512e+07
       721.40000  5.19653e-07  2.51720e+07
       721.50000  5.31704e-07  2.57823e+07
       721.60000  5.31704e-07  2.58036e+07
       721.70000  5.31704e-07  2.58248e+07
       721.80000  5.31704e-07  2.58514e+07
       721.90000  5.31704e-07  2.58727e+07
       722.00000  5.31704e-07  2.58886e+07
       722.10000  5.31704e-07  2.59099e+07
       722.20000  5.31704e-07  2.59312e+07
       722.30000  5.31704e-07  2.59471e+07
       722.40000  5.31704e-07  2.59631e+07
       722.50000  4.36229e-07  2.13142e+07
       722.60000  4.36229e-07  2.13316e+07
       722.70000  4.36229e-07  2.13403e+07
       722.80000  4.36229e-07  2.13534e+07
       722.90000  4.36229e-07  2.13665e+07
       723.00000  4.36229e-07  2.13752e+07
       723.10000  4.36229e-07  2.13883e+07
       723.20000  4.36229e-07  2.13971e+07
       723.30000  4.36229e-07  2.14058e+07
       723.40000  4.36229e-07  2.14145e+07
       723.50000  2.22896e-07  1.09464e+07
       723.60000  2.22896e-07  1.09487e+07
       723.70000  2.22896e-07  1.09531e+07
       723.80000  2.22213e-07  1.09217e+07
       723.90000  2.22213e-07  1.09240e+07
       724.00000  2.22213e-07  1.09262e+07
       724.10000  2.22213e-07  1.09284e+07
       724.20000  2.22213e-07  1.09306e+07
       724.30000  2.22213e-07  1.09329e+07
       724.40000  2.22213e-07  1.09351e+07
       724.50000  4.56534e-07  2.24661e+07
       724.60000  4.56534e-07  2.24661e+07
       724.70000  4.56534e-07  2.24661e+07
       724.80000  4.56534e-07  2.24661e+07
       724.90000  4.56534e-07  2.24661e+07
       725.00000  4.56534e-07  2.24661e+07
       725.10000  4.56534e-07  2.24752e+07
       725.20000  4.56534e-07  2.24843e+07
       725.30000  4.56534e-07  2.24889e+07
       725.40000  4.56534e-07  2.24980e+07
       725.50000  3.49546e-07  1.72291e+07
       725.60000  3.49546e-07  1.72326e+07
       725.70000  3.49546e-07  1.72326e+07
       725.80000  3.49546e-07  1.72361e+07
       725.90000  3.49546e-07  1.72361e+07
       726.00000  3.49546e-07  1.72361e+07
       726.10000  3.49546e-07  1.72361e+07
       726.20000  3.49546e-07  1.72361e+07
       726.30000  3.48636e-07  1.71878e+07
       726.40000  3.48636e-07  1.71843e+07
       726.50000  3.56839e-07  1.75850e+07
       726.60000  3.56839e-07  1.75814e+07
       726.70000  3.56839e-07  1.75779e+07
       726.80000  3.56839e-07  1.75707e+07
       726.90000  3.56839e-07  1.75636e+07
       727.00000  3.56839e-07  1.75565e+07
       727.10000  3.56839e-07  1.75315e+07
       727.20000  3.56839e-07  1.75065e+07
       727.30000  3.56839e-07  1.74815e+07
       727.40000  3.56839e-07  1.74601e+07
       727.50000  3.63826e-07  1.77802e+07
       727.60000  3.63826e-07  1.77584e+07
       727.70000  3.63826e-07  1.77402e+07
       727.80000  3.63826e-07  1.77220e+07
       727.90000  3.63826e-07  1.77038e+07
       728.00000  3.63826e-07  1.76892e+07
       728.10000  3.63826e-07  1.76747e+07
       728.20000  3.63826e-07  1.76601e+07
       728.30000  3.63826e-07  1.76456e+07
       728.40000  3.63826e-07  1.76347e+07
       728.50000  6.20584e-07  3.00611e+07
       728.60000  6.20584e-07  3.00487e+07
       728.70000  6.20584e-07  3.00301e+07
       728.80000  6.20715e-07  3.00302e+07
       728.90000  6.20715e-07  3.00178e+07
       729.00000  6.20715e-07  3.00116e+07
       729.10000  6.20715e-07  3.00054e+07
       729.20000  6.20715e-07  2.99991e+07
       729.30000  6.20715e-07  2.99991e+07
       729.40000  6.20715e-07  2.99929e+07
       729.50000  3.81339e-07  1.84301e+07
       729.60000  3.81339e-07  1.84301e+07
       729.70000  3.81339e-07  1.84339e+07
       729.80000  3.81339e-07  1.84377e+07
       729.90000  3.81339e-07  1.84454e+07
       730.00000  3.81339e-07  1.84530e+07
       730.10000  3.81339e-07  1.84606e+07
       730.20000  3.81339e-07  1.84682e+07
       730.30000  3.81339e-07  1.84797e+07
       730.40000  3.81339e-07  1.84911e+07
       730.50000  2.59750e-07  1.26031e+07
       730.60000  2.59750e-07  1.26134e+07
       730.70000  2.59750e-07  1.26238e+07
       730.80000  2.59750e-07  1.26342e+07
       730.90000  2.59750e-07  1.26472e+07
       731.00000  2.59750e-07  1.26602e+07
       731.10000  2.59750e-07  1.26576e+07
       731.20000  2.59750e-07  1.26550e+07
       731.30000  2.59559e-07  1.26431e+07
       731.40000  2.59559e-07  1.26431e+07
       731.50000  3.97603e-07  1.93633e+07
       731.60000  3.97603e-07  1.93593e+07
       731.70000  3.97603e-07  1.93553e+07
       731.80000  3.97603e-07  1.93553e+07
       731.90000  3.97603e-07  1.93513e+07
       732.00000  3.97603e-07  1.93473e+07
       732.10000  3.97603e-07  1.93434e+07
       732.20000  3.97603e-07  1.93394e+07
       732.30000  3.97603e-07  1.93394e+07
       732.40000  3.97603e-07  1.93354e+07
       732.50000  4.05211e-07  1.97013e+07
       732.60000  4.05211e-07  1.96973e+07
       732.70000  4.05211e-07  1.96932e+07
       732.80000  4.05211e-07  1.96892e+07
       732.90000  4.05211e-07  1.96851e+07
       733.00000  4.05211e-07  1.96811e+07
       733.10000  4.05211e-07  1.96770e+07
       733.20000  4.05211e-07  1.96689e+07
       733.30000  4.05211e-07  1.96649e+07
       733.40000  4.05211e-07  1.96568e+07
       733.50000  5.52789e-07  2.68103e+07
       733.60000  5.52789e-07  2.68047e+07
       733.70000  5.52789e-07  2.67937e+07
       733.80000  5.51876e-07  2.67439e+07
       733.90000  5.51876e-07  2.67384e+07
       734.00000  5.51876e-07  2.67329e+07
       734.10000  5.51876e-07  2.67274e+07
       734.20000  5.51876e-07  2.67218e+07
       734.30000  5.51876e-07  2.67163e+07
       734.40000  5.51876e-07  2.67163e+07
       734.50000  1.20620e-07  5.83799e+06
       734.60000  1.20620e-07  5.83678e+06
       734.70000  1.20620e-07  5.83678e+06
       734.80000  1.20620e-07  5.83558e+06
       734.90000  1.20620e-07  5.83558e+06
       735.00000  1.20620e-07  5.83437e+06
       735.10000  1.20620e-07  5.83437e+06
       735.20000  1.20620e-07  5.83437e+06
       735.30000  1.20620e-07  5.83437e+06
       735.40000  1.20620e-07  5.83316e+06
       735.50000  9.38716e-08  4.53963e+06
       735.60000  9.38716e-08  4.53963e+06
       735.70000  9.38716e-08  4.53963e+06
       735.80000  9.38716e-08  4.54057e+06
       735.90000  9.38716e-08  4.54057e+06
       736.00000  9.38716e-08  4.54057e+06
       736.10000  9.38716e-08  4.54057e+06
       736.20000  9.38716e-08  4.54151e+06
       736.30000  9.36923e-08  4.53284e+06
       736.40000  9.36923e-08  4.53377e+06
       736.50000  2.92412e-07  1.41498e+07
       736.60000  2.92412e-07  1.41527e+07
       736.70000  2.92412e-07  1.41556e+07
       736.80000  2.92412e-07  1.41556e+07
       736.90000  2.92412e-07  1.41586e+07
       737.00000  2.92412e-07  1.41615e+07
       737.10000  2.92412e-07  1.41469e+07
       737.20000  2.92412e-07  1.41293e+07
       737.30000  2.92412e-07  1.41147e+07
       737.40000  2.92412e-07  1.41001e+07
       737.50000  7.46622e-07  3.59573e+07
       737.60000  7.46622e-07  3.59200e+07
       737.70000  7.46622e-07  3.58826e+07
       737.80000  7.46622e-07  3.58453e+07
       737.90000  7.46622e-07  3.58154e+07
       738.00000  7.46622e-07  3.57781e+07
       738.10000  7.46622e-07  3.57408e+07
       738.20000  7.46622e-07  3.57035e+07
       738.30000  7.46622e-07  3.56736e+07
       738.40000  7.46622e-07  3.56437e+07
       738.50000  3.04343e-07  1.45141e+07
       738.60000  3.04343e-07  1.45019e+07
       738.70000  3.04343e-07  1.44898e+07
       738.80000  3.03064e-07  1.44168e+07
       738.90000  3.03064e-07  1.44046e+07
       739.00000  3.03064e-07  1.43925e+07
       741.00000  1.57742e-07  7.39337e+06
       741.10000  1.57742e-07  7.39653e+06
       741.20000  1.57742e-07  7.39968e+06
       741.30000  1.57635e-07  7.39780e+06
       741.40000  1.57635e-07  7.40253e+06
       741.50000  1.57638e-07  7.40741e+06
       741.60000  1.57638e-07  7.41371e+06
       741.70000  1.57638e-07  7.42159e+06
       741.80000  1.57638e-07  7.42790e+06
       741.90000  1.57638e-07  7.43736e+06
       742.00000  1.57638e-07  7.44524e+06
       742.10000  1.57638e-07  7.45470e+06
       742.20000  1.57638e-07  7.46573e+06
       742.30000  1.57638e-07  7.47677e+06
       742.40000  1.57638e-07  7.48780e+06
       742.50000  4.92833e-07  2.34490e+07
       742.60000  4.92833e-07  2.34884e+07
       742.70000  4.92833e-07  2.35328e+07
       742.80000  4.92833e-07  2.35771e+07
       742.90000  4.92833e-07  2.36264e+07
       743.00000  4.92833e-07  2.36757e+07
       743.10000  4.92833e-07  2.36658e+07
       743.20000  4.92833e-07  2.36609e+07
       743.30000  4.92833e-07  2.36560e+07
       743.40000  4.92833e-07  2.36461e+07
       743.50000  1.66838e-07  8.00323e+06
       743.60000  1.66838e-07  8.00156e+06
       743.70000  1.66838e-07  7.99989e+06
       743.80000  1.66764e-07  7.99465e+06
       743.90000  1.66764e-07  7.99298e+06
       744.00000  1.66764e-07  7.99131e+06
       744.10000  1.66764e-07  7.99131e+06
       744.20000  1.66764e-07  7.98965e+06
       744.30000  1.66764e-07  7.98965e+06
       744.40000  1.66764e-07  7.98965e+06
       744.50000  1.70663e-07  8.17478e+06
       744.60000  1.70663e-07  8.17478e+06
       744.70000  1.70663e-07  8.17478e+06
       744.80000  1.70663e-07  8.17478e+06
       744.90000  1.70663e-07  8.17648e+06
       745.00000  1.70663e-07  8.17648e+06
       745.10000  1.70663e-07  8.18160e+06
       745.20000  1.70663e-07  8.18672e+06
       745.30000  1.70663e-07  8.19014e+06
       745.40000  1.70663e-07  8.19526e+06
       745.50000  3.48114e-07  1.67234e+07
       745.60000  3.48114e-07  1.67303e+07
       745.70000  3.48114e-07  1.67373e+07
       745.80000  3.48114e-07  1.67443e+07
       745.90000  3.48114e-07  1.67477e+07
       746.00000  3.48114e-07  1.67547e+07
       746.10000  3.48114e-07  1.67582e+07
       746.20000  3.48114e-07  1.67617e+07
       746.30000  3.46526e-07  1.66887e+07
       746.40000  3.46526e-07  1.66922e+07
       746.50000  8.85673e-07  4.26717e+07
       746.60000  8.85673e-07  4.26717e+07
       746.70000  8.85673e-07  4.26806e+07
       746.80000  8.85673e-07  4.26806e+07
       746.90000  8.85673e-07  4.26806e+07
       747.00000  8.85673e-07  4.26806e+07
       747.10000  8.85673e-07  4.26540e+07
       747.20000  8.85673e-07  4.26363e+07
       747.30000  8.85673e-07  4.26186e+07
       747.40000  8.85673e-07  4.26009e+07
       747.50000  1.80552e-07  8.68092e+06
       747.60000  1.80552e-07  8.67731e+06
       747.70000  1.80552e-07  8.67370e+06
       747.80000  1.80552e-07  8.67009e+06
       747.90000  1.80552e-07  8.66648e+06
       748.00000  1.80552e-07  8.66286e+06
       750.00000  3.75389e-07  1.79136e+07
       750.10000  3.75389e-07  1.79098e+07
       750.20000  3.75389e-07  1.79061e+07
       750.30000  3.75389e-07  1.79023e+07
       750.40000  3.75389e-07  1.79023e+07
       750.50000  7.65951e-07  3.65205e+07
       750.60000  7.65951e-07  3.65129e+07
       750.70000  7.65951e-07  3.65129e+07
       750.80000  7.65951e-07  3.65052e+07
       750.90000  7.65951e-07  3.65052e+07
       751.00000  7.65951e-07  3.64975e+07
       751.10000  7.65951e-07  3.64975e+07
       751.20000  7.65951e-07  3.64975e+07
       751.30000  7.64237e-07  3.64082e+07
       751.40000  7.64237e-07  3.64082e+07
       751.50000  1.93931e-07  9.23886e+06
       751.60000  1.93931e-07  9.23886e+06
       751.70000  1.93931e-07  9.23886e+06
       751.80000  1.93931e-07  9.23886e+06
       751.90000  1.93931e-07  9.23886e+06
       752.00000  1.93931e-07  9.23886e+06
       752.10000  1.93931e-07  9.23886e+06
       752.20000  1.93931e-07  9.23886e+06
       752.30000  1.93931e-07  9.23886e+06
       752.40000  1.93931e-07  9.23886e+06
       752.50000  5.91602e-07  2.81898e+07
       752.60000  5.91602e-07  2.81898e+07
       752.70000  5.91602e-07  2.81898e+07
       752.80000  5.91602e-07  2.81957e+07
       752.90000  5.91602e-07  2.81957e+07
       753.00000  5.91602e-07  2.82017e+07
       755.00000  6.11599e-07  2.91366e+07
       755.10000  6.11599e-07  2.91304e+07
       755.20000  6.11599e-07  2.91304e+07
       755.30000  6.11599e-07  2.91243e+07
       755.40000  6.11599e-07  2.91243e+07
       755.50000  8.29003e-07  3.94689e+07
       755.60000  8.29003e-07  3.94606e+07
       755.70000  8.29003e-07  3.94606e+07
       755.80000  8.29003e-07  3.94523e+07
       755.90000  8.29003e-07  3.94440e+07
       756.00000  8.29003e-07  3.94440e+07
       756.10000  8.29003e-07  3.94357e+07
       756.20000  8.29003e-07  3.94274e+07
       756.30000  8.27682e-07  3.93563e+07
       756.40000  8.27682e-07  3.93563e+07
       756.50000  4.19290e-07  1.99330e+07
       756.60000  4.19290e-07  1.99289e+07
       756.70000  4.19290e-07  1.99247e+07
       756.80000  4.19290e-07  1.99247e+07
       756.90000  4.19290e-07  1.99205e+07
       757.00000  4.19290e-07  1.99163e+07
       757.10000  4.19290e-07  1.99121e+07
       757.20000  4.19290e-07  1.99079e+07
       757.30000  4.19290e-07  1.99079e+07
       757.40000  4.19290e-07  1.99037e+07
       757.50000  1.76358e-08      836997.
       757.60000  1.76358e-08      836821.
       757.70000  1.76358e-08      836644.
       757.80000  1.76358e-08      836468.
       757.90000  1.76358e-08      836292.
       758.00000  1.76358e-08      836292.
       758.10000  1.76358e-08      836115.
       758.20000  1.76358e-08      835939.
       758.30000  1.76358e-08      835763.
       758.40000  1.76358e-08      835586.
       758.50000  1.08646e-06  5.14657e+07
       758.60000  1.08646e-06  5.14548e+07
       758.70000  1.08646e-06  5.14439e+07
       758.80000  1.08353e-06  5.12943e+07
       758.90000  1.08353e-06  5.12835e+07
       759.00000  1.08353e-06  5.12726e+07
       759.10000  1.08353e-06  5.12726e+07
       759.20000  1.08353e-06  5.12618e+07
       759.30000  1.08353e-06  5.12618e+07
       759.40000  1.08353e-06  5.12510e+07
       759.50000  4.41340e-07  2.08754e+07
       759.60000  4.41340e-07  2.08754e+07
       759.70000  4.41340e-07  2.08710e+07
       759.80000  4.41340e-07  2.08710e+07
       759.90000  4.41340e-07  2.08710e+07
       760.00000  4.41340e-07  2.08710e+07
       760.10000  4.41340e-07  2.08710e+07
       760.20000  4.41340e-07  2.08710e+07
       760.30000  4.41340e-07  2.08754e+07
       760.40000  4.41340e-07  2.08754e+07
       760.50000  1.11425e-07  5.27040e+06
       760.60000  1.11425e-07  5.27151e+06
       760.70000  1.11425e-07  5.27151e+06
       760.80000  1.11425e-07  5.27263e+06
       760.90000  1.11425e-07  5.27263e+06
       761.00000  1.11425e-07  5.27374e+06
       763.00000  9.27312e-07  4.41493e+07
       763.10000  9.27312e-07  4.41401e+07
       763.20000  9.27312e-07  4.41308e+07
       763.30000  9.27312e-07  4.41122e+07
       763.40000  9.27312e-07  4.40937e+07
       763.50000  7.08088e-07  3.36554e+07
       763.60000  7.08088e-07  3.36413e+07
       763.70000  7.08088e-07  3.36271e+07
       763.80000  7.06276e-07  3.35198e+07
       763.90000  7.06276e-07  3.34986e+07
       764.00000  7.06276e-07  3.34775e+07
       764.10000  7.06276e-07  3.34563e+07
       764.20000  7.06276e-07  3.34280e+07
       764.30000  7.06276e-07  3.33998e+07
       764.40000  7.06276e-07  3.33715e+07
       764.50000  4.78872e-07  2.26076e+07
       764.60000  4.78872e-07  2.25884e+07
       764.70000  4.78872e-07  2.25645e+07
       764.80000  4.78872e-07  2.25405e+07
       764.90000  4.78872e-07  2.25166e+07
       765.00000  4.78872e-07  2.24878e+07
       765.10000  4.78872e-07  2.24352e+07
       765.20000  4.78872e-07  2.23825e+07
       765.30000  4.78872e-07  2.23346e+07
       765.40000  4.78872e-07  2.22867e+07
       765.50000  2.44092e-07  1.13381e+07
       765.60000  2.44092e-07  1.13185e+07
       765.70000  2.44092e-07  1.12966e+07
       765.80000  2.44092e-07  1.12795e+07
       765.90000  2.44092e-07  1.12624e+07
       766.00000  2.44092e-07  1.12453e+07
       766.10000  2.44092e-07  1.12307e+07
       766.20000  2.44092e-07  1.12160e+07
       766.30000  2.44085e-07  1.12035e+07
       766.40000  2.44085e-07  1.11938e+07
       766.50000  7.42117e-07  3.40038e+07
       766.60000  7.42117e-07  3.39741e+07
       766.70000  7.42117e-07  3.39593e+07
       766.80000  7.42117e-07  3.39370e+07
       766.90000  7.42117e-07  3.39222e+07
       767.00000  7.42117e-07  3.39148e+07
       767.10000  7.42117e-07  3.39519e+07
       767.20000  7.42117e-07  3.39964e+07
       767.30000  7.42117e-07  3.40335e+07
       767.40000  7.42117e-07  3.40706e+07
       767.50000  7.58175e-07  3.48457e+07
       767.60000  7.58175e-07  3.48836e+07
       767.70000  7.58175e-07  3.49215e+07
       767.80000  7.58175e-07  3.49519e+07
       767.90000  7.58175e-07  3.49898e+07
       768.00000  7.58175e-07  3.50201e+07
       768.10000  7.58175e-07  3.50504e+07
       768.20000  7.58175e-07  3.50807e+07
       768.30000  7.58175e-07  3.51035e+07
       768.40000  7.58175e-07  3.51338e+07
       768.50000  1.02592e-06  4.75720e+07
       768.60000  1.02592e-06  4.76028e+07
       768.70000  1.02592e-06  4.76336e+07
       768.80000  1.02538e-06  4.76390e+07
       768.90000  1.02538e-06  4.76698e+07
       769.00000  1.02538e-06  4.76903e+07
       769.10000  1.02538e-06  4.77211e+07
       769.20000  1.02538e-06  4.77416e+07
       769.30000  1.02538e-06  4.77621e+07
       769.40000  1.02538e-06  4.77826e+07
       769.50000  5.23733e-07  2.44112e+07
       769.60000  5.23733e-07  2.44217e+07
       769.70000  5.23733e-07  2.44269e+07
       769.80000  5.23733e-07  2.44374e+07
       769.90000  5.23733e-07  2.44426e+07
       770.00000  5.23733e-07  2.44426e+07
       770.10000  5.23733e-07  2.44479e+07
       770.20000  5.23733e-07  2.44531e+07
       770.30000  5.23733e-07  2.44531e+07
       770.40000  5.23733e-07  2.44531e+07
       770.50000  8.00222e-07  3.73624e+07
       770.60000  8.00222e-07  3.73624e+07
       770.70000  8.00222e-07  3.73624e+07
       770.80000  8.00222e-07  3.73624e+07
       770.90000  8.00222e-07  3.73544e+07
       771.00000  8.00222e-07  3.73464e+07
       771.10000  8.00222e-07  3.73784e+07
       771.20000  8.00222e-07  3.74024e+07
       771.30000  7.97773e-07  3.73119e+07
       771.40000  7.97773e-07  3.73358e+07
       771.50000  1.61939e-06  7.58358e+07
       771.60000  1.61939e-06  7.58682e+07
       771.70000  1.61939e-06  7.59168e+07
       771.80000  1.61939e-06  7.59492e+07
       771.90000  1.61939e-06  7.59654e+07
       772.00000  1.61939e-06  7.59978e+07
       772.10000  1.61939e-06  7.60140e+07
       772.20000  1.61939e-06  7.60302e+07
       772.30000  1.61939e-06  7.60464e+07
       772.40000  1.61939e-06  7.60626e+07
       772.50000  5.50762e-07  2.58693e+07
       772.60000  5.50762e-07  2.58693e+07
       772.70000  5.50762e-07  2.58693e+07
       772.80000  5.50762e-07  2.58638e+07
       772.90000  5.50762e-07  2.58638e+07
       773.00000  5.50762e-07  2.58583e+07
       773.10000  5.50762e-07  2.58252e+07
       773.20000  5.50762e-07  2.57977e+07
       773.30000  5.50762e-07  2.57646e+07
       773.40000  5.50762e-07  2.57371e+07
       773.50000  1.11976e-06  5.22703e+07
       773.60000  1.11976e-06  5.22255e+07
       773.70000  1.11976e-06  5.21808e+07
       773.80000  1.11533e-06  5.19297e+07
       773.90000  1.11533e-06  5.18851e+07
       774.00000  1.11533e-06  5.18405e+07
       774.10000  1.11533e-06  5.18070e+07
       774.20000  1.11533e-06  5.17736e+07
       774.30000  1.11533e-06  5.17513e+07
       774.40000  1.11533e-06  5.17178e+07
       774.50000  2.83282e-07  1.31301e+07
       774.60000  2.83282e-07  1.31273e+07
       774.70000  2.83282e-07  1.31216e+07
       774.80000  2.83282e-07  1.31188e+07
       774.90000  2.83282e-07  1.31160e+07
       775.00000  2.83282e-07  1.31131e+07
       775.10000  2.83282e-07  1.31131e+07
       775.20000  2.83282e-07  1.31131e+07
       775.30000  2.83282e-07  1.31131e+07
       775.40000  2.83282e-07  1.31131e+07
       775.50000  1.15890e-06  5.36573e+07
       775.60000  1.15890e-06  5.36688e+07
       775.70000  1.15890e-06  5.36804e+07
       775.80000  1.15890e-06  5.36920e+07
       775.90000  1.15890e-06  5.37152e+07
       776.00000  1.15890e-06  5.37384e+07
       776.10000  1.15890e-06  5.37616e+07
       776.20000  1.15890e-06  5.37963e+07
       776.30000  1.15597e-06  5.36946e+07
       776.40000  1.15597e-06  5.37293e+07
       776.50000  1.47344e-06  6.85297e+07
       776.60000  1.47344e-06  6.85887e+07
       776.70000  1.47344e-06  6.86476e+07
       776.80000  1.47344e-06  6.87065e+07
       776.90000  1.47344e-06  6.87802e+07
       777.00000  1.47344e-06  6.88391e+07
       777.10000  1.47344e-06  6.88097e+07
       777.20000  1.47344e-06  6.87949e+07
       777.30000  1.47344e-06  6.87655e+07
       777.40000  1.47344e-06  6.87360e+07
       777.50000  5.99429e-07  2.79514e+07
       777.60000  5.99429e-07  2.79454e+07
       777.70000  5.99429e-07  2.79334e+07
       777.80000  5.99429e-07  2.79274e+07
       777.90000  5.99429e-07  2.79214e+07
       778.00000  5.99429e-07  2.79094e+07
       778.10000  5.99429e-07  2.79034e+07
       778.20000  5.99429e-07  2.78974e+07
       778.30000  5.99429e-07  2.78914e+07
       778.40000  5.99429e-07  2.78854e+07
       778.50000  1.21636e-06  5.65850e+07
       778.60000  1.21636e-06  5.65728e+07
       778.70000  1.21636e-06  5.65606e+07
       778.80000  1.21328e-06  5.64174e+07
       778.90000  1.21328e-06  5.64174e+07
       779.00000  1.21328e-06  5.64052e+07
       779.10000  1.21328e-06  5.64295e+07
       779.20000  1.21328e-06  5.64416e+07
       779.30000  1.21328e-06  5.64659e+07
       779.40000  1.21328e-06  5.64780e+07
       779.50000  1.22979e-06  5.72589e+07
       779.60000  1.22979e-06  5.72712e+07
       779.70000  1.22979e-06  5.72835e+07
       779.80000  1.22979e-06  5.72958e+07
       779.90000  1.22979e-06  5.73081e+07
       780.00000  1.22979e-06  5.73204e+07
       780.10000  1.22979e-06  5.73204e+07
       780.20000  1.22979e-06  5.73327e+07
       780.30000  1.22979e-06  5.73327e+07
       780.40000  1.22979e-06  5.73327e+07
       780.50000  1.88305e-06  8.77877e+07
       780.60000  1.88305e-06  8.77877e+07
       780.70000  1.88305e-06  8.77877e+07
       780.80000  1.88305e-06  8.77877e+07
       780.90000  1.88305e-06  8.77877e+07
       781.00000  1.88305e-06  8.77689e+07
       781.10000  1.88305e-06  8.77689e+07
       781.20000  1.88305e-06  8.77501e+07
       781.30000  1.87258e-06  8.72435e+07
       781.40000  1.87258e-06  8.72247e+07
       781.50000  9.51692e-07  4.43203e+07
       781.60000  9.51692e-07  4.43108e+07
       781.70000  9.51692e-07  4.43013e+07
       781.80000  9.51692e-07  4.42918e+07
       781.90000  9.51692e-07  4.42727e+07
       782.00000  9.51692e-07  4.42632e+07
       782.10000  9.51692e-07  4.42442e+07
       782.20000  9.51692e-07  4.42251e+07
       782.30000  9.51692e-07  4.42156e+07
       782.40000  9.51692e-07  4.41966e+07
       782.50000  9.70861e-07  4.50674e+07
       782.60000  9.70861e-07  4.50383e+07
       782.70000  9.70861e-07  4.50188e+07
       782.80000  9.70861e-07  4.49994e+07
       782.90000  9.70861e-07  4.49703e+07
       783.00000  9.70861e-07  4.49509e+07
       783.10000  9.70861e-07  4.49703e+07
       783.20000  9.70861e-07  4.49897e+07
       783.30000  9.70861e-07  4.50091e+07
       783.40000  9.70861e-07  4.50188e+07
       783.50000  6.58026e-07  3.05258e+07
       783.60000  6.58026e-07  3.05390e+07
       783.70000  6.58026e-07  3.05456e+07
       783.80000  6.54672e-07  3.04030e+07
       783.90000  6.54672e-07  3.04160e+07
       784.00000  6.54672e-07  3.04226e+07
       784.10000  6.54672e-07  3.04291e+07
       784.20000  6.54672e-07  3.04422e+07
       784.30000  6.54672e-07  3.04488e+07
       784.40000  6.54672e-07  3.04553e+07
       784.50000  1.32872e-06  6.18254e+07
       784.60000  1.32872e-06  6.18387e+07
       784.70000  1.32872e-06  6.18520e+07
       784.80000  1.32872e-06  6.18653e+07
       784.90000  1.32872e-06  6.18786e+07
       785.00000  1.32872e-06  6.18786e+07
       785.10000  1.32872e-06  6.18786e+07
       785.20000  1.32872e-06  6.18786e+07
       785.30000  1.32872e-06  6.18786e+07
       785.40000  1.32872e-06  6.18786e+07
       785.50000  1.01487e-06  4.72626e+07
       785.60000  1.01487e-06  4.72626e+07
       785.70000  1.01487e-06  4.72626e+07
       785.80000  1.01487e-06  4.72626e+07
       785.90000  1.01487e-06  4.72626e+07
       786.00000  1.01487e-06  4.72626e+07
       786.10000  1.01487e-06  4.72626e+07
       786.20000  1.01487e-06  4.72626e+07
       786.30000  1.01317e-06  4.71834e+07
       786.40000  1.01317e-06  4.71834e+07
       786.50000  1.03324e-06  4.81179e+07
       786.60000  1.03324e-06  4.81179e+07
       786.70000  1.03324e-06  4.81179e+07
       786.80000  1.03324e-06  4.81179e+07
       786.90000  1.03324e-06  4.81179e+07
       787.00000  1.03324e-06  4.81179e+07
       787.10000  1.03324e-06  4.81179e+07
       787.20000  1.03324e-06  4.81179e+07
       787.30000  1.03324e-06  4.81179e+07
       787.40000  1.03324e-06  4.81179e+07
       787.50000  6.97199e-07  3.24685e+07
       787.60000  6.97199e-07  3.24685e+07
       787.70000  6.97199e-07  3.24685e+07
       787.80000  6.97199e-07  3.24685e+07
       787.90000  6.97199e-07  3.24685e+07
       788.00000  6.97199e-07  3.24685e+07
       788.10000  6.97199e-07  3.24685e+07
       788.20000  6.97199e-07  3.24685e+07
       788.30000  6.97199e-07  3.24685e+07
       788.40000  6.97199e-07  3.24685e+07
       788.50000  7.07976e-07  3.29705e+07
       788.60000  7.07976e-07  3.29705e+07
       788.70000  7.07976e-07  3.29705e+07
       788.80000  7.08100e-07  3.29762e+07
       788.90000  7.08100e-07  3.29762e+07
       789.00000  7.08100e-07  3.29762e+07
       789.10000  7.08100e-07  3.29621e+07
       789.20000  7.08100e-07  3.29408e+07
       789.30000  7.08100e-07  3.29196e+07
       789.40000  7.08100e-07  3.29054e+07
       789.50000  1.80055e-06  8.36174e+07
       789.60000  1.80055e-06  8.35633e+07
       789.70000  1.80055e-06  8.35273e+07
       789.80000  1.80055e-06  8.34733e+07
       789.90000  1.80055e-06  8.34193e+07
       790.00000  1.80055e-06  8.33833e+07
       790.10000  1.80055e-06  8.33293e+07
       790.20000  1.80055e-06  8.32933e+07
       790.30000  1.80055e-06  8.32392e+07
       790.40000  1.80055e-06  8.32032e+07
       790.50000  1.45816e-06  6.73380e+07
       790.60000  1.45816e-06  6.72942e+07
       790.70000  1.45816e-06  6.72651e+07
       790.80000  1.45816e-06  6.72213e+07
       790.90000  1.45816e-06  6.71922e+07
       791.00000  1.45816e-06  6.71484e+07
       791.10000  1.45816e-06  6.71047e+07
       791.20000  1.45816e-06  6.70755e+07
       791.30000  1.45391e-06  6.68364e+07
       791.40000  1.45391e-06  6.67928e+07
       791.50000  7.42690e-07  3.40969e+07
       791.60000  7.42690e-07  3.40746e+07
       791.70000  7.42690e-07  3.40598e+07
       791.80000  7.42690e-07  3.40375e+07
       791.90000  7.42690e-07  3.40226e+07
       792.00000  7.42690e-07  3.40004e+07
       792.10000  7.42690e-07  3.39855e+07
       792.20000  7.42690e-07  3.39706e+07
       792.30000  7.42690e-07  3.39484e+07
       792.40000  7.42690e-07  3.39335e+07
       792.50000  1.50102e-06  6.85517e+07
       792.60000  1.50102e-06  6.85217e+07
       792.70000  1.50102e-06  6.84917e+07
       792.80000  1.50102e-06  6.84617e+07
       792.90000  1.50102e-06  6.84317e+07
       793.00000  1.50102e-06  6.84016e+07
       793.10000  1.50102e-06  6.83566e+07
       793.20000  1.50102e-06  6.82966e+07
       793.30000  1.50102e-06  6.82515e+07
       793.40000  1.50102e-06  6.82065e+07
       793.50000  1.52385e-06  6.91978e+07
       793.60000  1.52385e-06  6.91674e+07
       793.70000  1.52385e-06  6.91216e+07
       793.80000  1.51950e-06  6.89092e+07
       793.90000  1.51950e-06  6.88788e+07
       794.00000  1.51950e-06  6.88636e+07
       794.10000  1.51950e-06  6.88333e+07
       794.20000  1.51950e-06  6.88333e+07
       794.30000  1.51950e-06  6.88181e+07
       794.40000  1.51950e-06  6.88181e+07
       794.50000  1.92267e-06  8.70779e+07
       794.60000  1.92267e-06  8.70779e+07
       794.70000  1.92267e-06  8.70971e+07
       794.80000  1.92267e-06  8.70971e+07
       794.90000  1.92267e-06  8.71164e+07
       795.00000  1.92267e-06  8.71548e+07
       795.10000  1.92267e-06  8.72894e+07
       795.20000  1.92267e-06  8.74240e+07
       795.30000  1.92267e-06  8.75586e+07
       795.40000  1.92267e-06  8.76932e+07
       795.50000  3.62978e-07  1.65772e+07
       795.60000  3.62978e-07  1.65990e+07
       795.70000  3.62978e-07  1.66171e+07
       795.80000  3.62978e-07  1.66353e+07
       795.90000  3.62978e-07  1.66534e+07
       796.00000  3.62978e-07  1.66679e+07
       796.10000  3.62978e-07  1.66825e+07
       796.20000  3.62978e-07  1.66970e+07
       796.30000  3.62495e-07  1.66856e+07
       796.40000  3.62495e-07  1.66965e+07
       796.50000  7.90452e-07  3.64319e+07
       796.60000  7.90452e-07  3.64477e+07
       796.70000  7.90452e-07  3.64635e+07
       796.80000  7.90452e-07  3.64714e+07
       796.90000  7.90452e-07  3.64793e+07
       797.00000  7.90452e-07  3.64872e+07
       797.10000  7.90452e-07  3.64951e+07
       797.20000  7.90452e-07  3.64951e+07
       797.30000  7.90452e-07  3.64951e+07
       797.40000  7.90452e-07  3.64872e+07
       797.50000  1.19941e-06  5.53525e+07
       797.60000  1.19941e-06  5.53406e+07
       797.70000  1.19941e-06  5.53166e+07
       797.80000  1.19941e-06  5.52926e+07
       797.90000  1.19941e-06  5.52686e+07
       798.00000  1.19941e-06  5.52326e+07
       798.10000  1.19941e-06  5.51966e+07
       798.20000  1.19941e-06  5.51606e+07
       798.30000  1.19941e-06  5.51127e+07
       798.40000  1.19941e-06  5.50647e+07
       798.50000  8.12035e-07  3.72480e+07
       798.60000  8.12035e-07  3.72074e+07
       798.70000  8.12035e-07  3.71668e+07
       798.80000  8.10179e-07  3.70414e+07
       798.90000  8.10179e-07  3.69928e+07
       799.00000  8.10179e-07  3.69441e+07
       799.10000  8.10179e-07  3.69685e+07
       799.20000  8.10179e-07  3.70009e+07
       799.30000  8.10179e-07  3.70333e+07
       799.40000  8.10179e-07  3.70576e+07
       799.50000  3.15938e-05  1.44605e+09
       799.60000  3.15938e-05  1.44700e+09
       799.70000  3.15938e-05  1.44794e+09
       799.80000  3.15938e-05  1.44858e+09
       799.90000  3.15938e-05  1.44921e+09
       800.00000  3.15938e-05  1.44984e+09
