PDS_VERSION_ID         = PDS3
RECORD_TYPE            = STREAM
OBJECT                 = TEXT
  PUBLICATION_DATE     = 2014-04-25
  INTERCHANGE_FORMAT   = ASCII
  NOTE                 = "System transmission vs. wavelength."
END_OBJECT             = TEXT
END
    
The systrans directory contains the non-wavelength-integrated system 
transmission values (QE*optics*filter1*filter2) for each filter combination. 
The naming convention for these files is as follows:

<camera><filter 1><filter 2>_systrans.tab

where <camera> is "issna" or "isswa," and <filter 1> and <filter 2> represent
the filter names. For polarized filter combinations, values are given for the
parallel orientation of the filter (full transmission), with values for the 
perpendicular (blocking) orientation provided in files with subscript 
"_b_systrans.tab". 

Columns in systrans files are as follows:

 1st column: Wavelength (nm)  
 2nd column: Transmitted Flux
 3rd column: Transmitted Flux * Solar Flux (phot per cm^2-s-angstrom at 1 AU)

The solar spectrum used for this calculation is provided in solarflux.tab.

\begindata
       200.00000  1.43378e-09      100.522
       200.10000  1.43378e-09      101.540
       200.20000  1.43378e-09      102.587
       200.30000  1.43378e-09      103.662
       200.40000  1.43378e-09      104.766
       200.50000  1.43378e-09      105.885
       200.60000  3.58200e-08      2679.34
       200.70000  3.58200e-08      2711.93
       200.80000  3.58200e-08      2742.74
       200.90000  3.58200e-08      2771.75
       201.00000  3.58200e-08      2798.98
       201.10000  3.58200e-08      2824.77
       201.20000  3.58200e-08      2849.12
       201.30000  3.63153e-08      2911.40
       201.40000  3.63153e-08      2932.46
       201.50000  3.63153e-08      2951.71
       201.60000  2.57046e-08      2087.98
       201.70000  2.57046e-08      2088.75
       201.80000  2.57046e-08      2091.32
       201.90000  2.57046e-08      2095.69
       202.00000  2.57046e-08      2101.86
       202.10000  2.57046e-08      2110.09
       202.20000  2.57046e-08      2120.37
       202.30000  2.57046e-08      2132.19
       202.40000  2.57046e-08      2146.07
       202.50000  2.57046e-08      2162.01
       202.60000  2.11974e-08      1797.54
       202.70000  2.11974e-08      1813.65
       202.80000  2.11974e-08      1831.25
       202.90000  2.11974e-08      1850.54
       203.00000  2.11974e-08      1871.52
       203.10000  2.11974e-08      1893.78
       203.20000  2.11974e-08      1917.73
       203.30000  2.11974e-08      1943.38
       203.40000  2.11974e-08      1970.30
       203.50000  2.11974e-08      1999.13
       203.60000  4.32150e-09      413.827
       203.70000  4.32150e-09      419.747
       203.80000  4.23931e-09      417.275
       203.90000  4.23931e-09      422.447
       204.00000  4.23931e-09      427.322
       204.10000  4.23931e-09      431.986
       204.20000  4.23931e-09      436.225
       204.30000  4.23931e-09      440.040
       204.40000  4.23931e-09      443.432
       204.50000  4.23931e-09      446.823
       204.60000  3.93438e-08      4154.70
       204.70000  3.93438e-08      4166.50
       204.80000  3.93438e-08      4178.31
       204.90000  3.93438e-08      4190.11
       205.00000  3.93438e-08      4201.91
       205.10000  3.93438e-08      4217.65
       205.20000  3.93438e-08      4233.39
       205.30000  3.93438e-08      4249.13
       205.40000  3.93438e-08      4264.86
       205.50000  3.93438e-08      4284.54
       205.60000  3.92817e-08      4297.42
       205.70000  3.92817e-08      4317.06
       205.80000  3.92817e-08      4340.63
       205.90000  3.92817e-08      4360.27
       206.00000  3.92817e-08      4383.84
       206.10000  3.92817e-08      4411.33
       206.20000  3.92817e-08      4434.90
       206.30000  3.91792e-08      4450.75
       206.40000  3.91792e-08      4478.18
       206.50000  3.91792e-08      4505.61
       206.60000  1.16883e-08      1359.35
       206.70000  1.16883e-08      1375.71
       206.80000  1.16883e-08      1393.25
       206.90000  1.16883e-08      1411.95
       207.00000  1.16883e-08      1430.65
       207.10000  1.16883e-08      1450.52
       207.20000  1.16883e-08      1472.73
       207.30000  1.16883e-08      1494.93
       207.40000  1.16883e-08      1518.31
       207.50000  1.16883e-08      1542.86
       207.60000  2.86817e-08      3806.06
       207.70000  2.86817e-08      3837.61
       207.80000  2.86817e-08      3880.63
       207.90000  2.86817e-08      3937.99
       208.00000  2.86817e-08      4006.83
       208.10000  2.86817e-08      4087.14
       208.20000  2.86817e-08      4178.92
       208.30000  2.86817e-08      4282.17
       208.40000  2.86817e-08      4396.90
       208.50000  2.86817e-08      4525.97
       208.60000  2.85611e-08      4644.03
       208.70000  2.85611e-08      4795.40
       208.80000  2.86076e-08      4966.27
       208.90000  2.86076e-08      5140.78
       209.00000  2.86076e-08      5329.59
       209.10000  2.86076e-08      5526.98
       209.20000  2.86076e-08      5738.68
       209.30000  2.86076e-08      5961.81
       209.40000  2.86076e-08      6196.40
       209.50000  2.86076e-08      6442.42
       209.60000  9.53359e-09      2217.51
       209.70000  9.53359e-09      2288.06
       209.80000  9.53359e-09      2357.66
       209.90000  9.53359e-09      2425.34
       210.00000  9.53359e-09      2493.03
       210.10000  9.53359e-09      2559.77
       210.20000  9.53359e-09      2625.55
       210.30000  9.53359e-09      2690.38
       210.40000  9.53359e-09      2754.25
       210.50000  9.53359e-09      2817.18
       210.60000  8.45077e-09      2580.87
       210.70000  8.45077e-09      2656.92
       210.80000  8.45077e-09      2726.22
       210.90000  8.45077e-09      2788.76
       211.00000  8.45077e-09      2843.69
       211.10000  8.45077e-09      2891.85
       211.20000  8.45077e-09      2933.26
       211.30000  8.56668e-09      3007.76
       211.40000  8.56668e-09      3035.18
       211.50000  8.56668e-09      3055.74
       211.60000  8.30297e-09      2926.80
       211.70000  8.30297e-09      2895.25
       211.80000  8.30297e-09      2867.85
       211.90000  8.30297e-09      2843.77
       212.00000  8.30297e-09      2823.84
       212.10000  8.30297e-09      2807.24
       212.20000  8.30297e-09      2793.95
       212.30000  8.30297e-09      2784.82
       212.40000  8.30297e-09      2779.01
       212.50000  8.30297e-09      2776.51
       212.60000  2.27758e-08      7609.40
       212.70000  2.27758e-08      7616.23
       212.80000  2.27758e-08      7632.17
       212.90000  2.27758e-08      7664.06
       213.00000  2.27758e-08      7705.05
       213.10000  2.27758e-08      7759.72
       213.20000  2.27758e-08      7828.04
       213.30000  2.27758e-08      7907.76
       213.40000  2.27758e-08      8001.14
       213.50000  2.27758e-08      8103.63
       213.60000  1.81744e-08      6560.96
       213.70000  1.81744e-08      6664.56
       213.80000  1.82634e-08      6810.44
       213.90000  1.82634e-08      6934.63
       214.00000  1.82634e-08      7067.95
       214.10000  1.82634e-08      7210.40
       214.20000  1.82634e-08      7363.82
       214.30000  1.82634e-08      7528.19
       214.40000  1.82634e-08      7701.69
       214.50000  1.82634e-08      7884.33
       214.60000  9.47155e-09      4050.98
       214.70000  9.47155e-09      4013.10
       214.80000  9.47155e-09      3976.16
       214.90000  9.47155e-09      3938.27
       215.00000  9.47155e-09      3900.38
       215.10000  9.47155e-09      3861.55
       215.20000  9.47155e-09      3823.66
       215.30000  9.47155e-09      3785.78
       215.40000  9.47155e-09      3747.89
       215.50000  9.47155e-09      3710.01
       215.60000  3.67164e-08      14110.1
       215.70000  3.67164e-08      13864.1
       215.80000  3.67164e-08      13647.5
       215.90000  3.67164e-08      13456.6
       216.00000  3.67164e-08      13295.0
       216.10000  3.67164e-08      13159.2
       216.20000  3.67164e-08      13052.7
       216.30000  3.65520e-08      12913.8
       216.40000  3.65520e-08      12862.7
       216.50000  3.65520e-08      12840.7
       216.60000  2.02079e-08      7101.07
       216.70000  2.02079e-08      7117.24
       216.80000  2.02079e-08      7149.57
       216.90000  2.02079e-08      7196.05
       217.00000  2.02079e-08      7258.69
       217.10000  2.02079e-08      7337.51
       217.20000  2.02079e-08      7428.44
       217.30000  2.02079e-08      7537.56
       217.40000  2.02079e-08      7660.83
       217.50000  2.02079e-08      7798.25
       217.60000  4.39829e-08      17562.4
       217.70000  4.39829e-08      18116.5
       217.80000  4.39829e-08      18644.3
       217.90000  4.39829e-08      19137.0
       218.00000  4.39829e-08      19598.8
       218.10000  4.39829e-08      20029.8
       218.20000  4.39829e-08      20430.0
       218.30000  4.39829e-08      20795.1
       218.40000  4.39829e-08      21133.8
       218.50000  4.39829e-08      21441.7
       218.60000  8.53072e-09      4192.85
       218.70000  8.53072e-09      4226.12
       218.80000  8.45003e-09      4216.56
       218.90000  8.45003e-09      4245.29
       219.00000  8.45003e-09      4272.34
       219.10000  8.45003e-09      4296.84
       219.20000  8.45003e-09      4319.66
       219.30000  8.45003e-09      4339.94
       219.40000  8.45003e-09      4358.53
       219.50000  8.45003e-09      4375.43
       219.60000  1.49098e-08      7747.14
       219.70000  1.49098e-08      7769.50
       219.80000  1.49098e-08      7788.89
       219.90000  1.49098e-08      7803.80
       220.00000  1.49098e-08      7815.72
       220.10000  1.49098e-08      7824.67
       220.20000  1.49098e-08      7829.14
       220.30000  1.49098e-08      7830.63
       220.40000  1.49098e-08      7829.14
       220.50000  1.49098e-08      7823.18
       220.60000  1.31459e-09      667.023
       220.70000  1.31459e-09      646.778
       220.80000  1.31459e-09      629.294
       220.90000  1.31459e-09      614.308
       221.00000  1.31459e-09      601.951
       221.10000  1.31459e-09      592.223
       221.20000  1.31459e-09      585.124
       221.30000  1.29807e-09      573.357
       221.40000  1.29807e-09      571.410
       221.50000  1.29807e-09      572.189
       221.60000  2.35133e-13     0.105927
       221.70000  2.35133e-13     0.108326
       221.80000  2.35133e-13     0.110795
       221.90000  2.35133e-13     0.113358
       222.00000  2.35133e-13     0.116015
       222.10000  2.35133e-13     0.118742
       222.20000  2.35133e-13     0.121587
       222.30000  2.35133e-13     0.124503
       222.40000  2.35133e-13     0.127513
       222.50000  2.35133e-13     0.130593
       222.60000  3.75777e-08      21381.7
       222.70000  3.75777e-08      21904.0
       222.80000  3.75777e-08      22441.4
       222.90000  3.75777e-08      22993.8
       223.00000  3.75777e-08      23561.2
       223.10000  3.75777e-08      24143.7
       223.20000  3.75777e-08      24737.4
       223.30000  3.75777e-08      25346.1
       223.40000  3.75777e-08      25969.9
       223.50000  3.75777e-08      26608.8
       223.60000  3.94981e-09      2785.41
       223.70000  3.94981e-09      2772.77
       223.80000  3.89808e-09      2722.81
       223.90000  3.89808e-09      2708.00
       224.00000  3.89808e-09      2692.02
       224.10000  3.89808e-09      2674.87
       224.20000  3.89808e-09      2656.54
       224.30000  3.89808e-09      2637.05
       224.40000  3.89808e-09      2616.39
       224.50000  3.89808e-09      2594.56
       224.60000  9.64194e-09      6379.11
       224.70000  9.64194e-09      6332.83
       224.80000  9.64194e-09      6279.80
       224.90000  9.64194e-09      6220.02
       225.00000  9.64194e-09      6153.49
       225.10000  9.64194e-09      6079.25
       225.20000  9.64194e-09      5999.22
       225.30000  9.64194e-09      5911.48
       225.40000  9.64194e-09      5816.98
       225.50000  9.64194e-09      5716.71
       225.60000  4.46809e-08      25990.9
       225.70000  4.46809e-08      25454.7
       225.80000  4.46809e-08      24891.7
       225.90000  4.46809e-08      24297.5
       226.00000  4.46809e-08      23667.5
       226.10000  4.46809e-08      23006.2
       226.20000  4.46809e-08      22313.6
       226.30000  4.41803e-08      21347.9
       226.40000  4.41803e-08      20601.3
       226.50000  4.41803e-08      19823.7
       226.60000  2.24076e-08      9937.77
       226.70000  2.24076e-08      9852.62
       226.80000  2.24076e-08      9796.60
       226.90000  2.24076e-08      9769.71
       227.00000  2.24076e-08      9771.95
       227.10000  2.24076e-08      9805.57
       227.20000  2.24076e-08      9868.31
       227.30000  2.24076e-08      9960.18
       227.40000  2.24076e-08      10081.2
       227.50000  2.24076e-08      10231.3
       227.60000  6.48876e-09      3108.12
       227.70000  6.48876e-09      3241.79
       227.80000  6.48876e-09      3363.13
       227.90000  6.48876e-09      3472.14
       228.00000  6.48876e-09      3568.82
       228.10000  6.48876e-09      3653.82
       228.20000  6.48876e-09      3727.14
       228.30000  6.48876e-09      3787.49
       228.40000  6.48876e-09      3836.16
       228.50000  6.48876e-09      3872.49
       228.60000  2.21865e-08      13325.2
       228.70000  2.21865e-08      13367.4
       228.80000  2.19942e-08      13251.5
       228.90000  2.19942e-08      13211.9
       229.00000  2.19942e-08      13130.5
       229.10000  2.19942e-08      13007.4
       229.20000  2.19942e-08      12844.6
       229.30000  2.19942e-08      12640.1
       229.40000  2.19942e-08      12395.9
       229.50000  2.19942e-08      12107.8
       229.60000  2.82556e-08      15789.2
       229.70000  2.82556e-08      16004.0
       229.80000  2.82556e-08      16198.9
       229.90000  2.82556e-08      16376.9
       230.00000  2.82556e-08      16538.0
       230.10000  2.82556e-08      16679.3
       230.20000  2.82556e-08      16803.6
       230.30000  2.82556e-08      16911.0
       230.40000  2.82556e-08      16998.6
       230.50000  2.82556e-08      17066.4
       230.60000  3.41043e-08      20500.1
       230.70000  3.41043e-08      20418.3
       230.80000  3.41043e-08      20346.6
       230.90000  3.41043e-08      20288.7
       231.00000  3.41043e-08      20244.3
       231.10000  3.41043e-08      20217.0
       231.20000  3.41043e-08      20200.0
       231.30000  3.38682e-08      20056.8
       231.40000  3.38682e-08      20066.9
       231.50000  3.38682e-08      20094.0
       231.60000  2.67604e-08      15906.4
       231.70000  2.67604e-08      15946.5
       231.80000  2.67604e-08      16000.1
       231.90000  2.67604e-08      16061.6
       232.00000  2.67604e-08      16133.9
       232.10000  2.67604e-08      16219.5
       232.20000  2.67604e-08      16313.2
       232.30000  2.67604e-08      16417.5
       232.40000  2.67604e-08      16535.3
       232.50000  2.67604e-08      16661.0
       232.60000  1.06941e-08      6538.39
       232.70000  1.06941e-08      6422.89
       232.80000  1.06941e-08      6310.60
       232.90000  1.06941e-08      6201.52
       233.00000  1.06941e-08      6095.65
       233.10000  1.06941e-08      5992.99
       233.20000  1.06941e-08      5893.53
       233.30000  1.06941e-08      5798.35
       233.40000  1.06941e-08      5706.38
       233.50000  1.06941e-08      5617.62
       233.60000  8.26132e-09      4205.01
       233.70000  8.26132e-09      4088.53
       233.80000  8.21223e-09      3965.68
       233.90000  8.21223e-09      3885.21
       234.00000  8.21223e-09      3822.79
       234.10000  8.21223e-09      3777.62
       234.20000  8.21223e-09      3749.70
       234.30000  8.21223e-09      3739.85
       234.40000  8.21223e-09      3748.06
       234.50000  8.21223e-09      3773.52
       234.60000  2.61094e-08      12597.8
       234.70000  2.61094e-08      13153.9
       234.80000  2.61094e-08      13660.4
       234.90000  2.61094e-08      14122.6
       235.00000  2.61094e-08      14535.1
       235.10000  2.61094e-08      14903.2
       235.20000  2.61094e-08      15221.8
       235.30000  2.61094e-08      15493.3
       235.40000  2.61094e-08      15717.8
       235.50000  2.61094e-08      15898.0
       235.60000  1.34575e-09      813.236
       235.70000  1.34575e-09      807.584
       235.80000  1.34575e-09      802.336
       235.90000  1.34575e-09      797.491
       236.00000  1.34575e-09      793.050
       236.10000  1.34575e-09      789.147
       236.20000  1.34575e-09      785.648
       236.30000  1.34303e-09      780.972
       236.40000  1.34303e-09      778.286
       236.50000  1.34303e-09      776.003
       236.60000  3.16823e-08      18261.7
       236.70000  3.16823e-08      18230.0
       236.80000  3.16823e-08      18204.6
       236.90000  3.16823e-08      18192.0
       237.00000  3.16823e-08      18188.8
       237.10000  3.16823e-08      18198.3
       237.20000  3.16823e-08      18214.1
       237.30000  3.16823e-08      18242.7
       237.40000  3.16823e-08      18277.5
       237.50000  3.16823e-08      18325.0
       237.60000  9.12550e-09      5167.77
       237.70000  9.12550e-09      5065.56
       237.80000  9.12550e-09      4973.40
       237.90000  9.12550e-09      4890.35
       238.00000  9.12550e-09      4817.35
       238.10000  9.12550e-09      4753.47
       238.20000  9.12550e-09      4698.72
       238.30000  9.12550e-09      4653.09
       238.40000  9.12550e-09      4617.50
       238.50000  9.12550e-09      4591.95
       238.60000  1.94208e-08      9896.82
       238.70000  1.94208e-08      10007.5
       238.80000  1.94781e-08      10130.6
       238.90000  1.94781e-08      10208.5
       239.00000  1.94781e-08      10272.8
       239.10000  1.94781e-08      10319.5
       239.20000  1.94781e-08      10350.7
       239.30000  1.94781e-08      10364.3
       239.40000  1.94781e-08      10364.3
       239.50000  1.94781e-08      10348.7
       239.60000  5.17701e-08      27417.4
       239.70000  5.17701e-08      27293.2
       239.80000  5.17701e-08      27122.3
       239.90000  5.17701e-08      26910.1
       240.00000  5.17701e-08      26661.6
       240.10000  5.17701e-08      26366.5
       240.20000  5.17701e-08      26024.8
       240.30000  5.17701e-08      25646.9
       240.40000  5.17701e-08      25227.5
       240.50000  5.17701e-08      24766.8
       240.60000  2.44897e-13     0.119755
       240.70000  2.44897e-13     0.122596
       240.80000  2.44897e-13     0.125632
       240.90000  2.44897e-13     0.128914
       241.00000  2.44897e-13     0.132392
       241.10000  2.44897e-13     0.136090
       241.20000  2.44897e-13     0.140008
       241.30000  2.46755e-13     0.145240
       241.40000  2.46755e-13     0.149632
       241.50000  2.46755e-13     0.154246
       241.60000  3.13425e-08      20729.9
       241.70000  3.13425e-08      21776.7
       241.80000  3.13425e-08      22735.8
       241.90000  3.13425e-08      23607.1
       242.00000  3.13425e-08      24390.7
       242.10000  3.13425e-08      25086.5
       242.20000  3.13425e-08      25691.4
       242.30000  3.13425e-08      26208.6
       242.40000  3.13425e-08      26638.0
       242.50000  3.13425e-08      26979.6
       242.60000  6.57534e-08      57133.2
       242.70000  6.57534e-08      57475.1
       242.80000  6.57534e-08      57632.9
       242.90000  6.57534e-08      57606.6
       243.00000  6.57534e-08      57396.2
       243.10000  6.57534e-08      57001.6
       243.20000  6.57534e-08      56416.4
       243.30000  6.57534e-08      55647.1
       243.40000  6.57534e-08      54693.7
       243.50000  6.57534e-08      53556.2
       243.60000  1.32626e-08      10761.2
       243.70000  1.32626e-08      10709.5
       243.80000  1.33986e-08      10757.8
       243.90000  1.33986e-08      10685.4
       244.00000  1.33986e-08      10603.7
       244.10000  1.33986e-08      10511.2
       244.20000  1.33986e-08      10409.4
       244.30000  1.33986e-08      10296.8
       244.40000  1.33986e-08      10174.9
       244.50000  1.33986e-08      10042.3
       244.60000  2.54548e-13     0.185464
       244.70000  2.54548e-13     0.180526
       244.80000  2.54548e-13     0.175969
       244.90000  2.54548e-13     0.171820
       245.00000  2.54548e-13     0.168053
       245.10000  2.54548e-13     0.164693
       245.20000  2.54548e-13     0.161715
       245.30000  2.54548e-13     0.159144
       245.40000  2.54548e-13     0.156980
       245.50000  2.54548e-13     0.155173
       245.60000  9.60802e-09      5805.17
       245.70000  9.60802e-09      5767.70
       245.80000  9.60802e-09      5744.64
       245.90000  9.60802e-09      5736.95
       246.00000  9.60802e-09      5743.68
       246.10000  9.60802e-09      5765.78
       246.20000  9.60802e-09      5802.29
       246.30000  9.71055e-09      5916.64
       246.40000  9.71055e-09      5983.64
       246.50000  9.71055e-09      6065.21
       246.60000  3.48573e-08      22294.7
       246.70000  3.48573e-08      22751.4
       246.80000  3.48573e-08      23145.2
       246.90000  3.48573e-08      23472.9
       247.00000  3.48573e-08      23734.3
       247.10000  3.48573e-08      23933.0
       247.20000  3.48573e-08      24065.5
       247.30000  3.48573e-08      24131.7
       247.40000  3.48573e-08      24135.2
       247.50000  3.48573e-08      24072.4
       247.60000  2.62392e-09      1750.16
       247.70000  2.62392e-09      1695.05
       247.80000  2.62392e-09      1646.77
       247.90000  2.62392e-09      1605.05
       248.00000  2.62392e-09      1570.16
       248.10000  2.62392e-09      1541.82
       248.20000  2.62392e-09      1520.30
       248.30000  2.62392e-09      1505.87
       248.40000  2.62392e-09      1497.74
       248.50000  2.62392e-09      1496.69
       248.60000  2.52915e-08      14479.4
       248.70000  2.52915e-08      14598.2
       248.80000  2.55615e-08      14938.1
       248.90000  2.55615e-08      15191.2
       249.00000  2.55615e-08      15508.1
       249.10000  2.55615e-08      15889.0
       249.20000  2.55615e-08      16338.9
       249.30000  2.55615e-08      16852.7
       249.40000  2.55615e-08      17432.9
       249.50000  2.55615e-08      18079.6
       249.60000  4.10513e-09      2965.13
       249.70000  4.10513e-09      3018.09
       249.80000  4.10513e-09      3061.60
       249.90000  4.10513e-09      3095.68
       250.00000  4.10513e-09      3120.72
       250.10000  4.10513e-09      3136.73
       250.20000  4.10513e-09      3143.30
       250.30000  4.10513e-09      3140.42
       250.40000  4.10513e-09      3128.52
       250.50000  4.10513e-09      3107.17
       250.60000  6.97993e-09      5123.27
       250.70000  6.97993e-09      4971.80
       250.80000  6.97993e-09      4828.02
       250.90000  6.97993e-09      4693.31
       251.00000  6.97993e-09      4566.97
       251.10000  6.97993e-09      4449.01
       251.20000  6.97993e-09      4339.42
       251.30000  7.05839e-09      4285.85
       251.40000  7.05839e-09      4191.98
       251.50000  7.05839e-09      4106.57
       251.60000  4.31282e-08      24621.9
       251.70000  4.31282e-08      24207.8
       251.80000  4.31282e-08      23841.3
       251.90000  4.31282e-08      23530.7
       252.00000  4.31282e-08      23267.7
       252.10000  4.31282e-08      23060.6
       252.20000  4.31282e-08      22905.4
       252.30000  4.31282e-08      22801.9
       252.40000  4.31282e-08      22750.1
       252.50000  4.31282e-08      22750.1
       252.60000  4.32793e-08      23435.8
       252.70000  4.32793e-08      24037.3
       252.80000  4.32793e-08      24621.6
       252.90000  4.32793e-08      25197.2
       253.00000  4.32793e-08      25764.2
       253.10000  4.32793e-08      26318.2
       253.20000  4.32793e-08      26863.5
       253.30000  4.32793e-08      27400.2
       253.40000  4.32793e-08      27923.8
       253.50000  4.32793e-08      28434.5
       253.60000  1.51099e-08      9984.62
       253.70000  1.51099e-08      10063.2
       253.80000  1.52803e-08      10279.1
       253.90000  1.52803e-08      10405.9
       254.00000  1.52803e-08      10554.1
       254.10000  1.52803e-08      10726.8
       254.20000  1.52803e-08      10922.4
       254.30000  1.52803e-08      11140.9
       254.40000  1.52803e-08      11382.3
       254.50000  1.52803e-08      11648.2
       254.60000  2.82646e-09      2207.75
       254.70000  2.82646e-09      2265.41
       254.80000  2.82646e-09      2327.02
       254.90000  2.82646e-09      2393.16
       255.00000  2.82646e-09      2463.54
       255.10000  2.82646e-09      2538.16
       255.20000  2.82646e-09      2617.02
       255.30000  2.82646e-09      2700.12
       255.40000  2.82646e-09      2787.74
       255.50000  2.82646e-09      2880.16
       255.60000  6.04390e-08      63279.7
       255.70000  6.04390e-08      65032.4
       255.80000  6.04390e-08      66785.1
       255.90000  6.04390e-08      68537.9
       256.00000  6.04390e-08      70351.1
       256.10000  6.04390e-08      72103.8
       256.20000  6.04390e-08      73917.0
       256.30000  6.11207e-08      76584.2
       256.40000  6.11207e-08      78417.8
       256.50000  6.11207e-08      80251.4
       256.60000  2.52142e-08      34240.8
       256.70000  2.52142e-08      35299.8
       256.80000  2.52142e-08      36258.0
       256.90000  2.52142e-08      37165.7
       257.00000  2.52142e-08      37997.7
       257.10000  2.52142e-08      38729.0
       257.20000  2.52142e-08      39409.7
       257.30000  2.52142e-08      39989.7
       257.40000  2.52142e-08      40493.9
       257.50000  2.52142e-08      40922.6
       257.60000  3.28810e-08      53793.4
       257.70000  3.28810e-08      54122.2
       257.80000  3.28810e-08      54352.4
       257.90000  3.28810e-08      54483.9
       258.00000  3.28810e-08      54549.7
       258.10000  3.28810e-08      54516.8
       258.20000  3.28810e-08      54385.2
       258.30000  3.28810e-08      54155.1
       258.40000  3.28810e-08      53859.1
       258.50000  3.28810e-08      53464.6
       258.60000  7.65791e-08      122373.
       258.70000  7.65791e-08      120229.
       258.80000  7.73590e-08      119288.
       258.90000  7.73590e-08      117122.
       259.00000  7.73590e-08      115033.
       259.10000  7.73590e-08      113022.
       259.20000  7.73590e-08      110933.
       259.30000  7.73590e-08      108922.
       259.40000  7.73590e-08      106910.
       259.50000  7.73590e-08      104976.
       259.60000  1.46113e-09      1946.22
       259.70000  1.46113e-09      1909.69
       259.80000  1.46113e-09      1873.16
       259.90000  1.46113e-09      1838.10
       260.00000  1.46113e-09      1803.03
       260.10000  1.46113e-09      1769.42
       260.20000  1.46113e-09      1735.82
       260.30000  1.46113e-09      1702.21
       260.40000  1.46113e-09      1668.61
       260.50000  1.46113e-09      1636.46
       260.60000  3.31696e-08      37149.9
       260.70000  3.31696e-08      37216.2
       260.80000  3.31696e-08      37315.8
       260.90000  3.31696e-08      37448.4
       261.00000  3.31696e-08      37647.4
       261.10000  3.31696e-08      37846.5
       261.20000  3.31696e-08      38111.8
       261.30000  3.34825e-08      38772.7
       261.40000  3.34825e-08      39141.0
       261.50000  3.34825e-08      39542.8
       261.60000  6.54982e-08      76633.0
       261.70000  6.54982e-08      76436.5
       261.80000  6.54982e-08      76567.5
       261.90000  6.54982e-08      77156.9
       262.00000  6.54982e-08      78204.9
       262.10000  6.54982e-08      79645.9
       262.20000  6.54982e-08      81479.8
       262.30000  6.54982e-08      83772.3
       262.40000  6.54982e-08      86457.7
       262.50000  6.54982e-08      89536.1
       262.60000  3.62827e-08      51557.7
       262.70000  3.62827e-08      53771.0
       262.80000  3.62827e-08      56201.9
       262.90000  3.62827e-08      58850.6
       263.00000  3.62827e-08      61753.2
       263.10000  3.62827e-08      64873.5
       263.20000  3.62827e-08      68211.5
       263.30000  3.62827e-08      71803.5
       263.40000  3.62827e-08      75649.4
       263.50000  3.62827e-08      79713.1
       263.60000  3.69137e-08      87005.5
       263.70000  3.69137e-08      92542.6
       263.80000  3.72108e-08      98459.7
       263.90000  3.72108e-08      103260.
       264.00000  3.72108e-08      107651.
       264.10000  3.72108e-08      111632.
       264.20000  3.72108e-08      115205.
       264.30000  3.72108e-08      118405.
       264.40000  3.72108e-08      121196.
       264.50000  3.72108e-08      123577.
       264.60000  2.82025e-13     0.939142
       264.70000  2.82025e-13     0.941398
       264.80000  2.82025e-13     0.943372
       264.90000  2.82025e-13     0.945346
       265.00000  2.82025e-13     0.947039
       265.10000  2.82025e-13     0.948167
       265.20000  2.82025e-13     0.949295
       265.30000  2.82025e-13     0.950423
       265.40000  2.82025e-13     0.950987
       265.50000  2.82025e-13     0.951269
       265.60000  6.92255e-08      233567.
       265.70000  6.92255e-08      233567.
       265.80000  6.92255e-08      233498.
       265.90000  6.92255e-08      233359.
       266.00000  6.92255e-08      233152.
       266.10000  6.92255e-08      232875.
       266.20000  6.92255e-08      232598.
       266.30000  6.97400e-08      233978.
       266.40000  6.97400e-08      233559.
       266.50000  6.97400e-08      233071.
       266.60000  2.84999e-08      95474.8
       266.70000  2.84999e-08      95674.3
       266.80000  2.84999e-08      95845.3
       266.90000  2.84999e-08      95987.8
       267.00000  2.84999e-08      96101.8
       267.10000  2.84999e-08      96158.8
       267.20000  2.84999e-08      96215.8
       267.30000  2.84999e-08      96215.8
       267.40000  2.84999e-08      96187.3
       267.50000  2.84999e-08      96130.3
       267.60000  2.82872e-13     0.951582
       267.70000  2.82872e-13     0.949036
       267.80000  2.82872e-13     0.946491
       267.90000  2.82872e-13     0.943945
       268.00000  2.82872e-13     0.941682
       268.10000  2.82872e-13     0.939419
       268.20000  2.82872e-13     0.937156
       268.30000  2.82872e-13     0.934893
       268.40000  2.82872e-13     0.932913
       268.50000  2.82872e-13     0.930933
       268.60000  1.14703e-07      374619.
       268.70000  1.14703e-07      372095.
       268.80000  1.15107e-07      371567.
       268.90000  1.15107e-07      370071.
       269.00000  1.15107e-07      369265.
       269.10000  1.15107e-07      368804.
       269.20000  1.15107e-07      369035.
       269.30000  1.15107e-07      369725.
       269.40000  1.15107e-07      370876.
       269.50000  1.15107e-07      372603.
       269.60000  1.46829e-09      4876.18
       269.70000  1.46829e-09      4983.36
       269.80000  1.46829e-09      5077.33
       269.90000  1.46829e-09      5158.09
       270.00000  1.46829e-09      5224.16
       270.10000  1.46829e-09      5275.55
       270.20000  1.46829e-09      5312.26
       270.30000  1.46829e-09      5334.28
       270.40000  1.46829e-09      5343.09
       270.50000  1.46829e-09      5337.22
       270.60000  7.39069e-09      26769.1
       270.70000  7.39069e-09      26599.1
       270.80000  7.39069e-09      26355.2
       270.90000  7.39069e-09      26037.4
       271.00000  7.39069e-09      25653.1
       271.10000  7.39069e-09      25194.9
       271.20000  7.39069e-09      24662.7
       271.30000  7.41572e-09      24138.2
       271.40000  7.41572e-09      23463.3
       271.50000  7.41572e-09      22714.4
       271.60000  5.96758e-08      179684.
       271.70000  5.96758e-08      176819.
       271.80000  5.96758e-08      174134.
       271.90000  5.96758e-08      171687.
       272.00000  5.96758e-08      169420.
       272.10000  5.96758e-08      167391.
       272.20000  5.96758e-08      165600.
       272.30000  5.96758e-08      163989.
       272.40000  5.96758e-08      162557.
       272.50000  5.96758e-08      161423.
       272.60000  1.95613e-08      53656.5
       272.70000  1.95613e-08      54262.9
       272.80000  1.95613e-08      54673.7
       272.90000  1.95613e-08      54928.0
       273.00000  1.95613e-08      55006.3
       273.10000  1.95613e-08      54908.5
       273.20000  1.95613e-08      54654.2
       273.30000  1.95613e-08      54223.8
       273.40000  1.95613e-08      53617.4
       273.50000  1.95613e-08      52854.5
       273.60000  4.87255e-08      129317.
       273.70000  4.87255e-08      126540.
       273.80000  4.88044e-08      123573.
       273.90000  4.88044e-08      119961.
       274.00000  4.88044e-08      115911.
       274.10000  4.88044e-08      111421.
       274.20000  4.88044e-08      106540.
       274.30000  4.88044e-08      101220.
       274.40000  4.88044e-08      95461.5
       274.50000  4.88044e-08      89312.1
       274.60000  6.71111e-08      125766.
       274.70000  6.71111e-08      128920.
       274.80000  6.71111e-08      132276.
       274.90000  6.71111e-08      135967.
       275.00000  6.71111e-08      139792.
       275.10000  6.71111e-08      143953.
       275.20000  6.71111e-08      148316.
       275.30000  6.71111e-08      152879.
       275.40000  6.71111e-08      157711.
       275.50000  4.35316e-08      105564.
       275.60000  4.35316e-08      111789.
       275.70000  4.35316e-08      117579.
       275.80000  4.35316e-08      122846.
       275.90000  4.35316e-08      127678.
       276.00000  4.35316e-08      132031.
       276.10000  4.35316e-08      135949.
       276.20000  4.35316e-08      139388.
       276.30000  4.37699e-08      143128.
       276.40000  4.37699e-08      145666.
       276.50000  4.00767e-08      135259.
       276.60000  4.00767e-08      136742.
       276.70000  4.00767e-08      137784.
       276.80000  4.00767e-08      138385.
       276.90000  4.00767e-08      138585.
       277.00000  4.00767e-08      138345.
       277.10000  4.00767e-08      137664.
       277.20000  4.00767e-08      136582.
       277.30000  4.00767e-08      135059.
       277.40000  4.00767e-08      133095.
       277.50000  7.56616e-09      24680.8
       277.60000  7.56616e-09      23901.5
       277.70000  7.56616e-09      23122.2
       277.80000  7.56616e-09      22335.3
       277.90000  7.56616e-09      21556.0
       278.00000  7.56616e-09      20776.7
       278.10000  7.56616e-09      19997.4
       278.20000  7.56616e-09      19218.1
       278.30000  7.56616e-09      18438.7
       278.40000  7.56616e-09      17659.4
       278.50000  3.09681e-08      69089.8
       278.60000  3.09681e-08      64289.7
       278.70000  3.09681e-08      59830.3
       278.80000  3.11484e-08      56067.2
       278.90000  3.11484e-08      52329.3
       279.00000  3.11484e-08      48934.2
       279.10000  3.11484e-08      45912.8
       279.20000  3.11484e-08      43265.2
       279.30000  3.11484e-08      40960.2
       279.40000  3.11484e-08      39029.0
       279.50000  1.95753e-08      23529.5
       279.60000  1.95753e-08      22492.0
       279.70000  1.95753e-08      21728.6
       279.80000  1.95753e-08      21258.8
       279.90000  1.95753e-08      21082.6
       280.00000  1.95753e-08      21200.0
       280.10000  1.95753e-08      21611.1
       280.20000  1.95753e-08      22296.2
       280.30000  1.95753e-08      23294.6
       280.40000  1.95753e-08      24567.0
       280.50000  1.35077e-08      18032.8
       280.60000  1.35077e-08      20437.1
       280.70000  1.35077e-08      22801.0
       280.80000  1.35077e-08      25110.8
       280.90000  1.35077e-08      27366.6
       281.00000  1.35077e-08      29568.3
       281.10000  1.35077e-08      31729.5
       281.20000  1.35077e-08      33823.2
       281.30000  1.35616e-08      36019.7
       281.40000  1.35616e-08      38026.9
       281.50000  5.87051e-08      173063.
       281.60000  5.87051e-08      181281.
       281.70000  5.87051e-08      189324.
       281.80000  5.87051e-08      197073.
       281.90000  5.87051e-08      204646.
       282.00000  5.87051e-08      211984.
       282.10000  5.87051e-08      219087.
       282.20000  5.87051e-08      225956.
       282.30000  5.87051e-08      232590.
       282.40000  5.87051e-08      239047.
       282.50000  1.42736e-08      59620.9
       282.60000  1.42736e-08      60934.1
       282.70000  1.42736e-08      62047.5
       282.80000  1.42736e-08      62961.0
       282.90000  1.42736e-08      63674.7
       283.00000  1.42736e-08      64188.5
       283.10000  1.42736e-08      64502.5
       283.20000  1.42736e-08      64631.0
       283.30000  1.42736e-08      64545.4
       283.40000  1.42736e-08      64259.9
       283.50000  3.66963e-08      163996.
       283.60000  3.66963e-08      159812.
       283.70000  3.66963e-08      155666.
       283.80000  3.67746e-08      151879.
       283.90000  3.67746e-08      147760.
       284.00000  3.67746e-08      143678.
       284.10000  3.67746e-08      139670.
       284.20000  3.67746e-08      135625.
       284.30000  3.67746e-08      131653.
       284.40000  3.67746e-08      127718.
       284.50000  6.88029e-08      231591.
       284.60000  6.88029e-08      224297.
       284.70000  6.88029e-08      217073.
       284.80000  6.88029e-08      209849.
       284.90000  6.88029e-08      202762.
       285.00000  6.88029e-08      195675.
       285.10000  6.88029e-08      188658.
       285.20000  6.88029e-08      181640.
       285.30000  6.88029e-08      174759.
       285.40000  6.88029e-08      167879.
       285.50000  4.24867e-08      99461.4
       285.60000  4.24867e-08      113270.
       285.70000  4.24867e-08      126186.
       285.80000  4.24867e-08      138209.
       285.90000  4.24867e-08      149341.
       286.00000  4.24867e-08      159623.
       286.10000  4.24867e-08      168970.
       286.20000  4.24867e-08      177425.
       286.30000  4.25545e-08      185325.
       286.40000  4.25545e-08      192006.
       286.50000  2.68584e-08      124838.
       286.60000  2.68584e-08      125912.
       286.70000  2.68584e-08      126852.
       286.80000  2.68584e-08      127685.
       286.90000  2.68584e-08      128437.
       287.00000  2.68584e-08      129055.
       287.10000  2.68584e-08      129565.
       287.20000  2.68584e-08      129995.
       287.30000  2.68584e-08      130290.
       287.40000  2.68584e-08      130478.
       287.50000  4.76325e-08      231541.
       287.60000  4.76325e-08      231541.
       287.70000  4.76325e-08      231303.
       287.80000  4.76325e-08      230875.
       287.90000  4.76325e-08      230255.
       288.00000  4.76325e-08      229493.
       288.10000  4.76325e-08      228493.
       288.20000  4.76325e-08      227302.
       288.30000  4.76325e-08      225921.
       288.40000  4.76325e-08      224349.
       288.50000  1.58644e-09      7415.02
       288.60000  1.58644e-09      7786.24
       288.70000  1.58644e-09      8152.71
       288.80000  1.58714e-09      8519.79
       288.90000  1.58714e-09      8876.89
       289.00000  1.58714e-09      9229.24
       289.10000  1.58714e-09      9576.82
       289.20000  1.58714e-09      9919.65
       289.30000  1.58714e-09      10259.3
       289.40000  1.58714e-09      10592.6
       289.50000  3.26825e-08      224855.
       289.60000  3.26825e-08      234268.
       289.70000  3.26825e-08      242994.
       289.80000  3.26825e-08      250969.
       289.90000  3.26825e-08      258257.
       290.00000  3.26825e-08      264826.
       290.10000  3.26825e-08      270676.
       290.20000  3.26825e-08      275840.
       290.30000  3.26825e-08      280285.
       290.40000  3.26825e-08      284011.
       290.50000  3.02818e-13      2.65965
       290.60000  3.02818e-13      2.68085
       290.70000  3.02818e-13      2.69569
       290.80000  3.02818e-13      2.70417
       290.90000  3.02818e-13      2.70568
       291.00000  3.02818e-13      2.70083
       291.10000  3.02818e-13      2.68933
       291.20000  3.02818e-13      2.67146
       291.30000  3.03185e-13      2.64984
       291.40000  3.03185e-13      2.61861
       291.50000  1.78268e-08      151742.
       291.60000  1.78268e-08      149407.
       291.70000  1.78268e-08      147250.
       291.80000  1.78268e-08      145289.
       291.90000  1.78268e-08      143506.
       292.00000  1.78268e-08      141920.
       292.10000  1.78268e-08      140529.
       292.20000  1.78268e-08      139317.
       292.30000  1.78268e-08      138301.
       292.40000  1.78268e-08      137463.
       292.50000  2.46464e-08      189161.
       292.60000  2.46464e-08      190394.
       292.70000  2.46464e-08      191453.
       292.80000  2.46464e-08      192390.
       292.90000  2.46464e-08      193179.
       293.00000  2.46464e-08      193795.
       293.10000  2.46464e-08      194288.
       293.20000  2.46464e-08      194633.
       293.30000  2.46464e-08      194830.
       293.40000  2.46464e-08      194855.
       293.50000  2.70720e-08      213923.
       293.60000  2.70720e-08      213652.
       293.70000  2.70720e-08      213219.
       293.80000  2.70524e-08      212470.
       293.90000  2.70524e-08      211712.
       294.00000  2.70524e-08      210820.
       294.10000  2.70524e-08      209738.
       294.20000  2.70524e-08      208493.
       294.30000  2.70524e-08      207086.
       294.40000  2.70524e-08      205544.
       294.50000  3.36310e-08      253376.
       294.60000  3.36310e-08      257647.
       294.70000  3.36310e-08      261515.
       294.80000  3.36310e-08      264911.
       294.90000  3.36310e-08      267871.
       295.00000  3.36310e-08      270393.
       295.10000  3.36310e-08      272478.
       295.20000  3.36310e-08      274126.
       295.30000  3.36310e-08      275337.
       295.40000  3.36310e-08      276077.
       295.50000  1.26724e-08      104154.
       295.60000  1.26724e-08      103014.
       295.70000  1.26724e-08      101962.
       295.80000  1.26724e-08      100973.
       295.90000  1.26724e-08      100074.
       296.00000  1.26724e-08      99237.3
       296.10000  1.26724e-08      98489.6
       296.20000  1.26724e-08      97818.0
       296.30000  1.26559e-08      97096.2
       296.40000  1.26559e-08      96590.0
       296.50000  4.52645e-09      34387.4
       296.60000  4.52645e-09      34260.7
       296.70000  4.52645e-09      34156.6
       296.80000  4.52645e-09      34084.2
       296.90000  4.52645e-09      34038.9
       297.00000  4.52645e-09      34020.8
       297.10000  4.52645e-09      34029.8
       297.20000  4.52645e-09      34066.1
       297.30000  4.52645e-09      34133.9
       297.40000  4.52645e-09      34224.5
       297.50000  5.62705e-08      426981.
       297.60000  5.62705e-08      421297.
       297.70000  5.62705e-08      416177.
       297.80000  5.62705e-08      411506.
       297.90000  5.62705e-08      407342.
       298.00000  5.62705e-08      403685.
       298.10000  5.62705e-08      400590.
       298.20000  5.62705e-08      397945.
       298.30000  5.62705e-08      395807.
       298.40000  5.62705e-08      394231.
       298.50000  1.45707e-08      101791.
       298.60000  1.45707e-08      103058.
       298.70000  1.45707e-08      104122.
       298.80000  1.44880e-08      104429.
       298.90000  1.44880e-08      105139.
       299.00000  1.44880e-08      105661.
       299.10000  1.44880e-08      106009.
       299.20000  1.44880e-08      106168.
       299.30000  1.44880e-08      106153.
       299.40000  1.44880e-08      105965.
       299.50000  9.50917e-09      69302.8
       299.60000  9.50917e-09      68941.5
       299.70000  9.50917e-09      68456.5
       299.80000  9.50917e-09      67857.4
       299.90000  9.50917e-09      67144.2
       300.00000  9.50917e-09      66307.4
       300.10000  9.50917e-09      65347.0
       300.20000  9.50917e-09      64272.5
       300.30000  9.50917e-09      63083.8
       300.40000  9.50917e-09      61771.6
       300.50000  4.00386e-08      254085.
       300.60000  4.00386e-08      256367.
       300.70000  4.00386e-08      258649.
       300.80000  4.00386e-08      260891.
       300.90000  4.00386e-08      263174.
       301.00000  4.00386e-08      265416.
       301.10000  4.00386e-08      267658.
       301.20000  4.00386e-08      269860.
       301.30000  3.99696e-08      271594.
       301.40000  3.99696e-08      273792.
       301.50000  4.55040e-08      314205.
       301.60000  4.55040e-08      313568.
       301.70000  4.55040e-08      313568.
       301.80000  4.55040e-08      314296.
       301.90000  4.55040e-08      315706.
       302.00000  4.55040e-08      317800.
       302.10000  4.55040e-08      320530.
       302.20000  4.55040e-08      323988.
       302.30000  4.55040e-08      328129.
       302.40000  4.55040e-08      332952.
       302.50000  2.05694e-08      152974.
       302.60000  2.05694e-08      159268.
       302.70000  2.05694e-08      165090.
       302.80000  2.05694e-08      170458.
       302.90000  2.05694e-08      175333.
       303.00000  2.05694e-08      179756.
       303.10000  2.05694e-08      183705.
       303.20000  2.05694e-08      187181.
       303.30000  2.05694e-08      190184.
       303.40000  2.05694e-08      192714.
       303.50000  2.29096e-08      216954.
       303.60000  2.29096e-08      216221.
       303.70000  2.29096e-08      215534.
       303.80000  2.29339e-08      215120.
       303.90000  2.29339e-08      214500.
       304.00000  2.29339e-08      213904.
       304.10000  2.29339e-08      213377.
       304.20000  2.29339e-08      212849.
       304.30000  2.29339e-08      212390.
       304.40000  2.29339e-08      211955.
       304.50000  1.56529e-09      14438.2
       304.60000  1.56529e-09      14413.1
       304.70000  1.56529e-09      14391.2
       304.80000  1.56529e-09      14370.9
       304.90000  1.56529e-09      14353.7
       305.00000  1.56529e-09      14338.0
       305.10000  1.56529e-09      14325.5
       305.20000  1.56529e-09      14316.1
       305.30000  1.56529e-09      14308.3
       305.40000  1.56529e-09      14303.6
       305.50000  5.82318e-08      532006.
       305.60000  5.82318e-08      524727.
       305.70000  5.82318e-08      518263.
       305.80000  5.82318e-08      512731.
       305.90000  5.82318e-08      508072.
       306.00000  5.82318e-08      504287.
       306.10000  5.82318e-08      501434.
       306.20000  5.82318e-08      499396.
       306.30000  5.80940e-08      497110.
       306.40000  5.80940e-08      496878.
       306.50000  1.16539e-08      99804.0
       306.60000  1.16539e-08      101412.
       306.70000  1.16539e-08      102904.
       306.80000  1.16539e-08      104291.
       306.90000  1.16539e-08      105561.
       307.00000  1.16539e-08      106715.
       307.10000  1.16539e-08      107764.
       307.20000  1.16539e-08      108696.
       307.30000  1.16539e-08      109512.
       307.40000  1.16539e-08      110223.
       307.50000  2.76175e-08      262587.
       307.60000  2.76175e-08      263747.
       307.70000  2.76175e-08      264603.
       307.80000  2.76175e-08      265211.
       307.90000  2.76175e-08      265542.
       308.00000  2.76175e-08      265597.
       308.10000  2.76175e-08      265404.
       308.20000  2.76175e-08      264934.
       308.30000  2.76175e-08      264189.
       308.40000  2.76175e-08      263194.
       308.50000  7.50191e-08      711406.
       308.60000  7.50191e-08      685600.
       308.70000  7.50191e-08      662569.
       308.80000  7.47762e-08      640308.
       308.90000  7.47762e-08      622960.
       309.00000  7.47762e-08      608379.
       309.10000  7.47762e-08      596639.
       309.20000  7.47762e-08      587741.
       309.30000  7.47762e-08      581609.
       309.40000  7.47762e-08      578244.
       309.50000  8.40924e-08      649698.
       309.60000  8.40924e-08      667525.
       309.70000  8.40924e-08      685101.
       309.80000  8.40924e-08      702424.
       309.90000  8.40924e-08      719578.
       310.00000  8.40924e-08      736397.
       310.10000  8.40924e-08      753047.
       310.20000  8.40924e-08      769445.
       310.30000  8.40924e-08      785507.
       310.40000  8.40924e-08      801484.
       310.50000  3.31664e-08      322277.
       310.60000  3.31664e-08      328347.
       310.70000  3.31664e-08      334317.
       310.80000  3.31664e-08      340287.
       310.90000  3.31664e-08      345925.
       311.00000  3.31664e-08      351563.
       311.10000  3.31664e-08      357202.
       311.20000  3.31664e-08      362840.
       311.30000  3.30754e-08      367137.
       311.40000  3.30754e-08      372429.
       311.50000  8.18989e-08      935285.
       311.60000  8.18989e-08      919724.
       311.70000  8.18989e-08      904983.
       311.80000  8.18989e-08      891879.
       311.90000  8.18989e-08      880413.
       312.00000  8.18989e-08      870585.
       312.10000  8.18989e-08      862395.
       312.20000  8.18989e-08      855843.
       312.30000  8.18989e-08      850110.
       312.40000  8.18989e-08      846015.
       312.50000  4.61964e-08      476285.
       312.60000  4.61964e-08      482291.
       312.70000  4.61964e-08      487372.
       312.80000  4.61964e-08      492454.
       312.90000  4.61964e-08      496611.
       313.00000  4.61964e-08      500307.
       313.10000  4.61964e-08      503079.
       313.20000  4.61964e-08      505851.
       313.30000  4.61964e-08      507699.
       313.40000  4.61964e-08      509084.
       313.50000  9.13036e-08  1.00708e+06
       313.60000  9.13036e-08  1.00708e+06
       313.70000  9.13036e-08  1.00617e+06
       313.80000  9.12098e-08  1.00331e+06
       313.90000  9.12098e-08  1.00057e+06
       314.00000  9.12098e-08      996011.
       314.10000  9.12098e-08      990538.
       314.20000  9.12098e-08      983242.
       314.30000  9.12098e-08      975033.
       314.40000  9.12098e-08      965912.
       314.50000  1.64266e-08      172151.
       314.60000  1.64266e-08      171166.
       314.70000  1.64266e-08      170180.
       314.80000  1.64266e-08      169194.
       314.90000  1.64266e-08      168373.
       315.00000  1.64266e-08      167552.
       315.10000  1.64266e-08      166895.
       315.20000  1.64266e-08      166238.
       315.30000  1.64266e-08      165745.
       315.40000  1.64266e-08      165252.
       315.50000  3.54939e-09      35635.9
       315.60000  3.54939e-09      35295.1
       315.70000  3.54939e-09      35028.9
       315.80000  3.54939e-09      34840.8
       315.90000  3.54939e-09      34734.3
       316.00000  3.54939e-09      34705.9
       316.10000  3.54939e-09      34759.2
       316.20000  3.54939e-09      34890.5
       316.30000  3.55407e-09      35149.7
       316.40000  3.55407e-09      35441.1
       316.50000  5.24062e-08      528254.
       316.60000  5.24062e-08      534543.
       316.70000  5.24062e-08      542404.
       316.80000  5.24062e-08      551313.
       316.90000  5.24062e-08      561794.
       317.00000  5.24062e-08      572799.
       317.10000  5.24062e-08      585377.
       317.20000  5.24062e-08      599526.
       317.30000  5.24062e-08      614200.
       317.40000  5.24062e-08      630446.
       317.50000  5.65593e-08      698508.
       317.60000  5.65593e-08      682671.
       317.70000  5.65593e-08      668531.
       317.80000  5.65593e-08      654957.
       317.90000  5.65593e-08      643079.
       318.00000  5.65593e-08      632899.
       318.10000  5.65593e-08      623849.
       318.20000  5.65593e-08      616496.
       318.30000  5.65593e-08      610275.
       318.40000  5.65593e-08      605750.
       318.50000  1.06780e-08      113721.
       318.60000  1.06780e-08      114148.
       318.70000  1.06780e-08      114682.
       318.80000  1.06776e-08      115211.
       318.90000  1.06776e-08      115958.
       319.00000  1.06776e-08      116706.
       319.10000  1.06776e-08      117560.
       319.20000  1.06776e-08      118521.
       319.30000  1.06776e-08      119589.
       319.40000  1.06776e-08      120657.
       319.50000  4.51779e-08      515480.
       319.60000  4.51779e-08      520901.
       319.70000  4.51779e-08      526774.
       319.80000  4.51779e-08      533099.
       319.90000  4.51779e-08      539424.
       320.00000  4.51779e-08      546200.
       320.10000  4.51779e-08      553429.
       320.20000  4.51779e-08      561109.
       320.30000  4.51779e-08      569241.
       320.40000  4.51779e-08      577373.
       320.50000  5.54897e-08      719701.
       320.60000  5.54897e-08      706939.
       320.70000  5.54897e-08      694731.
       320.80000  5.54897e-08      683078.
       320.90000  5.54897e-08      672535.
       321.00000  5.54897e-08      663102.
       321.10000  5.54897e-08      654223.
       321.20000  5.54897e-08      646455.
       321.30000  5.54629e-08      638933.
       321.40000  5.54629e-08      632832.
       321.50000  5.07208e-08      573652.
       321.60000  5.07208e-08      573652.
       321.70000  5.07208e-08      573145.
       321.80000  5.07208e-08      572638.
       321.90000  5.07208e-08      572130.
       322.00000  5.07208e-08      571623.
       322.10000  5.07208e-08      570609.
       322.20000  5.07208e-08      570101.
       322.30000  5.07208e-08      569087.
       322.40000  5.07208e-08      567565.
       322.50000  6.22132e-08      694921.
       322.60000  6.22132e-08      693055.
       322.70000  6.22132e-08      691188.
       322.80000  6.22132e-08      688700.
       322.90000  6.22132e-08      686211.
       323.00000  6.22132e-08      683723.
       323.10000  6.22132e-08      681234.
       323.20000  6.22132e-08      678746.
       323.30000  6.22132e-08      675635.
       323.40000  6.22132e-08      672524.
       323.50000  1.04894e-08      112866.
       323.60000  1.04894e-08      114439.
       323.70000  1.04894e-08      116117.
       323.80000  1.05081e-08      118006.
       323.90000  1.05081e-08      119687.
       324.00000  1.05081e-08      121368.
       324.10000  1.05081e-08      123155.
       324.20000  1.05081e-08      124941.
       324.30000  1.05081e-08      126728.
       324.40000  1.05081e-08      128619.
       324.50000  7.27775e-08      903169.
       324.60000  7.27775e-08      917724.
       324.70000  7.27775e-08      932280.
       324.80000  7.27775e-08      946835.
       324.90000  7.27775e-08      960663.
       325.00000  7.27775e-08      974491.
       325.10000  7.27775e-08      989046.
       325.20000  7.27775e-08  1.00287e+06
       325.30000  7.27775e-08  1.01597e+06
       325.40000  7.27775e-08  1.02980e+06
       325.50000  9.22749e-09      132230.
       325.60000  9.22749e-09      134721.
       325.70000  9.22749e-09      137028.
       325.80000  9.22749e-09      139151.
       325.90000  9.22749e-09      141088.
       326.00000  9.22749e-09      142749.
       326.10000  9.22749e-09      144318.
       326.20000  9.22749e-09      145610.
       326.30000  9.26784e-09      147359.
       326.40000  9.26784e-09      148285.
       326.50000  4.21143e-08      677198.
       326.60000  4.21143e-08      675935.
       326.70000  4.21143e-08      674250.
       326.80000  4.21143e-08      672987.
       326.90000  4.21143e-08      671302.
       327.00000  4.21143e-08      669617.
       327.10000  4.21143e-08      667933.
       327.20000  4.21143e-08      666248.
       327.30000  4.21143e-08      664564.
       327.40000  4.21143e-08      662458.
       327.50000  5.23567e-08      821477.
       327.60000  5.23567e-08      818859.
       327.70000  5.23567e-08      816242.
       327.80000  5.23567e-08      813624.
       327.90000  5.23567e-08      811006.
       328.00000  5.23567e-08      808388.
       328.10000  5.23567e-08      805770.
       328.20000  5.23567e-08      802629.
       328.30000  5.23567e-08      799487.
       328.40000  5.23567e-08      796869.
       328.50000  4.07532e-08      617818.
       328.60000  4.07532e-08      633304.
       328.70000  4.07532e-08      647568.
       328.80000  4.08417e-08      662045.
       328.90000  4.08417e-08      673889.
       329.00000  4.08417e-08      684508.
       329.10000  4.08417e-08      693493.
       329.20000  4.08417e-08      701661.
       329.30000  4.08417e-08      708196.
       329.40000  4.08417e-08      713914.
       329.50000  3.11382e-08      547409.
       329.60000  3.11382e-08      545229.
       329.70000  3.11382e-08      543361.
       329.80000  3.11382e-08      541181.
       329.90000  3.11382e-08      539002.
       330.00000  3.11382e-08      536822.
       330.10000  3.11382e-08      534642.
       330.20000  3.11382e-08      532463.
       330.30000  3.11382e-08      530283.
       330.40000  3.11382e-08      528103.
       330.50000  2.38728e-08      402972.
       330.60000  2.38728e-08      401301.
       330.70000  2.38728e-08      399392.
       330.80000  2.38728e-08      397720.
       330.90000  2.38728e-08      395811.
       331.00000  2.38728e-08      393901.
       331.10000  2.38728e-08      391991.
       331.20000  2.38728e-08      390081.
       331.30000  2.38747e-08      388203.
       331.40000  2.38747e-08      386293.
       331.50000  2.43706e-08      392367.
       331.60000  2.43706e-08      392367.
       331.70000  2.43706e-08      392367.
       331.80000  2.43706e-08      392367.
       331.90000  2.43706e-08      392124.
       332.00000  2.43706e-08      391880.
       332.10000  2.43706e-08      391393.
       332.20000  2.43706e-08      390905.
       332.30000  2.43706e-08      390418.
       332.40000  2.43706e-08      389687.
       332.50000  2.24814e-08      358803.
       332.60000  2.24814e-08      356555.
       332.70000  2.24814e-08      354532.
       332.80000  2.24814e-08      352733.
       332.90000  2.24814e-08      351160.
       333.00000  2.24814e-08      349811.
       333.10000  2.24814e-08      348912.
       333.20000  2.24814e-08      348012.
       333.30000  2.24814e-08      347563.
       333.40000  2.24814e-08      347338.
       333.50000  1.83341e-08      283262.
       333.60000  1.83341e-08      283628.
       333.70000  1.83341e-08      283995.
       333.80000  1.83108e-08      284367.
       333.90000  1.83108e-08      285282.
       334.00000  1.83108e-08      286381.
       334.10000  1.83108e-08      287846.
       334.20000  1.83108e-08      289310.
       334.30000  1.83108e-08      291142.
       334.40000  1.83108e-08      293156.
       334.50000  1.79994e-09      29033.0
       334.60000  1.79994e-09      29159.0
       334.70000  1.79994e-09      29231.0
       334.80000  1.79994e-09      29285.0
       334.90000  1.79994e-09      29303.0
       335.00000  1.79994e-09      29285.0
       335.10000  1.79994e-09      29231.0
       335.20000  1.79994e-09      29141.0
       335.30000  1.79994e-09      29015.0
       335.40000  1.79994e-09      28853.0
       335.50000  3.37221e-08      536518.
       335.60000  3.37221e-08      525053.
       335.70000  3.37221e-08      514262.
       335.80000  3.37221e-08      504145.
       335.90000  3.37221e-08      495378.
       336.00000  3.37221e-08      487284.
       336.10000  3.37221e-08      480540.
       336.20000  3.37221e-08      474470.
       336.30000  3.37713e-08      470096.
       336.40000  3.37713e-08      465706.
       336.50000  1.75510e-08      240448.
       336.60000  1.75510e-08      239219.
       336.70000  1.75510e-08      238517.
       336.80000  1.75510e-08      238342.
       336.90000  1.75510e-08      238517.
       337.00000  1.75510e-08      239395.
       337.10000  1.75510e-08      240624.
       337.20000  1.75510e-08      242379.
       337.30000  1.75510e-08      244660.
       337.40000  1.75510e-08      247468.
       337.50000  2.25971e-08      322913.
       337.60000  2.25971e-08      326755.
       337.70000  2.25971e-08      330370.
       337.80000  2.25971e-08      333986.
       337.90000  2.25971e-08      337375.
       338.00000  2.25971e-08      340539.
       338.10000  2.25971e-08      343702.
       338.20000  2.25971e-08      346640.
       338.30000  2.25971e-08      349352.
       338.40000  2.25971e-08      352063.
       338.50000  6.87634e-09      107821.
       338.60000  6.87634e-09      108234.
       338.70000  6.87634e-09      108646.
       338.80000  6.88130e-09      109137.
       338.90000  6.88130e-09      109619.
       339.00000  6.88130e-09      110032.
       339.10000  6.88130e-09      110514.
       339.20000  6.88130e-09      110995.
       339.30000  6.88130e-09      111477.
       339.40000  6.88130e-09      112028.
       339.50000  2.79761e-08      457409.
       339.60000  2.79761e-08      459647.
       339.70000  2.79761e-08      461886.
       339.80000  2.79761e-08      464403.
       339.90000  2.79761e-08      466642.
       340.00000  2.79761e-08      469159.
       340.10000  2.79761e-08      471677.
       340.20000  2.79761e-08      474195.
       340.30000  2.79761e-08      476993.
       340.40000  2.79761e-08      479510.
       340.50000  3.07869e-08      530766.
       340.60000  3.07869e-08      522762.
       340.70000  3.07869e-08      515989.
       340.80000  3.07869e-08      509524.
       340.90000  3.07869e-08      503982.
       341.00000  3.07869e-08      499364.
       341.10000  3.07869e-08      495669.
       341.20000  3.07869e-08      492591.
       341.30000  3.08488e-08      491421.
       341.40000  3.08488e-08      489879.
       341.50000  3.90421e-08      619208.
       341.60000  3.90421e-08      627407.
       341.70000  3.90421e-08      634825.
       341.80000  3.90421e-08      641852.
       341.90000  3.90421e-08      647709.
       342.00000  3.90421e-08      652784.
       342.10000  3.90421e-08      657469.
       342.20000  3.90421e-08      660983.
       342.30000  3.90421e-08      664106.
       342.40000  3.90421e-08      666058.
       342.50000  1.11288e-08      190302.
       342.60000  1.11288e-08      190524.
       342.70000  1.11288e-08      190524.
       342.80000  1.11288e-08      190302.
       342.90000  1.11288e-08      189857.
       343.00000  1.11288e-08      189189.
       343.10000  1.11288e-08      188299.
       343.20000  1.11288e-08      187186.
       343.30000  1.11288e-08      185962.
       343.40000  1.11288e-08      184404.
       343.50000  2.63629e-08      432879.
       343.60000  2.63629e-08      419698.
       343.70000  2.63629e-08      408098.
       343.80000  2.63918e-08      397989.
       343.90000  2.63918e-08      389016.
       344.00000  2.63918e-08      381362.
       344.10000  2.63918e-08      375292.
       344.20000  2.63918e-08      370278.
       344.30000  2.63918e-08      366847.
       344.40000  2.63918e-08      364471.
       344.50000  2.06774e-08      284934.
       344.60000  2.06774e-08      292792.
       344.70000  2.06774e-08      300029.
       344.80000  2.06774e-08      306646.
       344.90000  2.06774e-08      312642.
       345.00000  2.06774e-08      318225.
       345.10000  2.06774e-08      323188.
       345.20000  2.06774e-08      327530.
       345.30000  2.06774e-08      331459.
       345.40000  2.06774e-08      334560.
       345.50000  3.67214e-08      599293.
       345.60000  3.67214e-08      602966.
       345.70000  3.67214e-08      605903.
       345.80000  3.67214e-08      607739.
       345.90000  3.67214e-08      608474.
       346.00000  3.67214e-08      608474.
       346.10000  3.67214e-08      607005.
       346.20000  3.67214e-08      605169.
       346.30000  3.67470e-08      602283.
       346.40000  3.67470e-08      598241.
       346.50000  6.67619e-08  1.07754e+06
       346.60000  6.67619e-08  1.07353e+06
       346.70000  6.67619e-08  1.07019e+06
       346.80000  6.67619e-08  1.06752e+06
       346.90000  6.67619e-08  1.06418e+06
       347.00000  6.67619e-08  1.06151e+06
       347.10000  6.67619e-08  1.05951e+06
       347.20000  6.67619e-08  1.05684e+06
       347.30000  6.67619e-08  1.05484e+06
       347.40000  6.67619e-08  1.05350e+06
       347.50000  2.48782e-08      391831.
       347.60000  2.48782e-08      391831.
       347.70000  2.48782e-08      391831.
       347.80000  2.48782e-08      391831.
       347.90000  2.48782e-08      391831.
       348.00000  2.48782e-08      391582.
       348.10000  2.48782e-08      391582.
       348.20000  2.48782e-08      391582.
       348.30000  2.48782e-08      391333.
       348.40000  2.48782e-08      391333.
       348.50000  6.31565e-08      992821.
       348.60000  6.31565e-08      983979.
       348.70000  6.31565e-08      977032.
       348.80000  6.31425e-08      971763.
       348.90000  6.31425e-08      967974.
       349.00000  6.31425e-08      966711.
       349.10000  6.31425e-08      967343.
       349.20000  6.31425e-08      969237.
       349.30000  6.31425e-08      973657.
       349.40000  6.31425e-08      979340.
       349.50000  6.40331e-08  1.00148e+06
       349.60000  6.40331e-08  1.03157e+06
       349.70000  6.40331e-08  1.05847e+06
       349.80000  6.40331e-08  1.08344e+06
       349.90000  6.40331e-08  1.10585e+06
       350.00000  6.40331e-08  1.12570e+06
       350.10000  6.40331e-08  1.14235e+06
       350.20000  6.40331e-08  1.15708e+06
       350.30000  6.40331e-08  1.16924e+06
       350.40000  6.40331e-08  1.17821e+06
       350.50000  5.19902e-08      961818.
       350.60000  5.19902e-08      965457.
       350.70000  5.19902e-08      966497.
       350.80000  5.19902e-08      965457.
       350.90000  5.19902e-08      962338.
       351.00000  5.19902e-08      957659.
       351.10000  5.19902e-08      950380.
       351.20000  5.19902e-08      941022.
       351.30000  5.20615e-08      930339.
       351.40000  5.20615e-08      916803.
       351.50000  6.23053e-08  1.07850e+06
       351.60000  6.23053e-08  1.06106e+06
       351.70000  6.23053e-08  1.04611e+06
       351.80000  6.23053e-08  1.03302e+06
       351.90000  6.23053e-08  1.02181e+06
       352.00000  6.23053e-08  1.01308e+06
       352.10000  6.23053e-08  1.00685e+06
       352.20000  6.23053e-08  1.00249e+06
       352.30000  6.23053e-08  1.00062e+06
       352.40000  6.23053e-08  1.00062e+06
       352.50000  5.04886e-08      812361.
       352.60000  5.04886e-08      825993.
       352.70000  5.04886e-08      838615.
       352.80000  5.04886e-08      851237.
       352.90000  5.04886e-08      863354.
       353.00000  5.04886e-08      874967.
       353.10000  5.04886e-08      886074.
       353.20000  5.04886e-08      897182.
       353.30000  5.04886e-08      907279.
       353.40000  5.04886e-08      917377.
       353.50000  7.97347e-08  1.46393e+06
       353.60000  7.97347e-08  1.47828e+06
       353.70000  7.97347e-08  1.49184e+06
       353.80000  7.98287e-08  1.50717e+06
       353.90000  7.98287e-08  1.51994e+06
       354.00000  7.98287e-08  1.53111e+06
       354.10000  7.98287e-08  1.54229e+06
       354.20000  7.98287e-08  1.55347e+06
       354.30000  7.98287e-08  1.56305e+06
       354.40000  7.98287e-08  1.57262e+06
       354.50000  8.26744e-08  1.63695e+06
       354.60000  8.26744e-08  1.63199e+06
       354.70000  8.26744e-08  1.62620e+06
       354.80000  8.26744e-08  1.61959e+06
       354.90000  8.26744e-08  1.61215e+06
       355.00000  8.26744e-08  1.60306e+06
       355.10000  8.26744e-08  1.59314e+06
       355.20000  8.26744e-08  1.58239e+06
       355.30000  8.26744e-08  1.57081e+06
       355.40000  8.26744e-08  1.55841e+06
       355.50000  9.20426e-09      171936.
       355.60000  9.20426e-09      169634.
       355.70000  9.20426e-09      167425.
       355.80000  9.20426e-09      165216.
       355.90000  9.20426e-09      163007.
       356.00000  9.20426e-09      160890.
       356.10000  9.20426e-09      158773.
       356.20000  9.20426e-09      156656.
       356.30000  9.23392e-09      155038.
       356.40000  9.23392e-09      153006.
       356.50000  9.02953e-08  1.47633e+06
       356.60000  9.02953e-08  1.45646e+06
       356.70000  9.02953e-08  1.43750e+06
       356.80000  9.02953e-08  1.41854e+06
       356.90000  9.02953e-08  1.39958e+06
       357.00000  9.02953e-08  1.38061e+06
       357.10000  9.02953e-08  1.36256e+06
       357.20000  9.02953e-08  1.34450e+06
       357.30000  9.02953e-08  1.32644e+06
       357.40000  9.02953e-08  1.30928e+06
       357.50000  3.70798e-08      530612.
       357.60000  3.70798e-08      511701.
       357.70000  3.70798e-08      495757.
       357.80000  3.70798e-08      482408.
       357.90000  3.70798e-08      471655.
       358.00000  3.70798e-08      463497.
       358.10000  3.70798e-08      458306.
       358.20000  3.70798e-08      455711.
       358.30000  3.70798e-08      455711.
       358.40000  3.70798e-08      458306.
       358.50000  9.34740e-09      116843.
       358.60000  9.34740e-09      124320.
       358.70000  9.34740e-09      131238.
       358.80000  9.35486e-09      137797.
       358.90000  9.35486e-09      143597.
       359.00000  9.35486e-09      148929.
       359.10000  9.35486e-09      153794.
       359.20000  9.35486e-09      158004.
       359.30000  9.35486e-09      161745.
       359.40000  9.35486e-09      164926.
       359.50000  4.92401e-08      881890.
       359.60000  4.92401e-08      883368.
       359.70000  4.92401e-08      884352.
       359.80000  4.92401e-08      884352.
       359.90000  4.92401e-08      883368.
       360.00000  4.92401e-08      882383.
       360.10000  4.92401e-08      880413.
       360.20000  4.92401e-08      877951.
       360.30000  4.92401e-08      874997.
       360.40000  4.92401e-08      871058.
       360.50000  5.32158e-08      936598.
       360.60000  5.32158e-08      918505.
       360.70000  5.32158e-08      902540.
       360.80000  5.32158e-08      888704.
       360.90000  5.32158e-08      876997.
       361.00000  5.32158e-08      867418.
       361.10000  5.32158e-08      859435.
       361.20000  5.32158e-08      854114.
       361.30000  5.33476e-08      852494.
       361.40000  5.33476e-08      850894.
       361.50000  2.01888e-08      322213.
       361.60000  2.01888e-08      323222.
       361.70000  2.01888e-08      325039.
       361.80000  2.01888e-08      327462.
       361.90000  2.01888e-08      330894.
       362.00000  2.01888e-08      334932.
       362.10000  2.01888e-08      339777.
       362.20000  2.01888e-08      345430.
       362.30000  2.01888e-08      351890.
       362.40000  2.01888e-08      359158.
       362.50000  7.35156e-09      133725.
       362.60000  7.35156e-09      133651.
       362.70000  7.35156e-09      133578.
       362.80000  7.35156e-09      133504.
       362.90000  7.35156e-09      133504.
       363.00000  7.35156e-09      133504.
       363.10000  7.35156e-09      133578.
       363.20000  7.35156e-09      133651.
       363.30000  7.35156e-09      133725.
       363.40000  7.35156e-09      133798.
       363.50000  3.74589e-08      682502.
       363.60000  3.74589e-08      679880.
       363.70000  3.74589e-08      678382.
       363.80000  3.74560e-08      677579.
       363.90000  3.74560e-08      677579.
       364.00000  3.74560e-08      678328.
       364.10000  3.74560e-08      680201.
       364.20000  3.74560e-08      682449.
       364.30000  3.74560e-08      686194.
       364.40000  3.74560e-08      690314.
       364.50000  7.26781e-08  1.34963e+06
       364.60000  7.26781e-08  1.36053e+06
       364.70000  7.26781e-08  1.37434e+06
       364.80000  7.26781e-08  1.38888e+06
       364.90000  7.26781e-08  1.40559e+06
       365.00000  7.26781e-08  1.42376e+06
       365.10000  7.26781e-08  1.44339e+06
       365.20000  7.26781e-08  1.46446e+06
       365.30000  7.26781e-08  1.48772e+06
       365.40000  7.26781e-08  1.51243e+06
       365.50000  3.37902e-08      715338.
       365.60000  3.37902e-08      724462.
       365.70000  3.37902e-08      732571.
       365.80000  3.37902e-08      739667.
       365.90000  3.37902e-08      746425.
       366.00000  3.37902e-08      751832.
       366.10000  3.37902e-08      756900.
       366.20000  3.37902e-08      760617.
       366.30000  3.38934e-08      766329.
       366.40000  3.38934e-08      768701.
       366.50000  1.78089e-09      40461.9
       366.60000  1.78089e-09      40337.3
       366.70000  1.78089e-09      40212.6
       366.80000  1.78089e-09      40070.1
       366.90000  1.78089e-09      39909.8
       367.00000  1.78089e-09      39749.6
       367.10000  1.78089e-09      39589.3
       367.20000  1.78089e-09      39411.2
       367.30000  1.78089e-09      39233.1
       367.40000  1.78089e-09      39037.2
       367.50000  1.36706e-07  2.98020e+06
       367.60000  1.36706e-07  2.96379e+06
       367.70000  1.36706e-07  2.94739e+06
       367.80000  1.36706e-07  2.92961e+06
       367.90000  1.36706e-07  2.91184e+06
       368.00000  1.36706e-07  2.89270e+06
       368.10000  1.36706e-07  2.87356e+06
       368.20000  1.36706e-07  2.85306e+06
       368.30000  1.36706e-07  2.83255e+06
       368.40000  1.36706e-07  2.81068e+06
       368.50000  2.35916e-08      481270.
       368.60000  2.35916e-08      490942.
       368.70000  2.35916e-08      499907.
       368.80000  2.36434e-08      509042.
       368.90000  2.36434e-08      515898.
       369.00000  2.36434e-08      522046.
       369.10000  2.36434e-08      527247.
       369.20000  2.36434e-08      531503.
       369.30000  2.36434e-08      534813.
       369.40000  2.36434e-08      537178.
       369.50000  3.64170e-08      829579.
       369.60000  3.64170e-08      820111.
       369.70000  3.64170e-08      811371.
       369.80000  3.64170e-08      803723.
       369.90000  3.64170e-08      796804.
       370.00000  3.64170e-08      790613.
       370.10000  3.64170e-08      785515.
       370.20000  3.64170e-08      781145.
       370.30000  3.64170e-08      777503.
       370.40000  3.64170e-08      774590.
       370.50000  2.26215e-08      480028.
       370.60000  2.26215e-08      484553.
       370.70000  2.26215e-08      488625.
       370.80000  2.26215e-08      491792.
       370.90000  2.26215e-08      494506.
       371.00000  2.26215e-08      496542.
       371.10000  2.26215e-08      497899.
       371.20000  2.26215e-08      498578.
       371.30000  2.26592e-08      499408.
       371.40000  2.26592e-08      498728.
       371.50000  1.29906e-07  2.85144e+06
       371.60000  1.29906e-07  2.82416e+06
       371.70000  1.29906e-07  2.79688e+06
       371.80000  1.29906e-07  2.76830e+06
       371.90000  1.29906e-07  2.73972e+06
       372.00000  1.29906e-07  2.71244e+06
       372.10000  1.29906e-07  2.68256e+06
       372.20000  1.29906e-07  2.65398e+06
       372.30000  1.29906e-07  2.62410e+06
       372.40000  1.29906e-07  2.59422e+06
       372.50000  3.01886e-08      595923.
       372.60000  3.01886e-08      588980.
       372.70000  3.01886e-08      581734.
       372.80000  3.01886e-08      574489.
       372.90000  3.01886e-08      567244.
       373.00000  3.01886e-08      559697.
       373.10000  3.01886e-08      552150.
       373.20000  3.01886e-08      544904.
       373.30000  3.01886e-08      537055.
       373.40000  3.01886e-08      529508.
       373.50000  1.15573e-08      199710.
       373.60000  1.15573e-08      197514.
       373.70000  1.15573e-08      195781.
       373.80000  1.15700e-08      194608.
       373.90000  1.15700e-08      193682.
       374.00000  1.15700e-08      193104.
       374.10000  1.15700e-08      192873.
       374.20000  1.15700e-08      193104.
       374.30000  1.15700e-08      193798.
       374.40000  1.15700e-08      194724.
       374.50000  4.06805e-08      689534.
       374.60000  4.06805e-08      707027.
       374.70000  4.06805e-08      723299.
       374.80000  4.06805e-08      738758.
       374.90000  4.06805e-08      752996.
       375.00000  4.06805e-08      766014.
       375.10000  4.06805e-08      777811.
       375.20000  4.06805e-08      788794.
       375.30000  4.06805e-08      798965.
       375.40000  4.06805e-08      807914.
       375.50000  7.06495e-08  1.41652e+06
       375.60000  7.06495e-08  1.42853e+06
       375.70000  7.06495e-08  1.43842e+06
       375.80000  7.06495e-08  1.44619e+06
       375.90000  7.06495e-08  1.45255e+06
       376.00000  7.06495e-08  1.45679e+06
       376.10000  7.06495e-08  1.45962e+06
       376.20000  7.06495e-08  1.46032e+06
       376.30000  7.06336e-08  1.45858e+06
       376.40000  7.06336e-08  1.45576e+06
       376.50000  9.53726e-09      195895.
       376.60000  9.53726e-09      200759.
       376.70000  9.53726e-09      205337.
       376.80000  9.53726e-09      209629.
       376.90000  9.53726e-09      213635.
       377.00000  9.53726e-09      217450.
       377.10000  9.53726e-09      220883.
       377.20000  9.53726e-09      224126.
       377.30000  9.53726e-09      226987.
       377.40000  9.53726e-09      229657.
       377.50000  2.99714e-13      7.29205
       377.60000  2.99714e-13      7.39994
       377.70000  2.99714e-13      7.48686
       377.80000  2.99714e-13      7.55879
       377.90000  2.99714e-13      7.61274
       378.00000  2.99714e-13      7.64871
       378.10000  2.99714e-13      7.66969
       378.20000  2.99714e-13      7.66969
       378.30000  2.99714e-13      7.65470
       378.40000  2.99714e-13      7.61873
       378.50000  7.81233e-09      197261.
       378.60000  7.81233e-09      195543.
       378.70000  7.81233e-09      193277.
       378.80000  7.80017e-09      190246.
       378.90000  7.80017e-09      187126.
       379.00000  7.80017e-09      183538.
       379.10000  7.80017e-09      179482.
       379.20000  7.80017e-09      174958.
       379.30000  7.80017e-09      169966.
       379.40000  7.80017e-09      164506.
       379.50000  6.72573e-08  1.36801e+06
       379.60000  6.72573e-08  1.40097e+06
       379.70000  6.72573e-08  1.42989e+06
       379.80000  6.72573e-08  1.45612e+06
       379.90000  6.72573e-08  1.47899e+06
       380.00000  6.72573e-08  1.49849e+06
       380.10000  6.72573e-08  1.51463e+06
       380.20000  6.72573e-08  1.52741e+06
       380.30000  6.72573e-08  1.53750e+06
       380.40000  6.72573e-08  1.54355e+06
       380.50000  6.73297e-09      154858.
       380.60000  6.73297e-09      154320.
       380.70000  6.73297e-09      153579.
       380.80000  6.73297e-09      152636.
       380.90000  6.73297e-09      151424.
       381.00000  6.73297e-09      150078.
       381.10000  6.73297e-09      148462.
       381.20000  6.73297e-09      146577.
       381.30000  6.73636e-09      144630.
       381.40000  6.73636e-09      142339.
       381.50000  3.53301e-08      733100.
       381.60000  3.53301e-08      718968.
       381.70000  3.53301e-08      703422.
       381.80000  3.53301e-08      686817.
       381.90000  3.53301e-08      668799.
       382.00000  3.53301e-08      650074.
       382.10000  3.53301e-08      629936.
       382.20000  3.53301e-08      608384.
       382.30000  3.53301e-08      586126.
       382.40000  3.53301e-08      562455.
       382.50000  6.05247e-08      921186.
       382.60000  6.05247e-08      888503.
       382.70000  6.05247e-08      860661.
       382.80000  6.05247e-08      837057.
       382.90000  6.05247e-08      818294.
       383.00000  6.05247e-08      803768.
       383.10000  6.05247e-08      794084.
       383.20000  6.05247e-08      788032.
       383.30000  6.05247e-08      787426.
       383.40000  6.05247e-08      790453.
       383.50000  3.36093e-09      44330.7
       383.60000  3.36093e-09      46784.2
       383.70000  3.36093e-09      49103.2
       383.80000  3.36344e-09      51326.1
       383.90000  3.36344e-09      53344.1
       384.00000  3.36344e-09      55227.6
       384.10000  3.36344e-09      56943.0
       384.20000  3.36344e-09      58523.8
       384.30000  3.36344e-09      59970.1
       384.40000  3.36344e-09      61248.2
       384.50000  1.68049e-09      31173.0
       384.60000  1.68049e-09      31677.2
       384.70000  1.68049e-09      32097.3
       384.80000  1.68049e-09      32450.2
       384.90000  1.68049e-09      32719.1
       385.00000  1.68049e-09      32920.7
       385.10000  1.68049e-09      33055.2
       385.20000  1.68049e-09      33105.6
       385.30000  1.68049e-09      33088.8
       385.40000  1.68049e-09      33004.8
       385.50000  4.37193e-08      854275.
       385.60000  4.37193e-08      854275.
       385.70000  4.37193e-08      854712.
       385.80000  4.37193e-08      854712.
       385.90000  4.37193e-08      855149.
       386.00000  4.37193e-08      855149.
       386.10000  4.37193e-08      855149.
       386.20000  4.37193e-08      855149.
       386.30000  4.37857e-08      856887.
       386.40000  4.37857e-08      856887.
       386.50000  6.24625e-08  1.22239e+06
       386.60000  6.24625e-08  1.22302e+06
       386.70000  6.24625e-08  1.22364e+06
       386.80000  6.24625e-08  1.22426e+06
       386.90000  6.24625e-08  1.22426e+06
       387.00000  6.24625e-08  1.22489e+06
       387.10000  6.24625e-08  1.22426e+06
       387.20000  6.24625e-08  1.22426e+06
       387.30000  6.24625e-08  1.22364e+06
       387.40000  6.24625e-08  1.22302e+06
       387.50000  1.01434e-08      198406.
       387.60000  1.01434e-08      198203.
       387.70000  1.01434e-08      198000.
       387.80000  1.01434e-08      197797.
       387.90000  1.01434e-08      197493.
       388.00000  1.01434e-08      197087.
       388.10000  1.01434e-08      196783.
       388.20000  1.01434e-08      196377.
       388.30000  1.01434e-08      195971.
       388.40000  1.01434e-08      195565.
       388.50000  2.87601e-08      553057.
       388.60000  2.87601e-08      566862.
       388.70000  2.87601e-08      579804.
       388.80000  2.88359e-08      593732.
       388.90000  2.88359e-08      605843.
       389.00000  2.88359e-08      616801.
       389.10000  2.88359e-08      627470.
       389.20000  2.88359e-08      637274.
       389.30000  2.88359e-08      646502.
       389.40000  2.88359e-08      655152.
       389.50000  1.69965e-09      39075.0
       389.60000  1.69965e-09      39296.0
       389.70000  1.69965e-09      39516.9
       389.80000  1.69965e-09      39754.9
       389.90000  1.69965e-09      40009.8
       390.00000  1.69965e-09      40247.8
       390.10000  1.69965e-09      40502.7
       390.20000  1.69965e-09      40774.7
       390.30000  1.69965e-09      41046.6
       390.40000  1.69965e-09      41318.6
       390.50000  5.27600e-08  1.29156e+06
       390.60000  5.27600e-08  1.30106e+06
       390.70000  5.27600e-08  1.31056e+06
       390.80000  5.27600e-08  1.32006e+06
       390.90000  5.27600e-08  1.32955e+06
       391.00000  5.27600e-08  1.34010e+06
       391.10000  5.27600e-08  1.35013e+06
       391.20000  5.27600e-08  1.36068e+06
       391.30000  5.28989e-08  1.37484e+06
       391.40000  5.28989e-08  1.38595e+06
       391.50000  3.75864e-08      993032.
       391.60000  3.75864e-08      973111.
       391.70000  3.75864e-08      952439.
       391.80000  3.75864e-08      930638.
       391.90000  3.75864e-08      908462.
       392.00000  3.75864e-08      885159.
       392.10000  3.75864e-08      861104.
       392.20000  3.75864e-08      835921.
       392.30000  3.75864e-08      809986.
       392.40000  3.75864e-08      783300.
       392.50000  3.42225e-09      68821.4
       392.60000  3.42225e-09      63208.9
       392.70000  3.42225e-09      58178.2
       392.80000  3.42225e-09      53729.3
       392.90000  3.42225e-09      49896.3
       393.00000  3.42225e-09      46679.4
       393.10000  3.42225e-09      44044.3
       393.20000  3.42225e-09      41991.0
       393.30000  3.42225e-09      40553.6
       393.40000  3.42225e-09      39698.1
       393.50000  1.88494e-08      217145.
       393.60000  1.88494e-08      236371.
       393.70000  1.88494e-08      255032.
       393.80000  1.88810e-08      273585.
       393.90000  1.88810e-08      291144.
       394.00000  1.88810e-08      308137.
       394.10000  1.88810e-08      324564.
       394.20000  1.88810e-08      340235.
       394.30000  1.88810e-08      355528.
       394.40000  1.88810e-08      370255.
       394.50000  5.49692e-08  1.11862e+06
       394.60000  5.49692e-08  1.18733e+06
       394.70000  5.49692e-08  1.24780e+06
       394.80000  5.49692e-08  1.30002e+06
       394.90000  5.49692e-08  1.34400e+06
       395.00000  5.49692e-08  1.37973e+06
       395.10000  5.49692e-08  1.40721e+06
       395.20000  5.49692e-08  1.42700e+06
       395.30000  5.49692e-08  1.43799e+06
       395.40000  5.49692e-08  1.44129e+06
       395.50000  3.43304e-08      897053.
       395.60000  3.43304e-08      888814.
       395.70000  3.43304e-08      875425.
       395.80000  3.43304e-08      856886.
       395.90000  3.43304e-08      833542.
       396.00000  3.43304e-08      804704.
       396.10000  3.43304e-08      771061.
       396.20000  3.43304e-08      731924.
       396.30000  3.43981e-08      689338.
       396.40000  3.43981e-08      640148.
       396.50000  2.40706e-08      410164.
       396.60000  2.40706e-08      402461.
       396.70000  2.40706e-08      397406.
       396.80000  2.40706e-08      394758.
       396.90000  2.40706e-08      394758.
       397.00000  2.40706e-08      397165.
       397.10000  2.40706e-08      401980.
       397.20000  2.40706e-08      409441.
       397.30000  2.40706e-08      419551.
       397.40000  2.40706e-08      431827.
       397.50000  1.89320e-08      351378.
       397.60000  1.89320e-08      381669.
       397.70000  1.89320e-08      410257.
       397.80000  1.89320e-08      437140.
       397.90000  1.89320e-08      462320.
       398.00000  1.89320e-08      485795.
       398.10000  1.89320e-08      507378.
       398.20000  1.89320e-08      527446.
       398.30000  1.89320e-08      545810.
       398.40000  1.89320e-08      562470.
       398.50000  4.13196e-08  1.25984e+06
       398.60000  4.13196e-08  1.28876e+06
       398.70000  4.13196e-08  1.31396e+06
       398.80000  4.13418e-08  1.33617e+06
       398.90000  4.13418e-08  1.35353e+06
       399.00000  4.13418e-08  1.36759e+06
       399.10000  4.13418e-08  1.37751e+06
       399.20000  4.13418e-08  1.38412e+06
       399.30000  4.13418e-08  1.38660e+06
       399.40000  4.13418e-08  1.38578e+06
       399.50000  2.75345e-08      919651.
       399.60000  2.75345e-08      919926.
       399.70000  2.75345e-08      920202.
       399.80000  2.75345e-08      921028.
       399.90000  2.75345e-08      921854.
       400.00000  2.75345e-08      922955.
       400.10000  2.75345e-08      924332.
       400.20000  2.75345e-08      925984.
       400.30000  2.75345e-08      927911.
       400.40000  2.75345e-08      930114.
       400.50000  3.43568e-08  1.16367e+06
       400.60000  3.43568e-08  1.16985e+06
       400.70000  3.43568e-08  1.17603e+06
       400.80000  3.43568e-08  1.18153e+06
       400.90000  3.43568e-08  1.18669e+06
       401.00000  3.43568e-08  1.19184e+06
       401.10000  3.43568e-08  1.19631e+06
       401.20000  3.43568e-08  1.20043e+06
       401.30000  3.43867e-08  1.20525e+06
       401.40000  3.43867e-08  1.20903e+06
       401.50000  1.88944e-08      666029.
       401.60000  1.88944e-08      667540.
       401.70000  1.88944e-08      668863.
       401.80000  1.88944e-08      669997.
       401.90000  1.88944e-08      670942.
       402.00000  1.88944e-08      671697.
       402.10000  1.88944e-08      672264.
       402.20000  1.88944e-08      672642.
       402.30000  1.88944e-08      672831.
       402.40000  1.88944e-08      672831.
       402.50000  2.91151e-08  1.03650e+06
       402.60000  2.91151e-08  1.03038e+06
       402.70000  2.91151e-08  1.02514e+06
       402.80000  2.91151e-08  1.01990e+06
       402.90000  2.91151e-08  1.01524e+06
       403.00000  2.91151e-08  1.01088e+06
       403.10000  2.91151e-08  1.00680e+06
       403.20000  2.91151e-08  1.00331e+06
       403.30000  2.91151e-08  1.00010e+06
       403.40000  2.91151e-08      997192.
       403.50000  1.71193e-09      58479.4
       403.60000  1.71193e-09      58462.3
       403.70000  1.71193e-09      58445.2
       403.80000  1.71282e-09      58441.4
       403.90000  1.71282e-09      58424.2
       404.00000  1.71282e-09      58407.1
       404.10000  1.71282e-09      58390.0
       404.20000  1.71282e-09      58372.8
       404.30000  1.71282e-09      58338.6
       404.40000  1.71282e-09      58338.6
       404.50000  2.56741e-08      874202.
       404.60000  2.56741e-08      873946.
       404.70000  2.56741e-08      873689.
       404.80000  2.56741e-08      873432.
       404.90000  2.56741e-08      873432.
       405.00000  2.56741e-08      873176.
       405.10000  2.56741e-08      872919.
       405.20000  2.56741e-08      872919.
       405.30000  2.56741e-08      872662.
       405.40000  2.56741e-08      872662.
       405.50000  2.38997e-08      812352.
       405.60000  2.38997e-08      806138.
       405.70000  2.38997e-08      800402.
       405.80000  2.38997e-08      795384.
       405.90000  2.38997e-08      791082.
       406.00000  2.38997e-08      787019.
       406.10000  2.38997e-08      783673.
       406.20000  2.38997e-08      781044.
       406.30000  2.39291e-08      779848.
       406.40000  2.39291e-08      778173.
       406.50000  2.55911e-08      831200.
       406.60000  2.55911e-08      831712.
       406.70000  2.55911e-08      832736.
       406.80000  2.55911e-08      834015.
       406.90000  2.55911e-08      835807.
       407.00000  2.55911e-08      837854.
       407.10000  2.55911e-08      840413.
       407.20000  2.55911e-08      843228.
       407.30000  2.55911e-08      846299.
       407.40000  2.55911e-08      849882.
       407.50000  3.17056e-13      10.5770
       407.60000  3.17056e-13      10.6277
       407.70000  3.17056e-13      10.6848
       407.80000  3.17056e-13      10.7450
       407.90000  3.17056e-13      10.8116
       408.00000  3.17056e-13      10.8813
       408.10000  3.17056e-13      10.9574
       408.20000  3.17056e-13      11.0335
       408.30000  3.17056e-13      11.1191
       408.40000  3.17056e-13      11.2047
       408.50000  8.47646e-09      302016.
       408.60000  8.47646e-09      303033.
       408.70000  8.47646e-09      303796.
       408.80000  8.47694e-09      304237.
       408.90000  8.47694e-09      304407.
       409.00000  8.47694e-09      304237.
       409.10000  8.47694e-09      303814.
       409.20000  8.47694e-09      303135.
       409.30000  8.47694e-09      302203.
       409.40000  8.47694e-09      300847.
       409.50000  9.64364e-08  3.40517e+06
       409.60000  9.64364e-08  3.32802e+06
       409.70000  9.64364e-08  3.25955e+06
       409.80000  9.64364e-08  3.20072e+06
       409.90000  9.64364e-08  3.15058e+06
       410.00000  9.64364e-08  3.11104e+06
       410.10000  9.64364e-08  3.08018e+06
       410.20000  9.64364e-08  3.05800e+06
       410.30000  9.64364e-08  3.04643e+06
       410.40000  9.64364e-08  3.04257e+06
       410.50000  1.52007e-08      480647.
       410.60000  1.52007e-08      483079.
       410.70000  1.52007e-08      487031.
       410.80000  1.52007e-08      492504.
       410.90000  1.52007e-08      499344.
       411.00000  1.52007e-08      507704.
       411.10000  1.52007e-08      517433.
       411.20000  1.52007e-08      528833.
       411.30000  1.51958e-08      541428.
       411.40000  1.51958e-08      555560.
       411.50000  2.85849e-08  1.07451e+06
       411.60000  2.85849e-08  1.07336e+06
       411.70000  2.85849e-08  1.07193e+06
       411.80000  2.85849e-08  1.07079e+06
       411.90000  2.85849e-08  1.06936e+06
       412.00000  2.85849e-08  1.06793e+06
       412.10000  2.85849e-08  1.06650e+06
       412.20000  2.85849e-08  1.06507e+06
       412.30000  2.85849e-08  1.06364e+06
       412.40000  2.85849e-08  1.06221e+06
       412.50000  6.70629e-09      248803.
       412.60000  6.70629e-09      248334.
       412.70000  6.70629e-09      247865.
       412.80000  6.70629e-09      247395.
       412.90000  6.70629e-09      246993.
       413.00000  6.70629e-09      246590.
       413.10000  6.70629e-09      246188.
       413.20000  6.70629e-09      245853.
       413.30000  6.70629e-09      245450.
       413.40000  6.70629e-09      245115.
       413.50000  7.01864e-08  2.56250e+06
       413.60000  7.01864e-08  2.55900e+06
       413.70000  7.01864e-08  2.55619e+06
       413.80000  7.02137e-08  2.55508e+06
       413.90000  7.02137e-08  2.55227e+06
       414.00000  7.02137e-08  2.55016e+06
       414.10000  7.02137e-08  2.54805e+06
       414.20000  7.02137e-08  2.54595e+06
       414.30000  7.02137e-08  2.54454e+06
       414.40000  7.02137e-08  2.54314e+06
       414.50000  8.32013e-09      301189.
       414.60000  8.32013e-09      300357.
       414.70000  8.32013e-09      299691.
       414.80000  8.32013e-09      299192.
       414.90000  8.32013e-09      298942.
       415.00000  8.32013e-09      298859.
       415.10000  8.32013e-09      299026.
       415.20000  8.32013e-09      299275.
       415.30000  8.32013e-09      299774.
       415.40000  8.32013e-09      300523.
       415.50000  2.44113e-08      884177.
       415.60000  2.44113e-08      896627.
       415.70000  2.44113e-08      907368.
       415.80000  2.44113e-08      916888.
       415.90000  2.44113e-08      924700.
       416.00000  2.44113e-08      931291.
       416.10000  2.44113e-08      936173.
       416.20000  2.44113e-08      939834.
       416.30000  2.44056e-08      941567.
       416.40000  2.44056e-08      942299.
       416.50000  3.56344e-08  1.37442e+06
       416.60000  3.56344e-08  1.35518e+06
       416.70000  3.56344e-08  1.33700e+06
       416.80000  3.56344e-08  1.32061e+06
       416.90000  3.56344e-08  1.30529e+06
       417.00000  3.56344e-08  1.29175e+06
       417.10000  3.56344e-08  1.27963e+06
       417.20000  3.56344e-08  1.26894e+06
       417.30000  3.56344e-08  1.25968e+06
       417.40000  3.56344e-08  1.25184e+06
       417.50000  7.26948e-08  2.54068e+06
       417.60000  7.26948e-08  2.54432e+06
       417.70000  7.26948e-08  2.54795e+06
       417.80000  7.26948e-08  2.55159e+06
       417.90000  7.26948e-08  2.55522e+06
       418.00000  7.26948e-08  2.55886e+06
       418.10000  7.26948e-08  2.56249e+06
       418.20000  7.26948e-08  2.56540e+06
       418.30000  7.26948e-08  2.56903e+06
       418.40000  7.26948e-08  2.57267e+06
       418.50000  2.11720e-08      750122.
       418.60000  2.11720e-08      751181.
       418.70000  2.11720e-08      752240.
       418.80000  2.12870e-08      757178.
       418.90000  2.12870e-08      758243.
       419.00000  2.12870e-08      759094.
       419.10000  2.12870e-08      760158.
       419.20000  2.12870e-08      761010.
       419.30000  2.12870e-08      761862.
       419.40000  2.12870e-08      762926.
       419.50000  2.46945e-08      886040.
       419.60000  2.46945e-08      889497.
       419.70000  2.46945e-08      892954.
       419.80000  2.46945e-08      896164.
       419.90000  2.46945e-08      899622.
       420.00000  2.46945e-08      902585.
       420.10000  2.46945e-08      905795.
       420.20000  2.46945e-08      908759.
       420.30000  2.46945e-08      911722.
       420.40000  2.46945e-08      914685.
       420.50000  1.06711e-07  3.96430e+06
       420.60000  1.06711e-07  3.99951e+06
       420.70000  1.06711e-07  4.03046e+06
       420.80000  1.06711e-07  4.05500e+06
       420.90000  1.06711e-07  4.07314e+06
       421.00000  1.06711e-07  4.08595e+06
       421.10000  1.06711e-07  4.09342e+06
       421.20000  1.06711e-07  4.09449e+06
       421.30000  1.07264e-07  4.11141e+06
       421.40000  1.07264e-07  4.10069e+06
       421.50000  3.85161e-08  1.46669e+06
       421.60000  3.85161e-08  1.45899e+06
       421.70000  3.85161e-08  1.44898e+06
       421.80000  3.85161e-08  1.43704e+06
       421.90000  3.85161e-08  1.42279e+06
       422.00000  3.85161e-08  1.40661e+06
       422.10000  3.85161e-08  1.38851e+06
       422.20000  3.85161e-08  1.36809e+06
       422.30000  3.85161e-08  1.34537e+06
       422.40000  3.85161e-08  1.32110e+06
       422.50000  3.47894e-08  1.16927e+06
       422.60000  3.47894e-08  1.18145e+06
       422.70000  3.47894e-08  1.19328e+06
       422.80000  3.47894e-08  1.20441e+06
       422.90000  3.47894e-08  1.21484e+06
       423.00000  3.47894e-08  1.22493e+06
       423.10000  3.47894e-08  1.23467e+06
       423.20000  3.47894e-08  1.24372e+06
       423.30000  3.47894e-08  1.25207e+06
       423.40000  3.47894e-08  1.26007e+06
       423.50000  3.27783e-08  1.19411e+06
       423.60000  3.27783e-08  1.20231e+06
       423.70000  3.27783e-08  1.20985e+06
       423.80000  3.29765e-08  1.22343e+06
       423.90000  3.29765e-08  1.22903e+06
       424.00000  3.29765e-08  1.23398e+06
       424.10000  3.29765e-08  1.23761e+06
       424.20000  3.29765e-08  1.24058e+06
       424.30000  3.29765e-08  1.24256e+06
       424.40000  3.29765e-08  1.24354e+06
       424.50000  7.39151e-08  2.78734e+06
       424.60000  7.39151e-08  2.78586e+06
       424.70000  7.39151e-08  2.78217e+06
       424.80000  7.39151e-08  2.77699e+06
       424.90000  7.39151e-08  2.76886e+06
       425.00000  7.39151e-08  2.75925e+06
       425.10000  7.39151e-08  2.74743e+06
       425.20000  7.39151e-08  2.73338e+06
       425.30000  7.39151e-08  2.71786e+06
       425.40000  7.39151e-08  2.70012e+06
       425.50000  5.45012e-08  1.97621e+06
       425.60000  5.45012e-08  1.98384e+06
       425.70000  5.45012e-08  1.99038e+06
       425.80000  5.45012e-08  1.99474e+06
       425.90000  5.45012e-08  1.99801e+06
       426.00000  5.45012e-08  1.99965e+06
       426.10000  5.45012e-08  1.99965e+06
       426.20000  5.45012e-08  1.99801e+06
       426.30000  5.46670e-08  2.00136e+06
       426.40000  5.46670e-08  1.99644e+06
       426.50000  2.94264e-08  1.07142e+06
       426.60000  2.94264e-08  1.05935e+06
       426.70000  2.94264e-08  1.04817e+06
       426.80000  2.94264e-08  1.03787e+06
       426.90000  2.94264e-08  1.02875e+06
       427.00000  2.94264e-08  1.02021e+06
       427.10000  2.94264e-08  1.01286e+06
       427.20000  2.94264e-08  1.00638e+06
       427.30000  2.94264e-08  1.00079e+06
       427.40000  2.94264e-08      996085.
       427.50000  9.65312e-08  3.25503e+06
       427.60000  9.65312e-08  3.24634e+06
       427.70000  9.65312e-08  3.23959e+06
       427.80000  9.65312e-08  3.23669e+06
       427.90000  9.65312e-08  3.23669e+06
       428.00000  9.65312e-08  3.23959e+06
       428.10000  9.65312e-08  3.24634e+06
       428.20000  9.65312e-08  3.25503e+06
       428.30000  9.65312e-08  3.26758e+06
       428.40000  9.65312e-08  3.28206e+06
       428.50000  5.58640e-08  1.90999e+06
       428.60000  5.58640e-08  1.90943e+06
       428.70000  5.58640e-08  1.90608e+06
       428.80000  5.59586e-08  1.90315e+06
       428.90000  5.59586e-08  1.89420e+06
       429.00000  5.59586e-08  1.88245e+06
       429.10000  5.59586e-08  1.86790e+06
       429.20000  5.59586e-08  1.85055e+06
       429.30000  5.59586e-08  1.83097e+06
       429.40000  5.59586e-08  1.80802e+06
       429.50000  7.12158e-08  2.26822e+06
       429.60000  7.12158e-08  2.15499e+06
       429.70000  7.12158e-08  2.05458e+06
       429.80000  7.12158e-08  1.96841e+06
       429.90000  7.12158e-08  1.89577e+06
       430.00000  7.12158e-08  1.83737e+06
       430.10000  7.12158e-08  1.79250e+06
       430.20000  7.12158e-08  1.76117e+06
       430.30000  7.12158e-08  1.74336e+06
       430.40000  7.12158e-08  1.73980e+06
       430.50000  8.78089e-09      215747.
       430.60000  8.78089e-09      218644.
       430.70000  8.78089e-09      223298.
       430.80000  8.78089e-09      229533.
       430.90000  8.78089e-09      237611.
       431.00000  8.78089e-09      247270.
       431.10000  8.78089e-09      258685.
       431.20000  8.78089e-09      271769.
       431.30000  8.79892e-09      287109.
       431.40000  8.79892e-09      303651.
       431.50000  9.71180e-08  3.55258e+06
       431.60000  9.71180e-08  3.53315e+06
       431.70000  9.71180e-08  3.51567e+06
       431.80000  9.71180e-08  3.50208e+06
       431.90000  9.71180e-08  3.49042e+06
       432.00000  9.71180e-08  3.48168e+06
       432.10000  9.71180e-08  3.47488e+06
       432.20000  9.71180e-08  3.47100e+06
       432.30000  9.71180e-08  3.47003e+06
       432.40000  9.71180e-08  3.47197e+06
       432.50000  5.54315e-08  1.98389e+06
       432.60000  5.54315e-08  2.00274e+06
       432.70000  5.54315e-08  2.01937e+06
       432.80000  5.54315e-08  2.03489e+06
       432.90000  5.54315e-08  2.04820e+06
       433.00000  5.54315e-08  2.05984e+06
       433.10000  5.54315e-08  2.06981e+06
       433.20000  5.54315e-08  2.07757e+06
       433.30000  5.54315e-08  2.08423e+06
       433.40000  5.54315e-08  2.08866e+06
       433.50000  4.53972e-08  1.71284e+06
       433.60000  4.53972e-08  1.71375e+06
       433.70000  4.53972e-08  1.71284e+06
       433.80000  4.54183e-08  1.71182e+06
       433.90000  4.54183e-08  1.70818e+06
       434.00000  4.54183e-08  1.70319e+06
       434.10000  4.54183e-08  1.69683e+06
       434.20000  4.54183e-08  1.68911e+06
       434.30000  4.54183e-08  1.68002e+06
       434.40000  4.54183e-08  1.66912e+06
       434.50000  5.71794e-08  2.08590e+06
       434.60000  5.71794e-08  2.08476e+06
       434.70000  5.71794e-08  2.08476e+06
       434.80000  5.71794e-08  2.08705e+06
       434.90000  5.71794e-08  2.09162e+06
       435.00000  5.71794e-08  2.09791e+06
       435.10000  5.71794e-08  2.10592e+06
       435.20000  5.71794e-08  2.11564e+06
       435.30000  5.71794e-08  2.12764e+06
       435.40000  5.71794e-08  2.14137e+06
       435.50000  8.59520e-08  3.24297e+06
       435.60000  8.59520e-08  3.31001e+06
       435.70000  8.59520e-08  3.37190e+06
       435.80000  8.59520e-08  3.42691e+06
       435.90000  8.59520e-08  3.47590e+06
       436.00000  8.59520e-08  3.51802e+06
       436.10000  8.59520e-08  3.55498e+06
       436.20000  8.59520e-08  3.58506e+06
       436.30000  8.59280e-08  3.60812e+06
       436.40000  8.59280e-08  3.62616e+06
       436.50000  5.25338e-08  2.22375e+06
       436.60000  5.25338e-08  2.22743e+06
       436.70000  5.25338e-08  2.22691e+06
       436.80000  5.25338e-08  2.22270e+06
       436.90000  5.25338e-08  2.21482e+06
       437.00000  5.25338e-08  2.20274e+06
       437.10000  5.25338e-08  2.18751e+06
       437.20000  5.25338e-08  2.16807e+06
       437.30000  5.25338e-08  2.14495e+06
       437.40000  5.25338e-08  2.11764e+06
       437.50000  3.31074e-08  1.31536e+06
       437.60000  3.31074e-08  1.28192e+06
       437.70000  3.31074e-08  1.25179e+06
       437.80000  3.31074e-08  1.22564e+06
       437.90000  3.31074e-08  1.20312e+06
       438.00000  3.31074e-08  1.18425e+06
       438.10000  3.31074e-08  1.16869e+06
       438.20000  3.31074e-08  1.15710e+06
       438.30000  3.31074e-08  1.14916e+06
       438.40000  3.31074e-08  1.14452e+06
       438.50000  7.92422e-08  2.73782e+06
       438.60000  7.92422e-08  2.81231e+06
       438.70000  7.92422e-08  2.88125e+06
       438.80000  7.92539e-08  2.94349e+06
       438.90000  7.92539e-08  2.99897e+06
       439.00000  7.92539e-08  3.04811e+06
       439.10000  7.92539e-08  3.09090e+06
       439.20000  7.92539e-08  3.12657e+06
       439.30000  7.92539e-08  3.15668e+06
       439.40000  7.92539e-08  3.17967e+06
       439.50000  3.52523e-09      142173.
       439.60000  3.52523e-09      140163.
       439.70000  3.52523e-09      138436.
       439.80000  3.52523e-09      136920.
       439.90000  3.52523e-09      135686.
       440.00000  3.52523e-09      134734.
       440.10000  3.52523e-09      134029.
       440.20000  3.52523e-09      133571.
       440.30000  3.52523e-09      133360.
       440.40000  3.52523e-09      133430.
       440.50000  1.88042e-08      713431.
       440.60000  1.88042e-08      725842.
       440.70000  1.88042e-08      737501.
       440.80000  1.88042e-08      748595.
       440.90000  1.88042e-08      758937.
       441.00000  1.88042e-08      768527.
       441.10000  1.88042e-08      777365.
       441.20000  1.88042e-08      785639.
       441.30000  1.87929e-08      792683.
       441.40000  1.87929e-08      799448.
       441.50000  5.71639e-08  2.45005e+06
       441.60000  5.71639e-08  2.46662e+06
       441.70000  5.71639e-08  2.48091e+06
       441.80000  5.71639e-08  2.49292e+06
       441.90000  5.71639e-08  2.50321e+06
       442.00000  5.71639e-08  2.51121e+06
       442.10000  5.71639e-08  2.51693e+06
       442.20000  5.71639e-08  2.52036e+06
       442.30000  5.71639e-08  2.52150e+06
       442.40000  5.71639e-08  2.52093e+06
       442.50000  6.49406e-08  2.86063e+06
       442.60000  6.49406e-08  2.84245e+06
       442.70000  6.49406e-08  2.82556e+06
       442.80000  6.49406e-08  2.81128e+06
       442.90000  6.49406e-08  2.79894e+06
       443.00000  6.49406e-08  2.78790e+06
       443.10000  6.49406e-08  2.77946e+06
       443.20000  6.49406e-08  2.77296e+06
       443.30000  6.49406e-08  2.76777e+06
       443.40000  6.49406e-08  2.76517e+06
       443.50000  1.06131e-08      451798.
       443.60000  1.06131e-08      455725.
       443.70000  1.06131e-08      459121.
       443.80000  1.06053e-08      461648.
       443.90000  1.06053e-08      464087.
       444.00000  1.06053e-08      465996.
       444.10000  1.06053e-08      467268.
       444.20000  1.06053e-08      468117.
       444.30000  1.06053e-08      468541.
       444.40000  1.06053e-08      468329.
       444.50000  7.55451e-08  3.33078e+06
       444.60000  7.55451e-08  3.32247e+06
       444.70000  7.55451e-08  3.31039e+06
       444.80000  7.55451e-08  3.29452e+06
       444.90000  7.55451e-08  3.27488e+06
       445.00000  7.55451e-08  3.25222e+06
       445.10000  7.55451e-08  3.22502e+06
       445.20000  7.55451e-08  3.19480e+06
       445.30000  7.55451e-08  3.16081e+06
       445.40000  7.55451e-08  3.12303e+06
       445.50000  5.36676e-08  2.18910e+06
       445.60000  5.36676e-08  2.19178e+06
       445.70000  5.36676e-08  2.19554e+06
       445.80000  5.36676e-08  2.20091e+06
       445.90000  5.36676e-08  2.20788e+06
       446.00000  5.36676e-08  2.21593e+06
       446.10000  5.36676e-08  2.22559e+06
       446.20000  5.36676e-08  2.23686e+06
       446.30000  5.36053e-08  2.24660e+06
       446.40000  5.36053e-08  2.26053e+06
       446.50000  1.27069e-08      539410.
       446.60000  1.27069e-08      548558.
       446.70000  1.27069e-08      556945.
       446.80000  1.27069e-08      564442.
       446.90000  1.27069e-08      571177.
       447.00000  1.27069e-08      577022.
       447.10000  1.27069e-08      581978.
       447.20000  1.27069e-08      586171.
       447.30000  1.27069e-08      589602.
       447.40000  1.27069e-08      592143.
       447.50000  3.39547e-08  1.58670e+06
       447.60000  3.39547e-08  1.58908e+06
       447.70000  3.39547e-08  1.58942e+06
       447.80000  3.39547e-08  1.58704e+06
       447.90000  3.39547e-08  1.58297e+06
       448.00000  3.39547e-08  1.57652e+06
       448.10000  3.39547e-08  1.56769e+06
       448.20000  3.39547e-08  1.55682e+06
       448.30000  3.39547e-08  1.54358e+06
       448.40000  3.39547e-08  1.52830e+06
       448.50000  7.03362e-08  3.12926e+06
       448.60000  7.03362e-08  3.13418e+06
       448.70000  7.03362e-08  3.13981e+06
       448.80000  7.03382e-08  3.14693e+06
       448.90000  7.03382e-08  3.15467e+06
       449.00000  7.03382e-08  3.16311e+06
       449.10000  7.03382e-08  3.17296e+06
       449.20000  7.03382e-08  3.18351e+06
       449.30000  7.03382e-08  3.19547e+06
       449.40000  7.03382e-08  3.20813e+06
       449.50000  4.73250e-08  2.16796e+06
       449.60000  4.73250e-08  2.18831e+06
       449.70000  4.73250e-08  2.20724e+06
       449.80000  4.73250e-08  2.22427e+06
       449.90000  4.73250e-08  2.23942e+06
       450.00000  4.73250e-08  2.25362e+06
       450.10000  4.73250e-08  2.26545e+06
       450.20000  4.73250e-08  2.27633e+06
       450.30000  4.73250e-08  2.28532e+06
       450.40000  4.73250e-08  2.29242e+06
       450.50000  4.78314e-08  2.32269e+06
       450.60000  4.78314e-08  2.32604e+06
       450.70000  4.78314e-08  2.32796e+06
       450.80000  4.78314e-08  2.32796e+06
       450.90000  4.78314e-08  2.32700e+06
       451.00000  4.78314e-08  2.32461e+06
       451.10000  4.78314e-08  2.32030e+06
       451.20000  4.78314e-08  2.31504e+06
       451.30000  4.77991e-08  2.30678e+06
       451.40000  4.77991e-08  2.29818e+06
       451.50000  2.71886e-08  1.30179e+06
       451.60000  2.71886e-08  1.28602e+06
       451.70000  2.71886e-08  1.27161e+06
       451.80000  2.71886e-08  1.25856e+06
       451.90000  2.71886e-08  1.24660e+06
       452.00000  2.71886e-08  1.23599e+06
       452.10000  2.71886e-08  1.22648e+06
       452.20000  2.71886e-08  1.21805e+06
       452.30000  2.71886e-08  1.21125e+06
       452.40000  2.71886e-08  1.20527e+06
       452.50000  8.93363e-08  3.94509e+06
       452.60000  8.93363e-08  3.93348e+06
       452.70000  8.93363e-08  3.92633e+06
       452.80000  8.93363e-08  3.92365e+06
       452.90000  8.93363e-08  3.92454e+06
       453.00000  8.93363e-08  3.92901e+06
       453.10000  8.93363e-08  3.93794e+06
       453.20000  8.93363e-08  3.95045e+06
       453.30000  8.93363e-08  3.96742e+06
       453.40000  8.93363e-08  3.98797e+06
       453.50000  1.23644e-08      555408.
       453.60000  1.23644e-08      555161.
       453.70000  1.23644e-08      555161.
       453.80000  1.23613e-08      555022.
       453.90000  1.23613e-08      555146.
       454.00000  1.23613e-08      555517.
       454.10000  1.23613e-08      556011.
       454.20000  1.23613e-08      556506.
       454.30000  1.23613e-08      557247.
       454.40000  1.23613e-08      558112.
       454.50000  2.26882e-08  1.02596e+06
       454.60000  2.26882e-08  1.02936e+06
       454.70000  2.26882e-08  1.03277e+06
       454.80000  2.26882e-08  1.03594e+06
       454.90000  2.26882e-08  1.03912e+06
       455.00000  2.26882e-08  1.04230e+06
       455.10000  2.26882e-08  1.04525e+06
       455.20000  2.26882e-08  1.04819e+06
       455.30000  2.26882e-08  1.05114e+06
       455.40000  2.26882e-08  1.05409e+06
       455.50000  9.30428e-08  4.33393e+06
       455.60000  9.30428e-08  4.34510e+06
       455.70000  9.30428e-08  4.35626e+06
       455.80000  9.30428e-08  4.36743e+06
       455.90000  9.30428e-08  4.37766e+06
       456.00000  9.30428e-08  4.38790e+06
       456.10000  9.30428e-08  4.39813e+06
       456.20000  9.30428e-08  4.40744e+06
       456.30000  9.30406e-08  4.41757e+06
       456.40000  9.30406e-08  4.42687e+06
       456.50000  2.21589e-08  1.05632e+06
       456.60000  2.21589e-08  1.06119e+06
       456.70000  2.21589e-08  1.06540e+06
       456.80000  2.21589e-08  1.06872e+06
       456.90000  2.21589e-08  1.07138e+06
       457.00000  2.21589e-08  1.07316e+06
       457.10000  2.21589e-08  1.07404e+06
       457.20000  2.21589e-08  1.07426e+06
       457.30000  2.21589e-08  1.07382e+06
       457.40000  2.21589e-08  1.07249e+06
       457.50000  3.37333e-08  1.62965e+06
       457.60000  3.37333e-08  1.61414e+06
       457.70000  3.37333e-08  1.59963e+06
       457.80000  3.37333e-08  1.58681e+06
       457.90000  3.37333e-08  1.57534e+06
       458.00000  3.37333e-08  1.56489e+06
       458.10000  3.37333e-08  1.55578e+06
       458.20000  3.37333e-08  1.54802e+06
       458.30000  3.37333e-08  1.54161e+06
       458.40000  3.37333e-08  1.53655e+06
       458.50000  3.84521e-08  1.74726e+06
       458.60000  3.84521e-08  1.74419e+06
       458.70000  3.84521e-08  1.74265e+06
       458.80000  3.85043e-08  1.74540e+06
       458.90000  3.85043e-08  1.74694e+06
       459.00000  3.85043e-08  1.74964e+06
       459.10000  3.85043e-08  1.75426e+06
       459.20000  3.85043e-08  1.76042e+06
       459.30000  3.85043e-08  1.76773e+06
       459.40000  3.85043e-08  1.77659e+06
       459.50000  1.16583e-08      541061.
       459.60000  1.16583e-08      542227.
       459.70000  1.16583e-08      543393.
       459.80000  1.16583e-08      544442.
       459.90000  1.16583e-08      545491.
       460.00000  1.16583e-08      546424.
       460.10000  1.16583e-08      547357.
       460.20000  1.16583e-08      548289.
       460.30000  1.16583e-08      549105.
       460.40000  1.16583e-08      549922.
       460.50000  2.48160e-08  1.17206e+06
       460.60000  2.48160e-08  1.17231e+06
       460.70000  2.48160e-08  1.17280e+06
       460.80000  2.48160e-08  1.17355e+06
       460.90000  2.48160e-08  1.17429e+06
       461.00000  2.48160e-08  1.17529e+06
       461.10000  2.48160e-08  1.17653e+06
       461.20000  2.48160e-08  1.17802e+06
       461.30000  2.48510e-08  1.18117e+06
       461.40000  2.48510e-08  1.18291e+06
       461.50000  4.61005e-08  2.19807e+06
       461.60000  4.61005e-08  2.20960e+06
       461.70000  4.61005e-08  2.21928e+06
       461.80000  4.61005e-08  2.22804e+06
       461.90000  4.61005e-08  2.23587e+06
       462.00000  4.61005e-08  2.24187e+06
       462.10000  4.61005e-08  2.24694e+06
       462.20000  4.61005e-08  2.25109e+06
       462.30000  4.61005e-08  2.25385e+06
       462.40000  4.61005e-08  2.25524e+06
       462.50000  5.90169e-08  2.88770e+06
       462.60000  5.90169e-08  2.87943e+06
       462.70000  5.90169e-08  2.87117e+06
       462.80000  5.90169e-08  2.86291e+06
       462.90000  5.90169e-08  2.85465e+06
       463.00000  5.90169e-08  2.84638e+06
       463.10000  5.90169e-08  2.83871e+06
       463.20000  5.90169e-08  2.83045e+06
       463.30000  5.90169e-08  2.82219e+06
       463.40000  5.90169e-08  2.81392e+06
       463.50000  4.89554e-09      232734.
       463.60000  4.89554e-09      232049.
       463.70000  4.89554e-09      231363.
       463.80000  4.90020e-09      230897.
       463.90000  4.90020e-09      230260.
       464.00000  4.90020e-09      229574.
       464.10000  4.90020e-09      228888.
       464.20000  4.90020e-09      228202.
       464.30000  4.90020e-09      227516.
       464.40000  4.90020e-09      226830.
       464.50000  2.60977e-08  1.20441e+06
       464.60000  2.60977e-08  1.21380e+06
       464.70000  2.60977e-08  1.22216e+06
       464.80000  2.60977e-08  1.22920e+06
       464.90000  2.60977e-08  1.23520e+06
       465.00000  2.60977e-08  1.24016e+06
       465.10000  2.60977e-08  1.24382e+06
       465.20000  2.60977e-08  1.24643e+06
       465.30000  2.60977e-08  1.24773e+06
       465.40000  2.60977e-08  1.24825e+06
       465.50000  8.80676e-08  4.20875e+06
       465.60000  8.80676e-08  4.16472e+06
       465.70000  8.80676e-08  4.12509e+06
       465.80000  8.80676e-08  4.08986e+06
       465.90000  8.80676e-08  4.05904e+06
       466.00000  8.80676e-08  4.03262e+06
       466.10000  8.80676e-08  4.01148e+06
       466.20000  8.80676e-08  3.99387e+06
       466.30000  8.80237e-08  3.97867e+06
       466.40000  8.80237e-08  3.96987e+06
       466.50000  6.03024e-08  2.71722e+06
       466.60000  6.03024e-08  2.71722e+06
       466.70000  6.03024e-08  2.72024e+06
       466.80000  6.03024e-08  2.72687e+06
       466.90000  6.03024e-08  2.73592e+06
       467.00000  6.03024e-08  2.74858e+06
       467.10000  6.03024e-08  2.76426e+06
       467.20000  6.03024e-08  2.78235e+06
       467.30000  6.03024e-08  2.80406e+06
       467.40000  6.03024e-08  2.82878e+06
       467.50000  3.26665e-08  1.54709e+06
       467.60000  3.26665e-08  1.54545e+06
       467.70000  3.26665e-08  1.54349e+06
       467.80000  3.26665e-08  1.54186e+06
       467.90000  3.26665e-08  1.54055e+06
       468.00000  3.26665e-08  1.53925e+06
       468.10000  3.26665e-08  1.53794e+06
       468.20000  3.26665e-08  1.53696e+06
       468.30000  3.26665e-08  1.53598e+06
       468.40000  3.26665e-08  1.53500e+06
       468.50000  8.35912e-08  3.92628e+06
       468.60000  8.35912e-08  3.93631e+06
       468.70000  8.35912e-08  3.94383e+06
       468.80000  8.35559e-08  3.94718e+06
       468.90000  8.35559e-08  3.95052e+06
       469.00000  8.35559e-08  3.95220e+06
       469.10000  8.35559e-08  3.95052e+06
       469.20000  8.35559e-08  3.94718e+06
       469.30000  8.35559e-08  3.94217e+06
       469.40000  8.35559e-08  3.93465e+06
       469.50000  3.47183e-08  1.63107e+06
       469.60000  3.47183e-08  1.62586e+06
       469.70000  3.47183e-08  1.62030e+06
       469.80000  3.47183e-08  1.61336e+06
       469.90000  3.47183e-08  1.60607e+06
       470.00000  3.47183e-08  1.59739e+06
       470.10000  3.47183e-08  1.58802e+06
       470.20000  3.47183e-08  1.57795e+06
       470.30000  3.47183e-08  1.56649e+06
       470.40000  3.47183e-08  1.55469e+06
       470.50000  6.70017e-09      297488.
       470.60000  6.70017e-09      300637.
       470.70000  6.70017e-09      303585.
       470.80000  6.70017e-09      306399.
       470.90000  6.70017e-09      308945.
       471.00000  6.70017e-09      311357.
       471.10000  6.70017e-09      313568.
       471.20000  6.70017e-09      315578.
       471.30000  6.68041e-09      316518.
       471.40000  6.68041e-09      318121.
       471.50000  1.34971e-08      645701.
       471.60000  1.34971e-08      647590.
       471.70000  1.34971e-08      649345.
       471.80000  1.34971e-08      650830.
       471.90000  1.34971e-08      652044.
       472.00000  1.34971e-08      652989.
       472.10000  1.34971e-08      653799.
       472.20000  1.34971e-08      654339.
       472.30000  1.34971e-08      654609.
       472.40000  1.34971e-08      654609.
       472.50000  3.41690e-08  1.65686e+06
       472.60000  3.41690e-08  1.65583e+06
       472.70000  3.41690e-08  1.65412e+06
       472.80000  3.41690e-08  1.65173e+06
       472.90000  3.41690e-08  1.64900e+06
       473.00000  3.41690e-08  1.64558e+06
       473.10000  3.41690e-08  1.64148e+06
       473.20000  3.41690e-08  1.63704e+06
       473.30000  3.41690e-08  1.63191e+06
       473.40000  3.41690e-08  1.62610e+06
       473.50000  3.12701e-08  1.48220e+06
       473.60000  3.12701e-08  1.49002e+06
       473.70000  3.12701e-08  1.49752e+06
       473.80000  3.12429e-08  1.50278e+06
       473.90000  3.12429e-08  1.50840e+06
       474.00000  3.12429e-08  1.51372e+06
       474.10000  3.12429e-08  1.51809e+06
       474.20000  3.12429e-08  1.52184e+06
       474.30000  3.12429e-08  1.52496e+06
       474.40000  3.12429e-08  1.52715e+06
       474.50000  1.77048e-08      866296.
       474.60000  1.77048e-08      865411.
       474.70000  1.77048e-08      864526.
       474.80000  1.77048e-08      863464.
       474.90000  1.77048e-08      862401.
       475.00000  1.77048e-08      861162.
       475.10000  1.77048e-08      859746.
       475.20000  1.77048e-08      858329.
       475.30000  1.77048e-08      856736.
       475.40000  1.77048e-08      855142.
       475.50000  2.70405e-08  1.30335e+06
       475.60000  2.70405e-08  1.30038e+06
       475.70000  2.70405e-08  1.29740e+06
       475.80000  2.70405e-08  1.29416e+06
       475.90000  2.70405e-08  1.29092e+06
       476.00000  2.70405e-08  1.28740e+06
       476.10000  2.70405e-08  1.28361e+06
       476.20000  2.70405e-08  1.27983e+06
       476.30000  2.70032e-08  1.27401e+06
       476.40000  2.70032e-08  1.26969e+06
       476.50000  1.10312e-08      516924.
       476.60000  1.10312e-08      522439.
       476.70000  1.10312e-08      527403.
       476.80000  1.10312e-08      531816.
       476.90000  1.10312e-08      535897.
       477.00000  1.10312e-08      539317.
       477.10000  1.10312e-08      542406.
       477.20000  1.10312e-08      544943.
       477.30000  1.10312e-08      546928.
       477.40000  1.10312e-08      548473.
       477.50000  5.10109e-08  2.54136e+06
       477.60000  5.10109e-08  2.52606e+06
       477.70000  5.10109e-08  2.51280e+06
       477.80000  5.10109e-08  2.50157e+06
       477.90000  5.10109e-08  2.49137e+06
       478.00000  5.10109e-08  2.48321e+06
       478.10000  5.10109e-08  2.47607e+06
       478.20000  5.10109e-08  2.47097e+06
       478.30000  5.10109e-08  2.46740e+06
       478.40000  5.10109e-08  2.46587e+06
       478.50000  3.93380e-08  1.90121e+06
       478.60000  3.93380e-08  1.90239e+06
       478.70000  3.93380e-08  1.90475e+06
       478.80000  3.93963e-08  1.91111e+06
       478.90000  3.93963e-08  1.91624e+06
       479.00000  3.93963e-08  1.92214e+06
       479.10000  3.93963e-08  1.92963e+06
       479.20000  3.93963e-08  1.93830e+06
       479.30000  3.93963e-08  1.94815e+06
       479.40000  3.93963e-08  1.95918e+06
       479.50000  5.59025e-08  2.79792e+06
       479.60000  5.59025e-08  2.78730e+06
       479.70000  5.59025e-08  2.77780e+06
       479.80000  5.59025e-08  2.76941e+06
       479.90000  5.59025e-08  2.76270e+06
       480.00000  5.59025e-08  2.75711e+06
       480.10000  5.59025e-08  2.75264e+06
       480.20000  5.59025e-08  2.74985e+06
       480.30000  5.59025e-08  2.74817e+06
       480.40000  5.59025e-08  2.74761e+06
       480.50000  1.77906e-08      874585.
       480.60000  1.77906e-08      879566.
       480.70000  1.77906e-08      884014.
       480.80000  1.77906e-08      887750.
       480.90000  1.77906e-08      891130.
       481.00000  1.77906e-08      893977.
       481.10000  1.77906e-08      896290.
       481.20000  1.77906e-08      898069.
       481.30000  1.78449e-08      902061.
       481.40000  1.78449e-08      902775.
       481.50000  4.19665e-08  2.12351e+06
       481.60000  4.19665e-08  2.12267e+06
       481.70000  4.19665e-08  2.12057e+06
       481.80000  4.19665e-08  2.11721e+06
       481.90000  4.19665e-08  2.11259e+06
       482.00000  4.19665e-08  2.10714e+06
       482.10000  4.19665e-08  2.10000e+06
       482.20000  4.19665e-08  2.09161e+06
       482.30000  4.19665e-08  2.08238e+06
       482.40000  4.19665e-08  2.07147e+06
       482.50000  2.61667e-08  1.28426e+06
       482.60000  2.61667e-08  1.28557e+06
       482.70000  2.61667e-08  1.28662e+06
       482.80000  2.61667e-08  1.28740e+06
       482.90000  2.61667e-08  1.28766e+06
       483.00000  2.61667e-08  1.28792e+06
       483.10000  2.61667e-08  1.28766e+06
       483.20000  2.61667e-08  1.28740e+06
       483.30000  2.61667e-08  1.28662e+06
       483.40000  2.61667e-08  1.28557e+06
       483.50000  2.87115e-08  1.40916e+06
       483.60000  2.87115e-08  1.40887e+06
       483.70000  2.87115e-08  1.40772e+06
       483.80000  2.87613e-08  1.40873e+06
       483.90000  2.87613e-08  1.40643e+06
       484.00000  2.87613e-08  1.40355e+06
       484.10000  2.87613e-08  1.39981e+06
       484.20000  2.87613e-08  1.39579e+06
       484.30000  2.87613e-08  1.39090e+06
       484.40000  2.87613e-08  1.38543e+06
       484.50000  1.76997e-08      848877.
       484.60000  1.76997e-08      844452.
       484.70000  1.76997e-08      839674.
       484.80000  1.76997e-08      834541.
       484.90000  1.76997e-08      829054.
       485.00000  1.76997e-08      823390.
       485.10000  1.76997e-08      817372.
       485.20000  1.76997e-08      811177.
       485.30000  1.76997e-08      804628.
       485.40000  1.76997e-08      797725.
       485.50000  4.02748e-09      179908.
       485.60000  4.02748e-09      176122.
       485.70000  4.02748e-09      172698.
       485.80000  4.02748e-09      169718.
       485.90000  4.02748e-09      167140.
       486.00000  4.02748e-09      164966.
       486.10000  4.02748e-09      163153.
       486.20000  4.02748e-09      161784.
       486.30000  4.02660e-09      160782.
       486.40000  4.02660e-09      160218.
       486.50000  6.19037e-09      246067.
       486.60000  6.19037e-09      246439.
       486.70000  6.19037e-09      247429.
       486.80000  6.19037e-09      249039.
       486.90000  6.19037e-09      251267.
       487.00000  6.19037e-09      254115.
       487.10000  6.19037e-09      257581.
       487.20000  6.19037e-09      261667.
       487.30000  6.19037e-09      266372.
       487.40000  6.19037e-09      271695.
       487.50000  4.65221e-08  2.08698e+06
       487.60000  4.65221e-08  2.09861e+06
       487.70000  4.65221e-08  2.11024e+06
       487.80000  4.65221e-08  2.12141e+06
       487.90000  4.65221e-08  2.13211e+06
       488.00000  4.65221e-08  2.14234e+06
       488.10000  4.65221e-08  2.15211e+06
       488.20000  4.65221e-08  2.16142e+06
       488.30000  4.65221e-08  2.17026e+06
       488.40000  4.65221e-08  2.17910e+06
       488.50000  6.49294e-08  3.05233e+06
       488.60000  6.49294e-08  3.06012e+06
       488.70000  6.49294e-08  3.06792e+06
       488.80000  6.48848e-08  3.07424e+06
       488.90000  6.48848e-08  3.08203e+06
       489.00000  6.48848e-08  3.08982e+06
       489.10000  6.48848e-08  3.09760e+06
       489.20000  6.48848e-08  3.10604e+06
       489.30000  6.48848e-08  3.11382e+06
       489.40000  6.48848e-08  3.12161e+06
       489.50000  1.55203e-08      748699.
       489.60000  1.55203e-08      750561.
       489.70000  1.55203e-08      752579.
       489.80000  1.55203e-08      754441.
       489.90000  1.55203e-08      756459.
       490.00000  1.55203e-08      758321.
       490.10000  1.55203e-08      760339.
       490.20000  1.55203e-08      762357.
       490.30000  1.55203e-08      764219.
       490.40000  1.55203e-08      766237.
       490.50000  1.27240e-07  6.29836e+06
       490.60000  1.27240e-07  6.24873e+06
       490.70000  1.27240e-07  6.20293e+06
       490.80000  1.27240e-07  6.16094e+06
       490.90000  1.27240e-07  6.12149e+06
       491.00000  1.27240e-07  6.08587e+06
       491.10000  1.27240e-07  6.05406e+06
       491.20000  1.27240e-07  6.02606e+06
       491.30000  1.27326e-07  6.00470e+06
       491.40000  1.27326e-07  5.98306e+06
       491.50000  2.19246e-09      102717.
       491.60000  2.19246e-09      102760.
       491.70000  2.19246e-09      102804.
       491.80000  2.19246e-09      102826.
       491.90000  2.19246e-09      102870.
       492.00000  2.19246e-09      102892.
       492.10000  2.19246e-09      102914.
       492.20000  2.19246e-09      102914.
       492.30000  2.19246e-09      102936.
       492.40000  2.19246e-09      102936.
       492.50000  5.44953e-08  2.55856e+06
       492.60000  5.44953e-08  2.55856e+06
       492.70000  5.44953e-08  2.55856e+06
       492.80000  5.44953e-08  2.55801e+06
       492.90000  5.44953e-08  2.55747e+06
       493.00000  5.44953e-08  2.55692e+06
       493.10000  5.44953e-08  2.55638e+06
       493.20000  5.44953e-08  2.55583e+06
       493.30000  5.44953e-08  2.55474e+06
       493.40000  5.44953e-08  2.55420e+06
       493.50000  4.00749e-08  1.87751e+06
       493.60000  4.00749e-08  1.90836e+06
       493.70000  4.00749e-08  1.93602e+06
       493.80000  4.01369e-08  1.96390e+06
       493.90000  4.01369e-08  1.98598e+06
       494.00000  4.01369e-08  2.00484e+06
       494.10000  4.01369e-08  2.02049e+06
       494.20000  4.01369e-08  2.03334e+06
       494.30000  4.01369e-08  2.04297e+06
       494.40000  4.01369e-08  2.04979e+06
       494.50000  6.60039e-08  3.37742e+06
       494.60000  6.60039e-08  3.33980e+06
       494.70000  6.60039e-08  3.30613e+06
       494.80000  6.60039e-08  3.27577e+06
       494.90000  6.60039e-08  3.24937e+06
       495.00000  6.60039e-08  3.22627e+06
       495.10000  6.60039e-08  3.20713e+06
       495.20000  6.60039e-08  3.19195e+06
       495.30000  6.60039e-08  3.18007e+06
       495.40000  6.60039e-08  3.17149e+06
       495.50000  3.02146e-08  1.44969e+06
       495.60000  3.02146e-08  1.45997e+06
       495.70000  3.02146e-08  1.46964e+06
       495.80000  3.02146e-08  1.47840e+06
       495.90000  3.02146e-08  1.48656e+06
       496.00000  3.02146e-08  1.49411e+06
       496.10000  3.02146e-08  1.50076e+06
       496.20000  3.02146e-08  1.50710e+06
       496.30000  3.02337e-08  1.51350e+06
       496.40000  3.02337e-08  1.51834e+06
       496.50000  2.37289e-09      119475.
       496.60000  2.37289e-09      119926.
       496.70000  2.37289e-09      120258.
       496.80000  2.37289e-09      120519.
       496.90000  2.37289e-09      120685.
       497.00000  2.37289e-09      120756.
       497.10000  2.37289e-09      120756.
       497.20000  2.37289e-09      120638.
       497.30000  2.37289e-09      120448.
       497.40000  2.37289e-09      120163.
       497.50000  4.35897e-08  2.20041e+06
       497.60000  4.35897e-08  2.19169e+06
       497.70000  4.35897e-08  2.18123e+06
       497.80000  4.35897e-08  2.16946e+06
       497.90000  4.35897e-08  2.15551e+06
       498.00000  4.35897e-08  2.14025e+06
       498.10000  4.35897e-08  2.12325e+06
       498.20000  4.35897e-08  2.10494e+06
       498.30000  4.35897e-08  2.08446e+06
       498.40000  4.35897e-08  2.06223e+06
       498.50000  1.97179e-08      922208.
       498.60000  1.97179e-08      932461.
       498.70000  1.97179e-08      941532.
       498.80000  1.97322e-08      950107.
       498.90000  1.97322e-08      957211.
       499.00000  1.97322e-08      962933.
       499.10000  1.97322e-08      967866.
       499.20000  1.97322e-08      971616.
       499.30000  1.97322e-08      974181.
       499.40000  1.97322e-08      975759.
       499.50000  1.50633e-08      745180.
       499.60000  1.50633e-08      739908.
       499.70000  1.50633e-08      734937.
       499.80000  1.50633e-08      730117.
       499.90000  1.50633e-08      725598.
       500.00000  1.50633e-08      721380.
       500.10000  1.50633e-08      717313.
       500.20000  1.50633e-08      713698.
       500.30000  1.50633e-08      710082.
       500.40000  1.50633e-08      706919.
       500.50000  3.82689e-08  1.78830e+06
       500.60000  3.82689e-08  1.78142e+06
       500.70000  3.82689e-08  1.77529e+06
       500.80000  3.82689e-08  1.76955e+06
       500.90000  3.82689e-08  1.76458e+06
       501.00000  3.82689e-08  1.76037e+06
       501.10000  3.82689e-08  1.75654e+06
       501.20000  3.82689e-08  1.75348e+06
       501.30000  3.83351e-08  1.75421e+06
       501.40000  3.83351e-08  1.75268e+06
       501.50000  5.45298e-08  2.49147e+06
       501.60000  5.45298e-08  2.50565e+06
       501.70000  5.45298e-08  2.51982e+06
       501.80000  5.45298e-08  2.53291e+06
       501.90000  5.45298e-08  2.54545e+06
       502.00000  5.45298e-08  2.55745e+06
       502.10000  5.45298e-08  2.56890e+06
       502.20000  5.45298e-08  2.57981e+06
       502.30000  5.45298e-08  2.59017e+06
       502.40000  5.45298e-08  2.59998e+06
       502.50000  1.58446e-08      758162.
       502.60000  1.58446e-08      761806.
       502.70000  1.58446e-08      765134.
       502.80000  1.58446e-08      767827.
       502.90000  1.58446e-08      770204.
       503.00000  1.58446e-08      772264.
       503.10000  1.58446e-08      773848.
       503.20000  1.58446e-08      774957.
       503.30000  1.58446e-08      775591.
       503.40000  1.58446e-08      775908.
       503.50000  3.75462e-08  1.83826e+06
       503.60000  3.75462e-08  1.83676e+06
       503.70000  3.75462e-08  1.83451e+06
       503.80000  3.75975e-08  1.83363e+06
       503.90000  3.75975e-08  1.82949e+06
       504.00000  3.75975e-08  1.82423e+06
       504.10000  3.75975e-08  1.81784e+06
       504.20000  3.75975e-08  1.81032e+06
       504.30000  3.75975e-08  1.80205e+06
       504.40000  3.75975e-08  1.79265e+06
       504.50000  6.54217e-08  3.10164e+06
       504.60000  6.54217e-08  3.13436e+06
       504.70000  6.54217e-08  3.16445e+06
       504.80000  6.54217e-08  3.19258e+06
       504.90000  6.54217e-08  3.21744e+06
       505.00000  6.54217e-08  3.24034e+06
       505.10000  6.54217e-08  3.25997e+06
       505.20000  6.54217e-08  3.27763e+06
       505.30000  6.54217e-08  3.29202e+06
       505.40000  6.54217e-08  3.30445e+06
       505.50000  3.31569e-08  1.67940e+06
       505.60000  3.31569e-08  1.67807e+06
       505.70000  3.31569e-08  1.67641e+06
       505.80000  3.31569e-08  1.67442e+06
       505.90000  3.31569e-08  1.67243e+06
       506.00000  3.31569e-08  1.67011e+06
       506.10000  3.31569e-08  1.66779e+06
       506.20000  3.31569e-08  1.66514e+06
       506.30000  3.32039e-08  1.66451e+06
       506.40000  3.32039e-08  1.66152e+06
       506.50000  1.47332e-07  7.35775e+06
       506.60000  1.47332e-07  7.32681e+06
       506.70000  1.47332e-07  7.29881e+06
       506.80000  1.47332e-07  7.27377e+06
       506.90000  1.47332e-07  7.25019e+06
       507.00000  1.47332e-07  7.22957e+06
       507.10000  1.47332e-07  7.21189e+06
       507.20000  1.47332e-07  7.19568e+06
       507.30000  1.47332e-07  7.18389e+06
       507.40000  1.47332e-07  7.17358e+06
       507.50000  2.88085e-08  1.40096e+06
       507.60000  2.88085e-08  1.40297e+06
       507.70000  2.88085e-08  1.40441e+06
       507.80000  2.88085e-08  1.40614e+06
       507.90000  2.88085e-08  1.40758e+06
       508.00000  2.88085e-08  1.40873e+06
       508.10000  2.88085e-08  1.40989e+06
       508.20000  2.88085e-08  1.41104e+06
       508.30000  2.88085e-08  1.41190e+06
       508.40000  2.88085e-08  1.41277e+06
       508.50000  4.78443e-08  2.34724e+06
       508.60000  4.78443e-08  2.34820e+06
       508.70000  4.78443e-08  2.34915e+06
       508.80000  4.78684e-08  2.35081e+06
       508.90000  4.78684e-08  2.35129e+06
       509.00000  4.78684e-08  2.35129e+06
       509.10000  4.78684e-08  2.35129e+06
       509.20000  4.78684e-08  2.35129e+06
       509.30000  4.78684e-08  2.35081e+06
       509.40000  4.78684e-08  2.35034e+06
       509.50000  1.88878e-08      927016.
       509.60000  1.88878e-08      928338.
       509.70000  1.88878e-08      929660.
       509.80000  1.88878e-08      931171.
       509.90000  1.88878e-08      932682.
       510.00000  1.88878e-08      934382.
       510.10000  1.88878e-08      936082.
       510.20000  1.88878e-08      937782.
       510.30000  1.88878e-08      939859.
       510.40000  1.88878e-08      941748.
       510.50000  4.91685e-08  2.45695e+06
       510.60000  4.91685e-08  2.47416e+06
       510.70000  4.91685e-08  2.48891e+06
       510.80000  4.91685e-08  2.50170e+06
       510.90000  4.91685e-08  2.51153e+06
       511.00000  4.91685e-08  2.51989e+06
       511.10000  4.91685e-08  2.52530e+06
       511.20000  4.91685e-08  2.52874e+06
       511.30000  4.91836e-08  2.53050e+06
       511.40000  4.91836e-08  2.52951e+06
       511.50000  3.32941e-08  1.70999e+06
       511.60000  3.32941e-08  1.70599e+06
       511.70000  3.32941e-08  1.70066e+06
       511.80000  3.32941e-08  1.69367e+06
       511.90000  3.32941e-08  1.68501e+06
       512.00000  3.32941e-08  1.67503e+06
       512.10000  3.32941e-08  1.66337e+06
       512.20000  3.32941e-08  1.65039e+06
       512.30000  3.32941e-08  1.63574e+06
       512.40000  3.32941e-08  1.61943e+06
       512.50000  2.81228e-09      135299.
       512.60000  2.81228e-09      135214.
       512.70000  2.81228e-09      135158.
       512.80000  2.81228e-09      135102.
       512.90000  2.81228e-09      135074.
       513.00000  2.81228e-09      135046.
       513.10000  2.81228e-09      135018.
       513.20000  2.81228e-09      135018.
       513.30000  2.81228e-09      135046.
       513.40000  2.81228e-09      135074.
       513.50000  6.56558e-08  3.15476e+06
       513.60000  6.56558e-08  3.15673e+06
       513.70000  6.56558e-08  3.15870e+06
       513.80000  6.55904e-08  3.15752e+06
       513.90000  6.55904e-08  3.16015e+06
       514.00000  6.55904e-08  3.16277e+06
       514.10000  6.55904e-08  3.16605e+06
       514.20000  6.55904e-08  3.16867e+06
       514.30000  6.55904e-08  3.17195e+06
       514.40000  6.55904e-08  3.17589e+06
       514.50000  3.75596e-08  1.82089e+06
       514.60000  3.75596e-08  1.82314e+06
       514.70000  3.75596e-08  1.82540e+06
       514.80000  3.75596e-08  1.82803e+06
       514.90000  3.75596e-08  1.83065e+06
       515.00000  3.75596e-08  1.83366e+06
       515.10000  3.75596e-08  1.83666e+06
       515.20000  3.75596e-08  1.83967e+06
       515.30000  3.75596e-08  1.84305e+06
       515.40000  3.75596e-08  1.84605e+06
       515.50000  4.68706e-08  2.30837e+06
       515.60000  4.68706e-08  2.26479e+06
       515.70000  4.68706e-08  2.22495e+06
       515.80000  4.68706e-08  2.18839e+06
       515.90000  4.68706e-08  2.15558e+06
       516.00000  4.68706e-08  2.12605e+06
       516.10000  4.68706e-08  2.10027e+06
       516.20000  4.68706e-08  2.07777e+06
       516.30000  4.68655e-08  2.05880e+06
       516.40000  4.68655e-08  2.04334e+06
       516.50000  8.62250e-08  3.73699e+06
       516.60000  8.62250e-08  3.76372e+06
       516.70000  8.62250e-08  3.78700e+06
       516.80000  8.62250e-08  3.80770e+06
       516.90000  8.62250e-08  3.82580e+06
       517.00000  8.62250e-08  3.84132e+06
       517.10000  8.62250e-08  3.85340e+06
       517.20000  8.62250e-08  3.86202e+06
       517.30000  8.62250e-08  3.86805e+06
       517.40000  8.62250e-08  3.87150e+06
       517.50000  9.65331e-08  4.33530e+06
       517.60000  9.65331e-08  4.33241e+06
       517.70000  9.65331e-08  4.32661e+06
       517.80000  9.65331e-08  4.31696e+06
       517.90000  9.65331e-08  4.30538e+06
       518.00000  9.65331e-08  4.28897e+06
       518.10000  9.65331e-08  4.27062e+06
       518.20000  9.65331e-08  4.24842e+06
       518.30000  9.65331e-08  4.22332e+06
       518.40000  9.65331e-08  4.19436e+06
       518.50000  4.59211e-08  1.98012e+06
       518.60000  4.59211e-08  2.01042e+06
       518.70000  4.59211e-08  2.03889e+06
       518.80000  4.57802e-08  2.05919e+06
       518.90000  4.57802e-08  2.08346e+06
       519.00000  4.57802e-08  2.10543e+06
       519.10000  4.57802e-08  2.12557e+06
       519.20000  4.57802e-08  2.14388e+06
       519.30000  4.57802e-08  2.15991e+06
       519.40000  4.57802e-08  2.17364e+06
       519.50000  5.93987e-13      28.3629
       519.60000  5.93987e-13      28.3213
       519.70000  5.93987e-13      28.2916
       519.80000  5.93987e-13      28.2738
       519.90000  5.93987e-13      28.2679
       520.00000  5.93987e-13      28.2738
       520.10000  5.93987e-13      28.2857
       520.20000  5.93987e-13      28.3154
       520.30000  5.93987e-13      28.3510
       520.40000  5.93987e-13      28.4045
       520.50000  1.09885e-07  5.26569e+06
       520.60000  1.09885e-07  5.27888e+06
       520.70000  1.09885e-07  5.29426e+06
       520.80000  1.09885e-07  5.31184e+06
       520.90000  1.09885e-07  5.33052e+06
       521.00000  1.09885e-07  5.35250e+06
       521.10000  1.09885e-07  5.37667e+06
       521.20000  1.09885e-07  5.40195e+06
       521.30000  1.09800e-07  5.42524e+06
       521.40000  1.09800e-07  5.45598e+06
       521.50000  1.17661e-07  5.88070e+06
       521.60000  1.17661e-07  5.83481e+06
       521.70000  1.17661e-07  5.79363e+06
       521.80000  1.17661e-07  5.75715e+06
       521.90000  1.17661e-07  5.72538e+06
       522.00000  1.17661e-07  5.69832e+06
       522.10000  1.17661e-07  5.67597e+06
       522.20000  1.17661e-07  5.65832e+06
       522.30000  1.17661e-07  5.64655e+06
       522.40000  1.17661e-07  5.63831e+06
       522.50000  3.55053e-08  1.70035e+06
       522.60000  3.55053e-08  1.70780e+06
       522.70000  3.55053e-08  1.71490e+06
       522.80000  3.55053e-08  1.72201e+06
       522.90000  3.55053e-08  1.72911e+06
       523.00000  3.55053e-08  1.73585e+06
       523.10000  3.55053e-08  1.74295e+06
       523.20000  3.55053e-08  1.74970e+06
       523.30000  3.55053e-08  1.75645e+06
       523.40000  3.55053e-08  1.76319e+06
       523.50000  1.76130e-07  8.78007e+06
       523.60000  1.76130e-07  8.81354e+06
       523.70000  1.76130e-07  8.84524e+06
       523.80000  1.75944e-07  8.86936e+06
       523.90000  1.75944e-07  8.90103e+06
       524.00000  1.75944e-07  8.93270e+06
       524.10000  1.75944e-07  8.96261e+06
       524.20000  1.75944e-07  8.99428e+06
       524.30000  1.75944e-07  9.02419e+06
       524.40000  1.75944e-07  9.05410e+06
       524.50000  1.52303e-08      786339.
       524.60000  1.52303e-08      789537.
       524.70000  1.52303e-08      791822.
       524.80000  1.52303e-08      793193.
       524.90000  1.52303e-08      793497.
       525.00000  1.52303e-08      793040.
       525.10000  1.52303e-08      791670.
       525.20000  1.52303e-08      789233.
       525.30000  1.52303e-08      786034.
       525.40000  1.52303e-08      781770.
       525.50000  1.23678e-08      630634.
       525.60000  1.23678e-08      616411.
       525.70000  1.23678e-08      603425.
       525.80000  1.23678e-08      591799.
       525.90000  1.23678e-08      581534.
       526.00000  1.23678e-08      572629.
       526.10000  1.23678e-08      564961.
       526.20000  1.23678e-08      558777.
       526.30000  1.23734e-08      554079.
       526.40000  1.23734e-08      550491.
       526.50000  1.03502e-07  4.58617e+06
       526.60000  1.03502e-07  4.57892e+06
       526.70000  1.03502e-07  4.58306e+06
       526.80000  1.03502e-07  4.59859e+06
       526.90000  1.03502e-07  4.62446e+06
       527.00000  1.03502e-07  4.66172e+06
       527.10000  1.03502e-07  4.71037e+06
       527.20000  1.03502e-07  4.77040e+06
       527.30000  1.03502e-07  4.84182e+06
       527.40000  1.03502e-07  4.92462e+06
       527.50000  3.18393e-09      154357.
       527.60000  3.18393e-09      155153.
       527.70000  3.18393e-09      155917.
       527.80000  3.18393e-09      156618.
       527.90000  3.18393e-09      157318.
       528.00000  3.18393e-09      157923.
       528.10000  3.18393e-09      158528.
       528.20000  3.18393e-09      159069.
       528.30000  3.18393e-09      159579.
       528.40000  3.18393e-09      160056.
       528.50000  1.29005e-08      650314.
       528.60000  1.29005e-08      650959.
       528.70000  1.29005e-08      651604.
       528.80000  1.29209e-08      653409.
       528.90000  1.29209e-08      654184.
       529.00000  1.29209e-08      654960.
       529.10000  1.29209e-08      655864.
       529.20000  1.29209e-08      656768.
       529.30000  1.29209e-08      657673.
       529.40000  1.29209e-08      658706.
       529.50000  1.11384e-07  5.68728e+06
       529.60000  1.11384e-07  5.70176e+06
       529.70000  1.11384e-07  5.71513e+06
       529.80000  1.11384e-07  5.72850e+06
       529.90000  1.11384e-07  5.74075e+06
       530.00000  1.11384e-07  5.75189e+06
       530.10000  1.11384e-07  5.76302e+06
       530.20000  1.11384e-07  5.77305e+06
       530.30000  1.11384e-07  5.78196e+06
       530.40000  1.11384e-07  5.79087e+06
       530.50000  7.29856e-08  3.80036e+06
       530.60000  7.29856e-08  3.82080e+06
       530.70000  7.29856e-08  3.83758e+06
       530.80000  7.29856e-08  3.85072e+06
       530.90000  7.29856e-08  3.85948e+06
       531.00000  7.29856e-08  3.86386e+06
       531.10000  7.29856e-08  3.86532e+06
       531.20000  7.29856e-08  3.86167e+06
       531.30000  7.30035e-08  3.85605e+06
       531.40000  7.30035e-08  3.84437e+06
       531.50000  1.68359e-08      883212.
       531.60000  1.68359e-08      878835.
       531.70000  1.68359e-08      873447.
       531.80000  1.68359e-08      867218.
       531.90000  1.68359e-08      860147.
       532.00000  1.68359e-08      852066.
       532.10000  1.68359e-08      842974.
       532.20000  1.68359e-08      833041.
       532.30000  1.68359e-08      822266.
       532.40000  1.68359e-08      810481.
       532.50000  3.40973e-08  1.61587e+06
       532.60000  3.40973e-08  1.63906e+06
       532.70000  3.40973e-08  1.66054e+06
       532.80000  3.40973e-08  1.67963e+06
       532.90000  3.40973e-08  1.69702e+06
       533.00000  3.40973e-08  1.71237e+06
       533.10000  3.40973e-08  1.72566e+06
       533.20000  3.40973e-08  1.73692e+06
       533.30000  3.40973e-08  1.74612e+06
       533.40000  3.40973e-08  1.75362e+06
       533.50000  8.28386e-08  4.27281e+06
       533.60000  8.28386e-08  4.23968e+06
       533.70000  8.28386e-08  4.21068e+06
       533.80000  8.28162e-08  4.18470e+06
       533.90000  8.28162e-08  4.16483e+06
       534.00000  8.28162e-08  4.14826e+06
       534.10000  8.28162e-08  4.13750e+06
       534.20000  8.28162e-08  4.13005e+06
       534.30000  8.28162e-08  4.12756e+06
       534.40000  8.28162e-08  4.12922e+06
       534.50000  2.45130e-08  1.22393e+06
       534.60000  2.45130e-08  1.22712e+06
       534.70000  2.45130e-08  1.23153e+06
       534.80000  2.45130e-08  1.23717e+06
       534.90000  2.45130e-08  1.24428e+06
       535.00000  2.45130e-08  1.25237e+06
       535.10000  2.45130e-08  1.26217e+06
       535.20000  2.45130e-08  1.27296e+06
       535.30000  2.45130e-08  1.28522e+06
       535.40000  2.45130e-08  1.29870e+06
       535.50000  1.34672e-08      721575.
       535.60000  1.34672e-08      715246.
       535.70000  1.34672e-08      709455.
       535.80000  1.34672e-08      704068.
       535.90000  1.34672e-08      699220.
       536.00000  1.34672e-08      694775.
       536.10000  1.34672e-08      690735.
       536.20000  1.34672e-08      687368.
       536.30000  1.34711e-08      684467.
       536.40000  1.34711e-08      681907.
       536.50000  6.32288e-08  3.19116e+06
       536.60000  6.32288e-08  3.19306e+06
       536.70000  6.32288e-08  3.19432e+06
       536.80000  6.32288e-08  3.19685e+06
       536.90000  6.32288e-08  3.19875e+06
       537.00000  6.32288e-08  3.20128e+06
       537.10000  6.32288e-08  3.20380e+06
       537.20000  6.32288e-08  3.20633e+06
       537.30000  6.32288e-08  3.20949e+06
       537.40000  6.32288e-08  3.21266e+06
       537.50000  4.38542e-08  2.23042e+06
       537.60000  4.38542e-08  2.23306e+06
       537.70000  4.38542e-08  2.23569e+06
       537.80000  4.38542e-08  2.23832e+06
       537.90000  4.38542e-08  2.24095e+06
       538.00000  4.38542e-08  2.24402e+06
       538.10000  4.38542e-08  2.24709e+06
       538.20000  4.38542e-08  2.25016e+06
       538.30000  4.38542e-08  2.25367e+06
       538.40000  4.38542e-08  2.25718e+06
       538.50000  1.33590e-07  6.88657e+06
       538.60000  1.33590e-07  6.85986e+06
       538.70000  1.33590e-07  6.83447e+06
       538.80000  1.33498e-07  6.80440e+06
       538.90000  1.33498e-07  6.77903e+06
       539.00000  1.33498e-07  6.75367e+06
       539.10000  1.33498e-07  6.72964e+06
       539.20000  1.33498e-07  6.70561e+06
       539.30000  1.33498e-07  6.68158e+06
       539.40000  1.33498e-07  6.65755e+06
       539.50000  3.47507e-07  1.72676e+07
       539.60000  3.47507e-07  1.71390e+07
       539.70000  3.47507e-07  1.70244e+07
       539.80000  3.47507e-07  1.69271e+07
       539.90000  3.47507e-07  1.68471e+07
       540.00000  3.47507e-07  1.67811e+07
       540.10000  3.47507e-07  1.67325e+07
       540.20000  3.47507e-07  1.67012e+07
       540.30000  3.47507e-07  1.66873e+07
       540.40000  3.47507e-07  1.66873e+07
       540.50000  3.67171e-07  1.76499e+07
       540.60000  3.67171e-07  1.78408e+07
       540.70000  3.67171e-07  1.80171e+07
       540.80000  3.67171e-07  1.81750e+07
       540.90000  3.67171e-07  1.83145e+07
       541.00000  3.67171e-07  1.84357e+07
       541.10000  3.67171e-07  1.85458e+07
       541.20000  3.67171e-07  1.86339e+07
       541.30000  3.67163e-07  1.87069e+07
       541.40000  3.67163e-07  1.87620e+07
       541.50000  2.94635e-07  1.50882e+07
       541.60000  2.94635e-07  1.50057e+07
       541.70000  2.94635e-07  1.49350e+07
       541.80000  2.94635e-07  1.48702e+07
       541.90000  2.94635e-07  1.48142e+07
       542.00000  2.94635e-07  1.47671e+07
       542.10000  2.94635e-07  1.47288e+07
       542.20000  2.94635e-07  1.46993e+07
       542.30000  2.94635e-07  1.46816e+07
       542.40000  2.94635e-07  1.46699e+07
       542.50000  2.52067e-07  1.25479e+07
       542.60000  2.52067e-07  1.25529e+07
       542.70000  2.52067e-07  1.25655e+07
       542.80000  2.52067e-07  1.25857e+07
       542.90000  2.52067e-07  1.26159e+07
       543.00000  2.52067e-07  1.26512e+07
       543.10000  2.52067e-07  1.26941e+07
       543.20000  2.52067e-07  1.27445e+07
       543.30000  2.52067e-07  1.28025e+07
       543.40000  2.52067e-07  1.28705e+07
       543.50000  3.75255e-07  1.92694e+07
       543.60000  3.75255e-07  1.92618e+07
       543.70000  3.75255e-07  1.92581e+07
       543.80000  3.75355e-07  1.92595e+07
       543.90000  3.75355e-07  1.92595e+07
       544.00000  3.75355e-07  1.92632e+07
       544.10000  3.75355e-07  1.92670e+07
       544.20000  3.75355e-07  1.92745e+07
       544.30000  3.75355e-07  1.92820e+07
       544.40000  3.75355e-07  1.92933e+07
       544.50000  1.90972e-07  9.82362e+06
       544.60000  1.90972e-07  9.84845e+06
       544.70000  1.90972e-07  9.86946e+06
       544.80000  1.90972e-07  9.88855e+06
       544.90000  1.90972e-07  9.90574e+06
       545.00000  1.90972e-07  9.91911e+06
       545.10000  1.90972e-07  9.93057e+06
       545.20000  1.90972e-07  9.94202e+06
       545.30000  1.90972e-07  9.94966e+06
       545.40000  1.90972e-07  9.95348e+06
       545.50000  7.06958e-13      36.8608
       545.60000  7.06958e-13      36.8608
       545.70000  7.06958e-13      36.8537
       545.80000  7.06958e-13      36.8396
       545.90000  7.06958e-13      36.8184
       546.00000  7.06958e-13      36.7901
       546.10000  7.06958e-13      36.7477
       546.20000  7.06958e-13      36.6982
       546.30000  7.06107e-13      36.5975
       546.40000  7.06107e-13      36.5340
       546.50000  7.15348e-08  3.69334e+06
       546.60000  7.15348e-08  3.67832e+06
       546.70000  7.15348e-08  3.66473e+06
       546.80000  7.15348e-08  3.65257e+06
       546.90000  7.15348e-08  3.64184e+06
       547.00000  7.15348e-08  3.63254e+06
       547.10000  7.15348e-08  3.62538e+06
       547.20000  7.15348e-08  3.61894e+06
       547.30000  7.15348e-08  3.61465e+06
       547.40000  7.15348e-08  3.61108e+06
       547.50000  9.80873e-08  4.94948e+06
       547.60000  9.80873e-08  4.95831e+06
       547.70000  9.80873e-08  4.96714e+06
       547.80000  9.80873e-08  4.97597e+06
       547.90000  9.80873e-08  4.98480e+06
       548.00000  9.80873e-08  4.99362e+06
       548.10000  9.80873e-08  5.00245e+06
       548.20000  9.80873e-08  5.01226e+06
       548.30000  9.80873e-08  5.02109e+06
       548.40000  9.80873e-08  5.02992e+06
       548.50000  9.19966e-08  4.72678e+06
       548.60000  9.19966e-08  4.73506e+06
       548.70000  9.19966e-08  4.74426e+06
       548.80000  9.18396e-08  4.74535e+06
       548.90000  9.18396e-08  4.75362e+06
       549.00000  9.18396e-08  4.76280e+06
       549.10000  9.18396e-08  4.77199e+06
       549.20000  9.18396e-08  4.78117e+06
       549.30000  9.18396e-08  4.79035e+06
       549.40000  9.18396e-08  4.79954e+06
       549.50000  1.15083e-07  6.02576e+06
       549.60000  1.15083e-07  6.00965e+06
       549.70000  1.15083e-07  5.99584e+06
       549.80000  1.15083e-07  5.98318e+06
       549.90000  1.15083e-07  5.97167e+06
       550.00000  1.15083e-07  5.96131e+06
       550.10000  1.15083e-07  5.95326e+06
       550.20000  1.15083e-07  5.94520e+06
       550.30000  1.15083e-07  5.93944e+06
       550.40000  1.15083e-07  5.93484e+06
       550.50000  1.46345e-07  7.54264e+06
       550.60000  1.46345e-07  7.55288e+06
       550.70000  1.46345e-07  7.56313e+06
       550.80000  1.46345e-07  7.57191e+06
       550.90000  1.46345e-07  7.57922e+06
       551.00000  1.46345e-07  7.58508e+06
       551.10000  1.46345e-07  7.58947e+06
       551.20000  1.46345e-07  7.59240e+06
       551.30000  1.46258e-07  7.58931e+06
       551.40000  1.46258e-07  7.58931e+06
       551.50000  8.34311e-08  4.32841e+06
       551.60000  8.34311e-08  4.31672e+06
       551.70000  8.34311e-08  4.30755e+06
       551.80000  8.34311e-08  4.29837e+06
       551.90000  8.34311e-08  4.29170e+06
       552.00000  8.34311e-08  4.28586e+06
       552.10000  8.34311e-08  4.28168e+06
       552.20000  8.34311e-08  4.27835e+06
       552.30000  8.34311e-08  4.27668e+06
       552.40000  8.34311e-08  4.27668e+06
       552.50000  1.72457e-07  8.84362e+06
       552.60000  1.72457e-07  8.86604e+06
       552.70000  1.72457e-07  8.88846e+06
       552.80000  1.72457e-07  8.91088e+06
       552.90000  1.72457e-07  8.92985e+06
       553.00000  1.72457e-07  8.95054e+06
       553.10000  1.72457e-07  8.96779e+06
       553.20000  1.72457e-07  8.98504e+06
       553.30000  1.72457e-07  9.00228e+06
       553.40000  1.72457e-07  9.01780e+06
       553.50000  1.89733e-07  9.93633e+06
       553.60000  1.89733e-07  9.95150e+06
       553.70000  1.89733e-07  9.96668e+06
       553.80000  1.89707e-07  9.97858e+06
       553.90000  1.89707e-07  9.98996e+06
       554.00000  1.89707e-07  9.99944e+06
       554.10000  1.89707e-07  1.00108e+07
       554.20000  1.89707e-07  1.00184e+07
       554.30000  1.89707e-07  1.00260e+07
       554.40000  1.89707e-07  1.00336e+07
       554.50000  3.91378e-09      207117.
       554.60000  3.91378e-09      207509.
       554.70000  3.91378e-09      207822.
       554.80000  3.91378e-09      208057.
       554.90000  3.91378e-09      208174.
       555.00000  3.91378e-09      208252.
       555.10000  3.91378e-09      208252.
       555.20000  3.91378e-09      208135.
       555.30000  3.91378e-09      207978.
       555.40000  3.91378e-09      207705.
       555.50000  2.59578e-07  1.37524e+07
       555.60000  2.59578e-07  1.36668e+07
       555.70000  2.59578e-07  1.35889e+07
       555.80000  2.59578e-07  1.35188e+07
       555.90000  2.59578e-07  1.34539e+07
       556.00000  2.59578e-07  1.33968e+07
       556.10000  2.59578e-07  1.33501e+07
       556.20000  2.59578e-07  1.33060e+07
       556.30000  2.59723e-07  1.32796e+07
       556.40000  2.59723e-07  1.32536e+07
       556.50000  2.04072e-07  1.03975e+07
       556.60000  2.04072e-07  1.03873e+07
       556.70000  2.04072e-07  1.03832e+07
       556.80000  2.04072e-07  1.03852e+07
       556.90000  2.04072e-07  1.03934e+07
       557.00000  2.04072e-07  1.04077e+07
       557.10000  2.04072e-07  1.04260e+07
       557.20000  2.04072e-07  1.04505e+07
       557.30000  2.04072e-07  1.04811e+07
       557.40000  2.04072e-07  1.05179e+07
       557.50000  1.42647e-07  7.38055e+06
       557.60000  1.42647e-07  7.34489e+06
       557.70000  1.42647e-07  7.31065e+06
       557.80000  1.42647e-07  7.28070e+06
       557.90000  1.42647e-07  7.25360e+06
       558.00000  1.42647e-07  7.22934e+06
       558.10000  1.42647e-07  7.20937e+06
       558.20000  1.42647e-07  7.19083e+06
       558.30000  1.42647e-07  7.17657e+06
       558.40000  1.42647e-07  7.16658e+06
       558.50000  3.56738e-07  1.79011e+07
       558.60000  3.56738e-07  1.79189e+07
       558.70000  3.56738e-07  1.79368e+07
       558.80000  3.56427e-07  1.79425e+07
       558.90000  3.56427e-07  1.79639e+07
       559.00000  3.56427e-07  1.79889e+07
       559.10000  3.56427e-07  1.80138e+07
       559.20000  3.56427e-07  1.80423e+07
       559.30000  3.56427e-07  1.80673e+07
       559.40000  3.56427e-07  1.80994e+07
       559.50000  3.68061e-07  1.87196e+07
       559.60000  3.68061e-07  1.87527e+07
       559.70000  3.68061e-07  1.87858e+07
       559.80000  3.68061e-07  1.88226e+07
       559.90000  3.68061e-07  1.88595e+07
       560.00000  3.68061e-07  1.88999e+07
       560.10000  3.68061e-07  1.89404e+07
       560.20000  3.68061e-07  1.89809e+07
       560.30000  3.68061e-07  1.90251e+07
       560.40000  3.68061e-07  1.90693e+07
       560.50000  2.94883e-07  1.53162e+07
       560.60000  2.94883e-07  1.52867e+07
       560.70000  2.94883e-07  1.52602e+07
       560.80000  2.94883e-07  1.52366e+07
       560.90000  2.94883e-07  1.52189e+07
       561.00000  2.94883e-07  1.52042e+07
       561.10000  2.94883e-07  1.51924e+07
       561.20000  2.94883e-07  1.51835e+07
       561.30000  2.95055e-07  1.51894e+07
       561.40000  2.95055e-07  1.51894e+07
       561.50000  6.16886e-07  3.17696e+07
       561.60000  6.16886e-07  3.18313e+07
       561.70000  6.16886e-07  3.18869e+07
       561.80000  6.16886e-07  3.19485e+07
       561.90000  6.16886e-07  3.20041e+07
       562.00000  6.16886e-07  3.20534e+07
       562.10000  6.16886e-07  3.21028e+07
       562.20000  6.16886e-07  3.21521e+07
       562.30000  6.16886e-07  3.21953e+07
       562.40000  6.16886e-07  3.22385e+07
       562.50000  5.40298e-07  2.82684e+07
       562.60000  5.40298e-07  2.83008e+07
       562.70000  5.40298e-07  2.83332e+07
       562.80000  5.40298e-07  2.83602e+07
       562.90000  5.40298e-07  2.83819e+07
       563.00000  5.40298e-07  2.84089e+07
       563.10000  5.40298e-07  2.84305e+07
       563.20000  5.40298e-07  2.84467e+07
       563.30000  5.40298e-07  2.84629e+07
       563.40000  5.40298e-07  2.84737e+07
       563.50000  6.00639e-07  3.16717e+07
       563.60000  6.00639e-07  3.17018e+07
       563.70000  6.00639e-07  3.17258e+07
       563.80000  6.00166e-07  3.17128e+07
       563.90000  6.00166e-07  3.17188e+07
       564.00000  6.00166e-07  3.17188e+07
       564.10000  6.00166e-07  3.17068e+07
       564.20000  6.00166e-07  3.16888e+07
       564.30000  6.00166e-07  3.16588e+07
       564.40000  6.00166e-07  3.16228e+07
       564.50000  7.94565e-07  4.18100e+07
       564.60000  7.94565e-07  4.16034e+07
       564.70000  7.94565e-07  4.14127e+07
       564.80000  7.94565e-07  4.12459e+07
       564.90000  7.94565e-07  4.10949e+07
       565.00000  7.94565e-07  4.09678e+07
       565.10000  7.94565e-07  4.08565e+07
       565.20000  7.94565e-07  4.07691e+07
       565.30000  7.94565e-07  4.06976e+07
       565.40000  7.94565e-07  4.06499e+07
       565.50000  1.03377e-06  5.28461e+07
       565.60000  1.03377e-06  5.28357e+07
       565.70000  1.03377e-06  5.28461e+07
       565.80000  1.03377e-06  5.28771e+07
       565.90000  1.03377e-06  5.29391e+07
       566.00000  1.03377e-06  5.30321e+07
       566.10000  1.03377e-06  5.31459e+07
       566.20000  1.03377e-06  5.32803e+07
       566.30000  1.03253e-06  5.33816e+07
       566.40000  1.03253e-06  5.35778e+07
       566.50000  9.55861e-07  4.98004e+07
       566.60000  9.55861e-07  5.01254e+07
       566.70000  9.55861e-07  5.04217e+07
       566.80000  9.55861e-07  5.06798e+07
       566.90000  9.55861e-07  5.09092e+07
       567.00000  9.55861e-07  5.10908e+07
       567.10000  9.55861e-07  5.12437e+07
       567.20000  9.55861e-07  5.13489e+07
       567.30000  9.55861e-07  5.14253e+07
       567.40000  9.55861e-07  5.14636e+07
       567.50000  1.38411e-06  7.45207e+07
       567.60000  1.38411e-06  7.40086e+07
       567.70000  1.38411e-06  7.35380e+07
       567.80000  1.38411e-06  7.31227e+07
       567.90000  1.38411e-06  7.27490e+07
       568.00000  1.38411e-06  7.24445e+07
       568.10000  1.38411e-06  7.21677e+07
       568.20000  1.38411e-06  7.19601e+07
       568.30000  1.38411e-06  7.17940e+07
       568.40000  1.38411e-06  7.16694e+07
       568.50000  1.50562e-06  7.79009e+07
       568.60000  1.50562e-06  7.78707e+07
       568.70000  1.50562e-06  7.79159e+07
       568.80000  1.50431e-06  7.79384e+07
       568.90000  1.50431e-06  7.80888e+07
       569.00000  1.50431e-06  7.82844e+07
       569.10000  1.50431e-06  7.85401e+07
       569.20000  1.50431e-06  7.88560e+07
       569.30000  1.50431e-06  7.92170e+07
       569.40000  1.50431e-06  7.96382e+07
       569.50000  1.68960e-06  8.99878e+07
       569.60000  1.68960e-06  8.92444e+07
       569.70000  1.68960e-06  8.85686e+07
       569.80000  1.68960e-06  8.79772e+07
       569.90000  1.68960e-06  8.74365e+07
       570.00000  1.68960e-06  8.69804e+07
       570.10000  1.68960e-06  8.65918e+07
       570.20000  1.68960e-06  8.62707e+07
       570.30000  1.68960e-06  8.60173e+07
       570.40000  1.68960e-06  8.58483e+07
       570.50000  2.04921e-06  1.03977e+08
       570.60000  2.04921e-06  1.04284e+08
       570.70000  2.04921e-06  1.04592e+08
       570.80000  2.04921e-06  1.04899e+08
       570.90000  2.04921e-06  1.05227e+08
       571.00000  2.04921e-06  1.05555e+08
       571.10000  2.04921e-06  1.05883e+08
       571.20000  2.04921e-06  1.06231e+08
       571.30000  2.04937e-06  1.06608e+08
       571.40000  2.04937e-06  1.06977e+08
       571.50000  2.16018e-06  1.13150e+08
       571.60000  2.16018e-06  1.13561e+08
       571.70000  2.16018e-06  1.13971e+08
       571.80000  2.16018e-06  1.14403e+08
       571.90000  2.16018e-06  1.14835e+08
       572.00000  2.16018e-06  1.15289e+08
       572.10000  2.16018e-06  1.15742e+08
       572.20000  2.16018e-06  1.16196e+08
       572.30000  2.16018e-06  1.16671e+08
       572.40000  2.16018e-06  1.17147e+08
       572.50000  2.16778e-06  1.18057e+08
       572.60000  2.16778e-06  1.17971e+08
       572.70000  2.16778e-06  1.17862e+08
       572.80000  2.16778e-06  1.17776e+08
       572.90000  2.16778e-06  1.17689e+08
       573.00000  2.16778e-06  1.17602e+08
       573.10000  2.16778e-06  1.17537e+08
       573.20000  2.16778e-06  1.17450e+08
       573.30000  2.16778e-06  1.17385e+08
       573.40000  2.16778e-06  1.17320e+08
       573.50000  4.35391e-06  2.35503e+08
       573.60000  4.35391e-06  2.35590e+08
       573.70000  4.35391e-06  2.35677e+08
       573.80000  4.35877e-06  2.35940e+08
       573.90000  4.35877e-06  2.35940e+08
       574.00000  4.35877e-06  2.35853e+08
       574.10000  4.35877e-06  2.35766e+08
       574.20000  4.35877e-06  2.35635e+08
       574.30000  4.35877e-06  2.35504e+08
       574.40000  4.35877e-06  2.35287e+08
       574.50000  4.37763e-06  2.36086e+08
       574.60000  4.37763e-06  2.35341e+08
       574.70000  4.37763e-06  2.34685e+08
       574.80000  4.37763e-06  2.34072e+08
       574.90000  4.37763e-06  2.33546e+08
       575.00000  4.37763e-06  2.33109e+08
       575.10000  4.37763e-06  2.32715e+08
       575.20000  4.37763e-06  2.32365e+08
       575.30000  4.37763e-06  2.32102e+08
       575.40000  4.37763e-06  2.31927e+08
       575.50000  6.59421e-06  3.49163e+08
       575.60000  6.59421e-06  3.49559e+08
       575.70000  6.59421e-06  3.49955e+08
       575.80000  6.59421e-06  3.50350e+08
       575.90000  6.59421e-06  3.50746e+08
       576.00000  6.59421e-06  3.51142e+08
       576.10000  6.59421e-06  3.51471e+08
       576.20000  6.59421e-06  3.51867e+08
       576.30000  6.59228e-06  3.52093e+08
       576.40000  6.59228e-06  3.52423e+08
       576.50000  8.81961e-06  4.71938e+08
       576.60000  8.81961e-06  4.72379e+08
       576.70000  8.81961e-06  4.72731e+08
       576.80000  8.81961e-06  4.73172e+08
       576.90000  8.81961e-06  4.73525e+08
       577.00000  8.81961e-06  4.73878e+08
       577.10000  8.81961e-06  4.74231e+08
       577.20000  8.81961e-06  4.74583e+08
       577.30000  8.81961e-06  4.74936e+08
       577.40000  8.81961e-06  4.75289e+08
       577.50000  8.84312e-06  4.76821e+08
       577.60000  8.84312e-06  4.73637e+08
       577.70000  8.84312e-06  4.70719e+08
       577.80000  8.84312e-06  4.68155e+08
       577.90000  8.84312e-06  4.65855e+08
       578.00000  8.84312e-06  4.63910e+08
       578.10000  8.84312e-06  4.62230e+08
       578.20000  8.84312e-06  4.60903e+08
       578.30000  8.84312e-06  4.59842e+08
       578.40000  8.84312e-06  4.59046e+08
       578.50000  1.33092e-05  6.90215e+08
       578.60000  1.33092e-05  6.92744e+08
       578.70000  1.33092e-05  6.95006e+08
       578.80000  1.32924e-05  6.96387e+08
       578.90000  1.32924e-05  6.98380e+08
       579.00000  1.32924e-05  7.00374e+08
       579.10000  1.32924e-05  7.02102e+08
       579.20000  1.32924e-05  7.03830e+08
       579.30000  1.32924e-05  7.05292e+08
       579.40000  1.32924e-05  7.06755e+08
       579.50000  2.00076e-05  1.06561e+09
       579.60000  2.00076e-05  1.06741e+09
       579.70000  2.00076e-05  1.06881e+09
       579.80000  2.00076e-05  1.07001e+09
       579.90000  2.00076e-05  1.07121e+09
       580.00000  2.00076e-05  1.07201e+09
       580.10000  2.00076e-05  1.07261e+09
       580.20000  2.00076e-05  1.07321e+09
       580.30000  2.00076e-05  1.07341e+09
       580.40000  2.00076e-05  1.07341e+09
       580.50000  2.22943e-05  1.19609e+09
       580.60000  2.22943e-05  1.19698e+09
       580.70000  2.22943e-05  1.19809e+09
       580.80000  2.22943e-05  1.19921e+09
       580.90000  2.22943e-05  1.20032e+09
       581.00000  2.22943e-05  1.20144e+09
       581.10000  2.22943e-05  1.20278e+09
       581.20000  2.22943e-05  1.20389e+09
       581.30000  2.22672e-05  1.20376e+09
       581.40000  2.22672e-05  1.20510e+09
       581.50000  3.34692e-05  1.81336e+09
       581.60000  3.34692e-05  1.81705e+09
       581.70000  3.34692e-05  1.82073e+09
       581.80000  3.34692e-05  1.82374e+09
       581.90000  3.34692e-05  1.82642e+09
       582.00000  3.34692e-05  1.82909e+09
       582.10000  3.34692e-05  1.83110e+09
       582.20000  3.34692e-05  1.83278e+09
       582.30000  3.34692e-05  1.83411e+09
       582.40000  3.34692e-05  1.83512e+09
       582.50000  4.46906e-05  2.45128e+09
       582.60000  4.46906e-05  2.45173e+09
       582.70000  4.46906e-05  2.45173e+09
       582.80000  4.46906e-05  2.45128e+09
       582.90000  4.46906e-05  2.45038e+09
       583.00000  4.46906e-05  2.44904e+09
       583.10000  4.46906e-05  2.44726e+09
       583.20000  4.46906e-05  2.44457e+09
       583.30000  4.46906e-05  2.44189e+09
       583.40000  4.46906e-05  2.43832e+09
       583.50000  6.26533e-05  3.41335e+09
       583.60000  6.26533e-05  3.42087e+09
       583.70000  6.26533e-05  3.42714e+09
       583.80000  6.25181e-05  3.42474e+09
       583.90000  6.25181e-05  3.42849e+09
       584.00000  6.25181e-05  3.43037e+09
       584.10000  6.25181e-05  3.43037e+09
       584.20000  6.25181e-05  3.42912e+09
       584.30000  6.25181e-05  3.42662e+09
       584.40000  6.25181e-05  3.42287e+09
       584.50000  8.72218e-05  4.76754e+09
       584.60000  8.72218e-05  4.73440e+09
       584.70000  8.72218e-05  4.70474e+09
       584.80000  8.72218e-05  4.67771e+09
       584.90000  8.72218e-05  4.65416e+09
       585.00000  8.72218e-05  4.63322e+09
       585.10000  8.72218e-05  4.61578e+09
       585.20000  8.72218e-05  4.60182e+09
       585.30000  8.72218e-05  4.59048e+09
       585.40000  8.72218e-05  4.58263e+09
       585.50000  0.000132204  6.93940e+09
       585.60000  0.000132204  6.93676e+09
       585.70000  0.000132204  6.93940e+09
       585.80000  0.000132204  6.94734e+09
       585.90000  0.000132204  6.95923e+09
       586.00000  0.000132204  6.97642e+09
       586.10000  0.000132204  6.99890e+09
       586.20000  0.000132204  7.02534e+09
       586.30000  0.000132065  7.04964e+09
       586.40000  0.000132065  7.08530e+09
       586.50000  0.000199462  1.07630e+10
       586.60000  0.000199462  1.08069e+10
       586.70000  0.000199462  1.08428e+10
       586.80000  0.000199462  1.08727e+10
       586.90000  0.000199462  1.08966e+10
       587.00000  0.000199462  1.09106e+10
       587.10000  0.000199462  1.09206e+10
       587.20000  0.000199462  1.09226e+10
       587.30000  0.000199462  1.09186e+10
       587.40000  0.000199462  1.09066e+10
       587.50000  0.000309471  1.68940e+10
       587.60000  0.000309471  1.68229e+10
       587.70000  0.000309471  1.67486e+10
       587.80000  0.000309471  1.66712e+10
       587.90000  0.000309471  1.65908e+10
       588.00000  0.000309471  1.65041e+10
       588.10000  0.000309471  1.64175e+10
       588.20000  0.000309471  1.63246e+10
       588.30000  0.000309471  1.62287e+10
       588.40000  0.000309471  1.61296e+10
       588.50000  0.000498909  2.58335e+10
       588.60000  0.000498909  2.56589e+10
       588.70000  0.000498909  2.54843e+10
       588.80000  0.000498002  2.52537e+10
       588.90000  0.000498002  2.50594e+10
       589.00000  0.000498002  2.48652e+10
       589.10000  0.000498002  2.46610e+10
       589.20000  0.000498002  2.44569e+10
       589.30000  0.000498002  2.42377e+10
       589.40000  0.000498002  2.40186e+10
       589.50000  0.000826493  3.94898e+10
       589.60000  0.000826493  4.02419e+10
       589.70000  0.000826493  4.09362e+10
       589.80000  0.000826493  4.15726e+10
       589.90000  0.000826493  4.21594e+10
       590.00000  0.000826493  4.26801e+10
       590.10000  0.000826493  4.31595e+10
       590.20000  0.000826493  4.35727e+10
       590.30000  0.000826493  4.39364e+10
       590.40000  0.000826493  4.42422e+10
       590.50000   0.00143234  7.71029e+10
       590.60000   0.00143234  7.69167e+10
       590.70000   0.00143234  7.67448e+10
       590.80000   0.00143234  7.66016e+10
       590.90000   0.00143234  7.64726e+10
       591.00000   0.00143234  7.63581e+10
       591.10000   0.00143234  7.62721e+10
       591.20000   0.00143234  7.62005e+10
       591.30000   0.00143217  7.61486e+10
       591.40000   0.00143217  7.61199e+10
       591.50000   0.00257168  1.36659e+11
       591.60000   0.00257168  1.36685e+11
       591.70000   0.00257168  1.36762e+11
       591.80000   0.00257168  1.36839e+11
       591.90000   0.00257168  1.36968e+11
       592.00000   0.00257168  1.37148e+11
       592.10000   0.00257168  1.37354e+11
       592.20000   0.00257168  1.37585e+11
       592.30000   0.00257168  1.37868e+11
       592.40000   0.00257168  1.38176e+11
       592.50000   0.00471700  2.54058e+11
       592.60000   0.00471700  2.54011e+11
       592.70000   0.00471700  2.53916e+11
       592.80000   0.00471700  2.53869e+11
       592.90000   0.00471700  2.53728e+11
       593.00000   0.00471700  2.53633e+11
       593.10000   0.00471700  2.53492e+11
       593.20000   0.00471700  2.53350e+11
       593.30000   0.00471700  2.53162e+11
       593.40000   0.00471700  2.53020e+11
       593.50000   0.00892745  4.78422e+11
       593.60000   0.00892745  4.77529e+11
       593.70000   0.00892745  4.76726e+11
       593.80000   0.00892519  4.75802e+11
       593.90000   0.00892519  4.75177e+11
       594.00000   0.00892519  4.74641e+11
       594.10000   0.00892519  4.74106e+11
       594.20000   0.00892519  4.73660e+11
       594.30000   0.00892519  4.73392e+11
       594.40000   0.00892519  4.73124e+11
       594.50000    0.0174943  9.27196e+11
       594.60000    0.0174943  9.27021e+11
       594.70000    0.0174943  9.27021e+11
       594.80000    0.0174943  9.27196e+11
       594.90000    0.0174943  9.27546e+11
       595.00000    0.0174943  9.28246e+11
       595.10000    0.0174943  9.28945e+11
       595.20000    0.0174943  9.29820e+11
       595.30000    0.0174943  9.30870e+11
       595.40000    0.0174943  9.32094e+11
       595.50000    0.0332261  1.77261e+12
       595.60000    0.0332261  1.77759e+12
       595.70000    0.0332261  1.78191e+12
       595.80000    0.0332261  1.78557e+12
       595.90000    0.0332261  1.78889e+12
       596.00000    0.0332261  1.79155e+12
       596.10000    0.0332261  1.79421e+12
       596.20000    0.0332261  1.79587e+12
       596.30000    0.0332743  1.79981e+12
       596.40000    0.0332743  1.80081e+12
       596.50000    0.0586414  3.17426e+12
       596.60000    0.0586414  3.17074e+12
       596.70000    0.0586414  3.16663e+12
       596.80000    0.0586414  3.16253e+12
       596.90000    0.0586414  3.15842e+12
       597.00000    0.0586414  3.15491e+12
       597.10000    0.0586414  3.15080e+12
       597.20000    0.0586414  3.14728e+12
       597.30000    0.0586414  3.14318e+12
       597.40000    0.0586414  3.13966e+12
       597.50000    0.0933713  4.99257e+12
       597.60000    0.0933713  4.98229e+12
       597.70000    0.0933713  4.97296e+12
       597.80000    0.0933713  4.96455e+12
       597.90000    0.0933713  4.95708e+12
       598.00000    0.0933713  4.95055e+12
       598.10000    0.0933713  4.94588e+12
       598.20000    0.0933713  4.94214e+12
       598.30000    0.0933713  4.93934e+12
       598.40000    0.0933713  4.93748e+12
       598.50000     0.130612  6.90548e+12
       598.60000     0.130612  6.92116e+12
       598.70000     0.130612  6.93552e+12
       598.80000     0.130742  6.95419e+12
       598.90000     0.130742  6.96465e+12
       599.00000     0.130742  6.97380e+12
       599.10000     0.130742  6.98034e+12
       599.20000     0.130742  6.98557e+12
       599.30000     0.130742  6.98949e+12
       599.40000     0.130742  6.99080e+12
       599.50000     0.160751  8.59536e+12
       599.60000     0.160751  8.59375e+12
       599.70000     0.160751  8.58893e+12
       599.80000     0.160751  8.58250e+12
       599.90000     0.160751  8.57286e+12
       600.00000     0.160751  8.56160e+12
       600.10000     0.160751  8.54874e+12
       600.20000     0.160751  8.53428e+12
       600.30000     0.160751  8.51659e+12
       600.40000     0.160751  8.49570e+12
       600.50000     0.178944  9.43393e+12
       600.60000     0.178944  9.44646e+12
       600.70000     0.178944  9.45720e+12
       600.80000     0.178944  9.46793e+12
       600.90000     0.178944  9.47509e+12
       601.00000     0.178944  9.48046e+12
       601.10000     0.178944  9.48225e+12
       601.20000     0.178944  9.48404e+12
       601.30000     0.178921  9.48280e+12
       601.40000     0.178921  9.47922e+12
       601.50000     0.187355  9.92230e+12
       601.60000     0.187355  9.87921e+12
       601.70000     0.187355  9.84362e+12
       601.80000     0.187355  9.81176e+12
       601.90000     0.187355  9.78741e+12
       602.00000     0.187355  9.76867e+12
       602.10000     0.187355  9.75369e+12
       602.20000     0.187355  9.74619e+12
       602.30000     0.187355  9.74432e+12
       602.40000     0.187355  9.74806e+12
       602.50000     0.190883  9.93927e+12
       602.60000     0.190883  9.95454e+12
       602.70000     0.190883  9.97554e+12
       602.80000     0.190883  1.00023e+13
       602.90000     0.190883  1.00347e+13
       603.00000     0.190883  1.00729e+13
       603.10000     0.190883  1.01168e+13
       603.20000     0.190883  1.01664e+13
       603.30000     0.190883  1.02218e+13
       603.40000     0.190883  1.02829e+13
       603.50000     0.192977  1.04632e+13
       603.60000     0.192977  1.04593e+13
       603.70000     0.192977  1.04555e+13
       603.80000     0.192895  1.04472e+13
       603.90000     0.192895  1.04414e+13
       604.00000     0.192895  1.04375e+13
       604.10000     0.192895  1.04317e+13
       604.20000     0.192895  1.04279e+13
       604.30000     0.192895  1.04221e+13
       604.40000     0.192895  1.04182e+13
       604.50000     0.191180  1.03199e+13
       604.60000     0.191180  1.03123e+13
       604.70000     0.191180  1.03046e+13
       604.80000     0.191180  1.02970e+13
       604.90000     0.191180  1.02893e+13
       605.00000     0.191180  1.02836e+13
       605.10000     0.191180  1.02779e+13
       605.20000     0.191180  1.02740e+13
       605.30000     0.191180  1.02683e+13
       605.40000     0.191180  1.02645e+13
       605.50000     0.177535  9.52829e+12
       605.60000     0.177535  9.52651e+12
       605.70000     0.177535  9.52296e+12
       605.80000     0.177535  9.52119e+12
       605.90000     0.177535  9.52119e+12
       606.00000     0.177535  9.51941e+12
       606.10000     0.177535  9.51941e+12
       606.20000     0.177535  9.51941e+12
       606.30000     0.177540  9.51967e+12
       606.40000     0.177540  9.52144e+12
       606.50000     0.144936  7.77436e+12
       606.60000     0.144936  7.77726e+12
       606.70000     0.144936  7.77871e+12
       606.80000     0.144936  7.78161e+12
       606.90000     0.144936  7.78161e+12
       607.00000     0.144936  7.78306e+12
       607.10000     0.144936  7.78306e+12
       607.20000     0.144936  7.78306e+12
       607.30000     0.144936  7.78161e+12
       607.40000     0.144936  7.78016e+12
       607.50000    0.0980935  5.26468e+12
       607.60000    0.0980935  5.25879e+12
       607.70000    0.0980935  5.25389e+12
       607.80000    0.0980935  5.24996e+12
       607.90000    0.0980935  5.24604e+12
       608.00000    0.0980935  5.24212e+12
       608.10000    0.0980935  5.23917e+12
       608.20000    0.0980935  5.23623e+12
       608.30000    0.0980935  5.23427e+12
       608.40000    0.0980935  5.23231e+12
       608.50000    0.0538669  2.87272e+12
       608.60000    0.0538669  2.87218e+12
       608.70000    0.0538669  2.87164e+12
       608.80000    0.0538553  2.87102e+12
       608.90000    0.0538553  2.87156e+12
       609.00000    0.0538553  2.87210e+12
       609.10000    0.0538553  2.87264e+12
       609.20000    0.0538553  2.87372e+12
       609.30000    0.0538553  2.87479e+12
       609.40000    0.0538553  2.87641e+12
       609.50000    0.0243016  1.29892e+12
       609.60000    0.0243016  1.29309e+12
       609.70000    0.0243016  1.28798e+12
       609.80000    0.0243016  1.28361e+12
       609.90000    0.0243016  1.27997e+12
       610.00000    0.0243016  1.27681e+12
       610.10000    0.0243016  1.27413e+12
       610.20000    0.0243016  1.27219e+12
       610.30000    0.0243016  1.27097e+12
       610.40000    0.0243016  1.27049e+12
       610.50000    0.0101124  5.28573e+11
       610.60000    0.0101124  5.31203e+11
       610.70000    0.0101124  5.33528e+11
       610.80000    0.0101124  5.35652e+11
       610.90000    0.0101124  5.37472e+11
       611.00000    0.0101124  5.38989e+11
       611.10000    0.0101124  5.40304e+11
       611.20000    0.0101124  5.41315e+11
       611.30000    0.0101124  5.42126e+11
       611.40000    0.0101124  5.42631e+11
       611.50000   0.00455002  2.44245e+11
       611.60000   0.00455002  2.44245e+11
       611.70000   0.00455002  2.44109e+11
       611.80000   0.00455002  2.43881e+11
       611.90000   0.00455002  2.43517e+11
       612.00000   0.00455002  2.43062e+11
       612.10000   0.00455002  2.42471e+11
       612.20000   0.00455002  2.41743e+11
       612.30000   0.00455002  2.40924e+11
       612.40000   0.00455002  2.39968e+11
       612.50000   0.00233763  1.22749e+11
       612.60000   0.00233763  1.22445e+11
       612.70000   0.00233763  1.22164e+11
       612.80000   0.00233763  1.21931e+11
       612.90000   0.00233763  1.21744e+11
       613.00000   0.00233763  1.21580e+11
       613.10000   0.00233763  1.21463e+11
       613.20000   0.00233763  1.21370e+11
       613.30000   0.00233763  1.21323e+11
       613.40000   0.00233763  1.21323e+11
       613.50000   0.00134763  6.99557e+10
       613.60000   0.00134763  7.01578e+10
       613.70000   0.00134763  7.03330e+10
       613.80000   0.00134616  7.04177e+10
       613.90000   0.00134616  7.05793e+10
       614.00000   0.00134616  7.07273e+10
       614.10000   0.00134616  7.08485e+10
       614.20000   0.00134616  7.09697e+10
       614.30000   0.00134616  7.10773e+10
       614.40000   0.00134616  7.11716e+10
       614.50000  0.000871383  4.61223e+10
       614.60000  0.000871383  4.61659e+10
       614.70000  0.000871383  4.62007e+10
       614.80000  0.000871383  4.62268e+10
       614.90000  0.000871383  4.62443e+10
       615.00000  0.000871383  4.62530e+10
       615.10000  0.000871383  4.62617e+10
       615.20000  0.000871383  4.62530e+10
       615.30000  0.000871383  4.62443e+10
       615.40000  0.000871383  4.62268e+10
       615.50000  0.000644381  3.41586e+10
       615.60000  0.000644381  3.37785e+10
       615.70000  0.000644381  3.34305e+10
       615.80000  0.000644381  3.31276e+10
       615.90000  0.000644381  3.28699e+10
       616.00000  0.000644381  3.26443e+10
       616.10000  0.000644381  3.24639e+10
       616.20000  0.000644381  3.23222e+10
       616.30000  0.000644472  3.22236e+10
       616.40000  0.000644472  3.21656e+10
       616.50000  0.000522996  2.60818e+10
       616.60000  0.000522996  2.63067e+10
       616.70000  0.000522996  2.65159e+10
       616.80000  0.000522996  2.67094e+10
       616.90000  0.000522996  2.68925e+10
       617.00000  0.000522996  2.70650e+10
       617.10000  0.000522996  2.72219e+10
       617.20000  0.000522996  2.73632e+10
       617.30000  0.000522996  2.74939e+10
       617.40000  0.000522996  2.76142e+10
       617.50000  0.000467733  2.47899e+10
       617.60000  0.000467733  2.48694e+10
       617.70000  0.000467733  2.49395e+10
       617.80000  0.000467733  2.50003e+10
       617.90000  0.000467733  2.50424e+10
       618.00000  0.000467733  2.50799e+10
       618.10000  0.000467733  2.51033e+10
       618.20000  0.000467733  2.51126e+10
       618.30000  0.000467733  2.51126e+10
       618.40000  0.000467733  2.50986e+10
       618.50000  0.000465871  2.49754e+10
       618.60000  0.000465871  2.49288e+10
       618.70000  0.000465871  2.48822e+10
       618.80000  0.000465403  2.48246e+10
       618.90000  0.000465403  2.47920e+10
       619.00000  0.000465403  2.47687e+10
