PDS_VERSION_ID         = PDS3
RECORD_TYPE            = STREAM
OBJECT                 = TEXT
  PUBLICATION_DATE     = 2014-04-25
  INTERCHANGE_FORMAT   = ASCII
  NOTE                 = "System transmission vs. wavelength."
END_OBJECT             = TEXT
END
    
The systrans directory contains the non-wavelength-integrated system 
transmission values (QE*optics*filter1*filter2) for each filter combination. 
The naming convention for these files is as follows:

<camera><filter 1><filter 2>_systrans.tab

where <camera> is "issna" or "isswa," and <filter 1> and <filter 2> represent
the filter names. For polarized filter combinations, values are given for the
parallel orientation of the filter (full transmission), with values for the 
perpendicular (blocking) orientation provided in files with subscript 
"_b_systrans.tab". 

Columns in systrans files are as follows:

 1st column: Wavelength (nm)  
 2nd column: Transmitted Flux
 3rd column: Transmitted Flux * Solar Flux (phot per cm^2-s-angstrom at 1 AU)

The solar spectrum used for this calculation is provided in solarflux.tab.

\begindata
       600.00000  2.22960e-07  1.18748e+07
       600.10000  2.22960e-07  1.18570e+07
       600.20000  2.22960e-07  1.18369e+07
       600.30000  2.22960e-07  1.18124e+07
       600.40000  2.22960e-07  1.17834e+07
       600.50000  2.32449e-07  1.22547e+07
       600.60000  2.32449e-07  1.22710e+07
       600.70000  2.32449e-07  1.22850e+07
       600.80000  2.32449e-07  1.22989e+07
       600.90000  2.32449e-07  1.23082e+07
       601.00000  2.32449e-07  1.23152e+07
       601.10000  2.32449e-07  1.23175e+07
       601.20000  2.32449e-07  1.23198e+07
       601.30000  2.32419e-07  1.23182e+07
       601.40000  2.32419e-07  1.23136e+07
       601.50000  1.76871e-07  9.36707e+06
       601.60000  1.76871e-07  9.32639e+06
       601.70000  1.76871e-07  9.29279e+06
       601.80000  1.76871e-07  9.26272e+06
       601.90000  1.76871e-07  9.23973e+06
       602.00000  1.76871e-07  9.22204e+06
       602.10000  1.76871e-07  9.20789e+06
       602.20000  1.76871e-07  9.20082e+06
       602.30000  1.76871e-07  9.19905e+06
       602.40000  1.76871e-07  9.20258e+06
       602.50000  2.13778e-07  1.11314e+07
       602.60000  2.13778e-07  1.11485e+07
       602.70000  2.13778e-07  1.11720e+07
       602.80000  2.13778e-07  1.12020e+07
       602.90000  2.13778e-07  1.12383e+07
       603.00000  2.13778e-07  1.12811e+07
       603.10000  2.13778e-07  1.13302e+07
       603.20000  2.13778e-07  1.13858e+07
       603.30000  2.13778e-07  1.14478e+07
       603.40000  2.13778e-07  1.15162e+07
       603.50000  1.63031e-07  8.83957e+06
       603.60000  1.63031e-07  8.83631e+06
       603.70000  1.63031e-07  8.83304e+06
       603.80000  1.62962e-07  8.82604e+06
       603.90000  1.62962e-07  8.82115e+06
       604.00000  1.62962e-07  8.81789e+06
       604.10000  1.62962e-07  8.81300e+06
       604.20000  1.62962e-07  8.80974e+06
       604.30000  1.62962e-07  8.80485e+06
       604.40000  1.62962e-07  8.80159e+06
       604.50000  1.39819e-07  7.54741e+06
       604.60000  1.39819e-07  7.54181e+06
       604.70000  1.39819e-07  7.53622e+06
       604.80000  1.39819e-07  7.53063e+06
       604.90000  1.39819e-07  7.52504e+06
       605.00000  1.39819e-07  7.52084e+06
       605.10000  1.39819e-07  7.51665e+06
       605.20000  1.39819e-07  7.51385e+06
       605.30000  1.39819e-07  7.50966e+06
       605.40000  1.39819e-07  7.50686e+06
       605.50000  1.34307e-07  7.20828e+06
       605.60000  1.34307e-07  7.20694e+06
       605.70000  1.34307e-07  7.20425e+06
       605.80000  1.34307e-07  7.20291e+06
       605.90000  1.34307e-07  7.20291e+06
       606.00000  1.34307e-07  7.20156e+06
       606.10000  1.34307e-07  7.20156e+06
       606.20000  1.34307e-07  7.20156e+06
       606.30000  1.34311e-07  7.20176e+06
       606.40000  1.34311e-07  7.20310e+06
       606.50000  2.85591e-08  1.53191e+06
       606.60000  2.85591e-08  1.53248e+06
       606.70000  2.85591e-08  1.53277e+06
       606.80000  2.85591e-08  1.53334e+06
       606.90000  2.85591e-08  1.53334e+06
       607.00000  2.85591e-08  1.53362e+06
       607.10000  2.85591e-08  1.53362e+06
       607.20000  2.85591e-08  1.53362e+06
       607.30000  2.85591e-08  1.53334e+06
       607.40000  2.85591e-08  1.53305e+06
       607.50000  1.12016e-07  6.01192e+06
       607.60000  1.12016e-07  6.00520e+06
       607.70000  1.12016e-07  5.99960e+06
       607.80000  1.12016e-07  5.99512e+06
       607.90000  1.12016e-07  5.99064e+06
       608.00000  1.12016e-07  5.98615e+06
       608.10000  1.12016e-07  5.98279e+06
       608.20000  1.12016e-07  5.97943e+06
       608.30000  1.12016e-07  5.97719e+06
       608.40000  1.12016e-07  5.97495e+06
       608.50000  2.14924e-07  1.14619e+07
       608.60000  2.14924e-07  1.14597e+07
       608.70000  2.14924e-07  1.14576e+07
       608.80000  2.14878e-07  1.14551e+07
       608.90000  2.14878e-07  1.14573e+07
       609.00000  2.14878e-07  1.14594e+07
       609.10000  2.14878e-07  1.14616e+07
       609.20000  2.14878e-07  1.14659e+07
       609.30000  2.14878e-07  1.14702e+07
       609.40000  2.14878e-07  1.14766e+07
       609.50000  7.56994e-08  4.04613e+06
       609.60000  7.56994e-08  4.02796e+06
       609.70000  7.56994e-08  4.01207e+06
       609.80000  7.56994e-08  3.99844e+06
       609.90000  7.56994e-08  3.98709e+06
       610.00000  7.56994e-08  3.97725e+06
       610.10000  7.56994e-08  3.96892e+06
       610.20000  7.56994e-08  3.96286e+06
       610.30000  7.56994e-08  3.95908e+06
       610.40000  7.56994e-08  3.95756e+06
       610.50000  2.39167e-07  1.25013e+07
       610.60000  2.39167e-07  1.25634e+07
       610.70000  2.39167e-07  1.26184e+07
       610.80000  2.39167e-07  1.26687e+07
       610.90000  2.39167e-07  1.27117e+07
       611.00000  2.39167e-07  1.27476e+07
       611.10000  2.39167e-07  1.27787e+07
       611.20000  2.39167e-07  1.28026e+07
       611.30000  2.39168e-07  1.28218e+07
       611.40000  2.39168e-07  1.28337e+07
       611.50000  1.96311e-07  1.05380e+07
       611.60000  1.96311e-07  1.05380e+07
       611.70000  1.96311e-07  1.05321e+07
       611.80000  1.96311e-07  1.05223e+07
       611.90000  1.96311e-07  1.05066e+07
       612.00000  1.96311e-07  1.04869e+07
       612.10000  1.96311e-07  1.04614e+07
       612.20000  1.96311e-07  1.04300e+07
       612.30000  1.96311e-07  1.03947e+07
       612.40000  1.96311e-07  1.03534e+07
       612.50000  1.56885e-07  8.23802e+06
       612.60000  1.56885e-07  8.21762e+06
       612.70000  1.56885e-07  8.19880e+06
       612.80000  1.56885e-07  8.18311e+06
       612.90000  1.56885e-07  8.17056e+06
       613.00000  1.56885e-07  8.15958e+06
       613.10000  1.56885e-07  8.15173e+06
       613.20000  1.56885e-07  8.14546e+06
       613.30000  1.56885e-07  8.14232e+06
       613.40000  1.56885e-07  8.14232e+06
       613.50000  1.71196e-07  8.88680e+06
       613.60000  1.71196e-07  8.91248e+06
       613.70000  1.71196e-07  8.93474e+06
       613.80000  1.71009e-07  8.94550e+06
       613.90000  1.71009e-07  8.96602e+06
       614.00000  1.71009e-07  8.98483e+06
       614.10000  1.71009e-07  9.00022e+06
       614.20000  1.71009e-07  9.01561e+06
       614.30000  1.71009e-07  9.02929e+06
       614.40000  1.71009e-07  9.04126e+06
       614.50000  9.67420e-08  5.12056e+06
       614.60000  9.67420e-08  5.12539e+06
       614.70000  9.67420e-08  5.12926e+06
       614.80000  9.67420e-08  5.13216e+06
       614.90000  9.67420e-08  5.13410e+06
       615.00000  9.67420e-08  5.13507e+06
       615.10000  9.67420e-08  5.13603e+06
       615.20000  9.67420e-08  5.13507e+06
       615.30000  9.67420e-08  5.13410e+06
       615.40000  9.67420e-08  5.13216e+06
       615.50000  1.28484e-07  6.81093e+06
       615.60000  1.28484e-07  6.73513e+06
       615.70000  1.28484e-07  6.66574e+06
       615.80000  1.28484e-07  6.60536e+06
       615.90000  1.28484e-07  6.55396e+06
       616.00000  1.28484e-07  6.50899e+06
       616.10000  1.28484e-07  6.47302e+06
       616.20000  1.28484e-07  6.44475e+06
       616.30000  1.28502e-07  6.42511e+06
       616.40000  1.28502e-07  6.41354e+06
       616.50000  2.73223e-07  1.36256e+07
       616.60000  2.73223e-07  1.37431e+07
       616.70000  2.73223e-07  1.38524e+07
       616.80000  2.73223e-07  1.39535e+07
       616.90000  2.73223e-07  1.40491e+07
       617.00000  2.73223e-07  1.41393e+07
       617.10000  2.73223e-07  1.42213e+07
       617.20000  2.73223e-07  1.42950e+07
       617.30000  2.73223e-07  1.43633e+07
       617.40000  2.73223e-07  1.44262e+07
       617.50000  2.86326e-07  1.51753e+07
       617.60000  2.86326e-07  1.52240e+07
       617.70000  2.86326e-07  1.52669e+07
       617.80000  2.86326e-07  1.53041e+07
       617.90000  2.86326e-07  1.53299e+07
       618.00000  2.86326e-07  1.53528e+07
       618.10000  2.86326e-07  1.53671e+07
       618.20000  2.86326e-07  1.53729e+07
       618.30000  2.86326e-07  1.53729e+07
       618.40000  2.86326e-07  1.53643e+07
       618.50000  1.66653e-07  8.93426e+06
       618.60000  1.66653e-07  8.91759e+06
       618.70000  1.66653e-07  8.90093e+06
       618.80000  1.66485e-07  8.88032e+06
       618.90000  1.66485e-07  8.86866e+06
       619.00000  1.66485e-07  8.86034e+06
       619.10000  1.66485e-07  8.85368e+06
       619.20000  1.66485e-07  8.85035e+06
       619.30000  1.66485e-07  8.84868e+06
       619.40000  1.66485e-07  8.84868e+06
       619.50000  1.06605e-07  5.66818e+06
       619.60000  1.06605e-07  5.68844e+06
       619.70000  1.06605e-07  5.70656e+06
       619.80000  1.06605e-07  5.72255e+06
       619.90000  1.06605e-07  5.73641e+06
       620.00000  1.06605e-07  5.74707e+06
       620.10000  1.06605e-07  5.75560e+06
       620.20000  1.06605e-07  5.76199e+06
       620.30000  1.06605e-07  5.76626e+06
       620.40000  1.06605e-07  5.76732e+06
       620.50000  1.72003e-07  9.30536e+06
       620.60000  1.72003e-07  9.26752e+06
       620.70000  1.72003e-07  9.23140e+06
       620.80000  1.72003e-07  9.20044e+06
       620.90000  1.72003e-07  9.17292e+06
       621.00000  1.72003e-07  9.14884e+06
       621.10000  1.72003e-07  9.12820e+06
       621.20000  1.72003e-07  9.11272e+06
       621.30000  1.71782e-07  9.08728e+06
       621.40000  1.71782e-07  9.07697e+06
       621.50000  1.63132e-07  8.61498e+06
       621.60000  1.63132e-07  8.64434e+06
       621.70000  1.63132e-07  8.67044e+06
       621.80000  1.63132e-07  8.69165e+06
       621.90000  1.63132e-07  8.71122e+06
       622.00000  1.63132e-07  8.72591e+06
       622.10000  1.63132e-07  8.73733e+06
       622.20000  1.63132e-07  8.74385e+06
       622.30000  1.63132e-07  8.74874e+06
       622.40000  1.63132e-07  8.74874e+06
       622.50000  1.92396e-07  1.03143e+07
       622.60000  1.92396e-07  1.03066e+07
       622.70000  1.92396e-07  1.02951e+07
       622.80000  1.92396e-07  1.02797e+07
       622.90000  1.92396e-07  1.02585e+07
       623.00000  1.92396e-07  1.02355e+07
       623.10000  1.92396e-07  1.02066e+07
       623.20000  1.92396e-07  1.01720e+07
       623.30000  1.92396e-07  1.01354e+07
       623.40000  1.92396e-07  1.00931e+07
       623.50000  1.10888e-07  5.79166e+06
       623.60000  1.10888e-07  5.79055e+06
       623.70000  1.10888e-07  5.79055e+06
       623.80000  1.10649e-07  5.77587e+06
       623.90000  1.10649e-07  5.77476e+06
       624.00000  1.10649e-07  5.77255e+06
       624.10000  1.10649e-07  5.76923e+06
       624.20000  1.10649e-07  5.76591e+06
       624.30000  1.10649e-07  5.76259e+06
       624.40000  1.10649e-07  5.75817e+06
       624.50000  2.96497e-07  1.54178e+07
       624.60000  2.96497e-07  1.53585e+07
       624.70000  2.96497e-07  1.53111e+07
       624.80000  2.96497e-07  1.52696e+07
       624.90000  2.96497e-07  1.52370e+07
       625.00000  2.96497e-07  1.52132e+07
       625.10000  2.96497e-07  1.51984e+07
       625.20000  2.96497e-07  1.51895e+07
       625.30000  2.96497e-07  1.51925e+07
       625.40000  2.96497e-07  1.52014e+07
       625.50000  2.34663e-07  1.20453e+07
       625.60000  2.34663e-07  1.20640e+07
       625.70000  2.34663e-07  1.20922e+07
       625.80000  2.34663e-07  1.21250e+07
       625.90000  2.34663e-07  1.21649e+07
       626.00000  2.34663e-07  1.22119e+07
       626.10000  2.34663e-07  1.22658e+07
       626.20000  2.34663e-07  1.23245e+07
       626.30000  2.34293e-07  1.23730e+07
       626.40000  2.34293e-07  1.24456e+07
       626.50000  2.56820e-07  1.37270e+07
       626.60000  2.56820e-07  1.37296e+07
       626.70000  2.56820e-07  1.37322e+07
       626.80000  2.56820e-07  1.37347e+07
       626.90000  2.56820e-07  1.37373e+07
       627.00000  2.56820e-07  1.37399e+07
       627.10000  2.56820e-07  1.37424e+07
       627.20000  2.56820e-07  1.37424e+07
       627.30000  2.56820e-07  1.37450e+07
       627.40000  2.56820e-07  1.37476e+07
       627.50000  1.92074e-07  1.02837e+07
       627.60000  1.92074e-07  1.02913e+07
       627.70000  1.92074e-07  1.02971e+07
       627.80000  1.92074e-07  1.03009e+07
       627.90000  1.92074e-07  1.03048e+07
       628.00000  1.92074e-07  1.03067e+07
       628.10000  1.92074e-07  1.03086e+07
       628.20000  1.92074e-07  1.03086e+07
       628.30000  1.92074e-07  1.03067e+07
       628.40000  1.92074e-07  1.03048e+07
       628.50000  2.66817e-07  1.43094e+07
       628.60000  2.66817e-07  1.43014e+07
       628.70000  2.66817e-07  1.42934e+07
       628.80000  2.66253e-07  1.42525e+07
       628.90000  2.66253e-07  1.42392e+07
       629.00000  2.66253e-07  1.42259e+07
       629.10000  2.66253e-07  1.42099e+07
       629.20000  2.66253e-07  1.41940e+07
       629.30000  2.66253e-07  1.41753e+07
       629.40000  2.66253e-07  1.41540e+07
       629.50000  2.68767e-07  1.42662e+07
       629.60000  2.68767e-07  1.42366e+07
       629.70000  2.68767e-07  1.42070e+07
       629.80000  2.68767e-07  1.41802e+07
       629.90000  2.68767e-07  1.41560e+07
       630.00000  2.68767e-07  1.41318e+07
       630.10000  2.68767e-07  1.41076e+07
       630.20000  2.68767e-07  1.40888e+07
       630.30000  2.68767e-07  1.40673e+07
       630.40000  2.68767e-07  1.40511e+07
       630.50000  2.67720e-07  1.39803e+07
       630.60000  2.67720e-07  1.39643e+07
       630.70000  2.67720e-07  1.39509e+07
       630.80000  2.67720e-07  1.39402e+07
       630.90000  2.67720e-07  1.39295e+07
       631.00000  2.67720e-07  1.39214e+07
       631.10000  2.67720e-07  1.39295e+07
       631.20000  2.67720e-07  1.39375e+07
       631.30000  2.67707e-07  1.39475e+07
       631.40000  2.67707e-07  1.39556e+07
       631.50000  2.70969e-07  1.41337e+07
       631.60000  2.70969e-07  1.41419e+07
       631.70000  2.70969e-07  1.41500e+07
       631.80000  2.70969e-07  1.41554e+07
       631.90000  2.70969e-07  1.41635e+07
       632.00000  2.70969e-07  1.41717e+07
       632.10000  2.70969e-07  1.41798e+07
       632.20000  2.70969e-07  1.41852e+07
       632.30000  2.70969e-07  1.41933e+07
       632.40000  2.70969e-07  1.42015e+07
       632.50000  3.29883e-07  1.72957e+07
       632.60000  3.29883e-07  1.73023e+07
       632.70000  3.29883e-07  1.73122e+07
       632.80000  3.29883e-07  1.73188e+07
       632.90000  3.29883e-07  1.73254e+07
       633.00000  3.29883e-07  1.73353e+07
       633.10000  3.29883e-07  1.73419e+07
       633.20000  3.29883e-07  1.73485e+07
       633.30000  3.29883e-07  1.73551e+07
       633.40000  3.29883e-07  1.73617e+07
       633.50000  3.68289e-07  1.93904e+07
       633.60000  3.68289e-07  1.93978e+07
       633.70000  3.68289e-07  1.94052e+07
       633.80000  3.68233e-07  1.94059e+07
       633.90000  3.68233e-07  1.94132e+07
       634.00000  3.68233e-07  1.94206e+07
       634.10000  3.68233e-07  1.94243e+07
       634.20000  3.68233e-07  1.94316e+07
       634.30000  3.68233e-07  1.94353e+07
       634.40000  3.68233e-07  1.94427e+07
       634.50000  1.25847e-07  6.64596e+06
       634.60000  1.25847e-07  6.64722e+06
       634.70000  1.25847e-07  6.64973e+06
       634.80000  1.25847e-07  6.65099e+06
       634.90000  1.25847e-07  6.65225e+06
       635.00000  1.25847e-07  6.65351e+06
       635.10000  1.25847e-07  6.65477e+06
       635.20000  1.25847e-07  6.65477e+06
       635.30000  1.25847e-07  6.65602e+06
       635.40000  1.25847e-07  6.65602e+06
       635.50000  2.84589e-07  1.50547e+07
       635.60000  2.84589e-07  1.50576e+07
       635.70000  2.84589e-07  1.50576e+07
       635.80000  2.84589e-07  1.50604e+07
       635.90000  2.84589e-07  1.50604e+07
       636.00000  2.84589e-07  1.50633e+07
       636.10000  2.84589e-07  1.50633e+07
       636.20000  2.84589e-07  1.50661e+07
       636.30000  2.82902e-07  1.49768e+07
       636.40000  2.82902e-07  1.49796e+07
       636.50000  2.79668e-07  1.48084e+07
       636.60000  2.79668e-07  1.48112e+07
       636.70000  2.79668e-07  1.48112e+07
       636.80000  2.79668e-07  1.48140e+07
       636.90000  2.79668e-07  1.48140e+07
       637.00000  2.79668e-07  1.48140e+07
       637.10000  2.79668e-07  1.48168e+07
       637.20000  2.79668e-07  1.48168e+07
       637.30000  2.79668e-07  1.48196e+07
       637.40000  2.79668e-07  1.48196e+07
       637.50000  2.69827e-07  1.42981e+07
       637.60000  2.69827e-07  1.43008e+07
       637.70000  2.69827e-07  1.43008e+07
       637.80000  2.69827e-07  1.43035e+07
       637.90000  2.69827e-07  1.43035e+07
       638.00000  2.69827e-07  1.43035e+07
       638.10000  2.69827e-07  1.43062e+07
       638.20000  2.69827e-07  1.43062e+07
       638.30000  2.69827e-07  1.43062e+07
       638.40000  2.69827e-07  1.43089e+07
       638.50000  2.84125e-07  1.50671e+07
       638.60000  2.84125e-07  1.50671e+07
       638.70000  2.84125e-07  1.50700e+07
       638.80000  2.82261e-07  1.49711e+07
       638.90000  2.82261e-07  1.49711e+07
       639.00000  2.82261e-07  1.49711e+07
       639.10000  2.82261e-07  1.49486e+07
       639.20000  2.82261e-07  1.49260e+07
       639.30000  2.82261e-07  1.49034e+07
       639.40000  2.82261e-07  1.48836e+07
       639.50000  3.62235e-07  1.90717e+07
       639.60000  3.62235e-07  1.90499e+07
       639.70000  3.62235e-07  1.90246e+07
       639.80000  3.62235e-07  1.90028e+07
       639.90000  3.62235e-07  1.89847e+07
       640.00000  3.62235e-07  1.89630e+07
       640.10000  3.62235e-07  1.89449e+07
       640.20000  3.62235e-07  1.89304e+07
       640.30000  3.62235e-07  1.89159e+07
       640.40000  3.62235e-07  1.89014e+07
       640.50000  1.92856e-07  1.00555e+07
       640.60000  1.92856e-07  1.00497e+07
       640.70000  1.92856e-07  1.00439e+07
       640.80000  1.92856e-07  1.00401e+07
       640.90000  1.92856e-07  1.00343e+07
       641.00000  1.92856e-07  1.00324e+07
       641.10000  1.92856e-07  1.00362e+07
       641.20000  1.92856e-07  1.00401e+07
       641.30000  1.91551e-07  9.97600e+06
       641.40000  1.91551e-07  9.97983e+06
       641.50000  3.14785e-07  1.64066e+07
       641.60000  3.14785e-07  1.64129e+07
       641.70000  3.14785e-07  1.64192e+07
       641.80000  3.14785e-07  1.64255e+07
       641.90000  3.14785e-07  1.64318e+07
       642.00000  3.14785e-07  1.64381e+07
       642.10000  3.14785e-07  1.64412e+07
       642.20000  3.14785e-07  1.64475e+07
       642.30000  3.14785e-07  1.64538e+07
       642.40000  3.14785e-07  1.64601e+07
       642.50000  2.82293e-07  1.47667e+07
       642.60000  2.82293e-07  1.47724e+07
       642.70000  2.82293e-07  1.47780e+07
       642.80000  2.82293e-07  1.47837e+07
       642.90000  2.82293e-07  1.47893e+07
       643.00000  2.82293e-07  1.47950e+07
       643.10000  2.82293e-07  1.47978e+07
       643.20000  2.82293e-07  1.48034e+07
       643.30000  2.82293e-07  1.48091e+07
       643.40000  2.82293e-07  1.48147e+07
       643.50000  2.52559e-07  1.32593e+07
       643.60000  2.52559e-07  1.32644e+07
       643.70000  2.52559e-07  1.32669e+07
       643.80000  2.52222e-07  1.32543e+07
       643.90000  2.52222e-07  1.32593e+07
       644.00000  2.52222e-07  1.32644e+07
       644.10000  2.52222e-07  1.32694e+07
       644.20000  2.52222e-07  1.32719e+07
       644.30000  2.52222e-07  1.32770e+07
       644.40000  2.52222e-07  1.32820e+07
       644.50000  3.47479e-07  1.83052e+07
       644.60000  3.47479e-07  1.83086e+07
       644.70000  3.47479e-07  1.83156e+07
       644.80000  3.47479e-07  1.83225e+07
       644.90000  3.47479e-07  1.83295e+07
       645.00000  3.47479e-07  1.83330e+07
       645.10000  3.47479e-07  1.83295e+07
       645.20000  3.47479e-07  1.83225e+07
       645.30000  3.47479e-07  1.83191e+07
       645.40000  3.47479e-07  1.83121e+07
       645.50000  1.69545e-07  8.92995e+06
       645.60000  1.69545e-07  8.92656e+06
       645.70000  1.69545e-07  8.92317e+06
       645.80000  1.69545e-07  8.91808e+06
       645.90000  1.69545e-07  8.91300e+06
       646.00000  1.69545e-07  8.90791e+06
       646.10000  1.69545e-07  8.90282e+06
       646.20000  1.69545e-07  8.89774e+06
       646.30000  1.69441e-07  8.88550e+06
       646.40000  1.69441e-07  8.87873e+06
       646.50000  1.33020e-07  6.96627e+06
       646.60000  1.33020e-07  6.95962e+06
       646.70000  1.33020e-07  6.95430e+06
       646.80000  1.33020e-07  6.94898e+06
       646.90000  1.33020e-07  6.94233e+06
       647.00000  1.33020e-07  6.93701e+06
       647.10000  1.33020e-07  6.91838e+06
       647.20000  1.33020e-07  6.90109e+06
       647.30000  1.33020e-07  6.88513e+06
       647.40000  1.33020e-07  6.86916e+06
       647.50000  2.12095e-07  1.09293e+07
       647.60000  2.12095e-07  1.09102e+07
       647.70000  2.12095e-07  1.08890e+07
       647.80000  2.12095e-07  1.08720e+07
       647.90000  2.12095e-07  1.08550e+07
       648.00000  2.12095e-07  1.08402e+07
       648.10000  2.12095e-07  1.08275e+07
       648.20000  2.12095e-07  1.08169e+07
       648.30000  2.12095e-07  1.08063e+07
       648.40000  2.12095e-07  1.07978e+07
       648.50000  3.24376e-07  1.65042e+07
       648.60000  3.24376e-07  1.64978e+07
       648.70000  3.24376e-07  1.64913e+07
       648.80000  3.24711e-07  1.65051e+07
       648.90000  3.24711e-07  1.65051e+07
       649.00000  3.24711e-07  1.65083e+07
       649.10000  3.24711e-07  1.65116e+07
       649.20000  3.24711e-07  1.65213e+07
       649.30000  3.24711e-07  1.65278e+07
       649.40000  3.24711e-07  1.65408e+07
       649.50000  1.87767e-07  9.57424e+06
       649.60000  1.87767e-07  9.58363e+06
       649.70000  1.87767e-07  9.59490e+06
       649.80000  1.87767e-07  9.60804e+06
       649.90000  1.87767e-07  9.62118e+06
       650.00000  1.87767e-07  9.63621e+06
       650.10000  1.87767e-07  9.65310e+06
       650.20000  1.87767e-07  9.67188e+06
       650.30000  1.87767e-07  9.69254e+06
       650.40000  1.87767e-07  9.71319e+06
       650.50000  2.72593e-07  1.41340e+07
       650.60000  2.72593e-07  1.41694e+07
       650.70000  2.72593e-07  1.42048e+07
       650.80000  2.72593e-07  1.42457e+07
       650.90000  2.72593e-07  1.42866e+07
       651.00000  2.72593e-07  1.43302e+07
       651.10000  2.72593e-07  1.43411e+07
       651.20000  2.72593e-07  1.43520e+07
       651.30000  2.72251e-07  1.43422e+07
       651.40000  2.72251e-07  1.43504e+07
       651.50000  3.15141e-07  1.66205e+07
       651.60000  3.15141e-07  1.66237e+07
       651.70000  3.15141e-07  1.66300e+07
       651.80000  3.15141e-07  1.66331e+07
       651.90000  3.15141e-07  1.66331e+07
       652.00000  3.15141e-07  1.66331e+07
       652.10000  3.15141e-07  1.66300e+07
       652.20000  3.15141e-07  1.66268e+07
       652.30000  3.15141e-07  1.66237e+07
       652.40000  3.15141e-07  1.66174e+07
       652.50000  2.86273e-07  1.50866e+07
       652.60000  2.86273e-07  1.50780e+07
       652.70000  2.86273e-07  1.50694e+07
       652.80000  2.86273e-07  1.50551e+07
       652.90000  2.86273e-07  1.50437e+07
       653.00000  2.86273e-07  1.50293e+07
       653.10000  2.86273e-07  1.50179e+07
       653.20000  2.86273e-07  1.50064e+07
       653.30000  2.86273e-07  1.49893e+07
       653.40000  2.86273e-07  1.49721e+07
       653.50000  1.59859e-07  8.35102e+06
       653.60000  1.59859e-07  8.33983e+06
       653.70000  1.59859e-07  8.32704e+06
       653.80000  1.59664e-07  8.30253e+06
       653.90000  1.59664e-07  8.28816e+06
       654.00000  1.59664e-07  8.27219e+06
       654.10000  1.59664e-07  8.25623e+06
       654.20000  1.59664e-07  8.23707e+06
       654.30000  1.59664e-07  8.21791e+06
       654.40000  1.59664e-07  8.19875e+06
       654.50000  1.08886e-07  5.57716e+06
       654.60000  1.08886e-07  5.56192e+06
       654.70000  1.08886e-07  5.54559e+06
       654.80000  1.08886e-07  5.52925e+06
       654.90000  1.08886e-07  5.51183e+06
       655.00000  1.08886e-07  5.49332e+06
       655.10000  1.08886e-07  5.44106e+06
       655.20000  1.08886e-07  5.39097e+06
       655.30000  1.08886e-07  5.34415e+06
       655.40000  1.08886e-07  5.30059e+06
       655.50000  2.47159e-07  1.19378e+07
       655.60000  2.47159e-07  1.18513e+07
       655.70000  2.47159e-07  1.17697e+07
       655.80000  2.47159e-07  1.16956e+07
       655.90000  2.47159e-07  1.16264e+07
       656.00000  2.47159e-07  1.15646e+07
       656.10000  2.47159e-07  1.15102e+07
       656.20000  2.47159e-07  1.14608e+07
       656.30000  2.46971e-07  1.14101e+07
       656.40000  2.46971e-07  1.13730e+07
       656.50000  2.70887e-07  1.24418e+07
       656.60000  2.70887e-07  1.24175e+07
       656.70000  2.70887e-07  1.23985e+07
       656.80000  2.70887e-07  1.23877e+07
       656.90000  2.70887e-07  1.23822e+07
       657.00000  2.70887e-07  1.23849e+07
       657.10000  2.70887e-07  1.24906e+07
       657.20000  2.70887e-07  1.25935e+07
       657.30000  2.70887e-07  1.26938e+07
       657.40000  2.70887e-07  1.27913e+07
       657.50000  2.89198e-07  1.37543e+07
       657.60000  2.89198e-07  1.38526e+07
       657.70000  2.89198e-07  1.39451e+07
       657.80000  2.89198e-07  1.40348e+07
       657.90000  2.89198e-07  1.41187e+07
       658.00000  2.89198e-07  1.42025e+07
       658.10000  2.89198e-07  1.42835e+07
       658.20000  2.89198e-07  1.43587e+07
       658.30000  2.89198e-07  1.44310e+07
       658.40000  2.89198e-07  1.45004e+07
       658.50000  1.21735e-07  6.13055e+06
       658.60000  1.21735e-07  6.15733e+06
       658.70000  1.21735e-07  6.18168e+06
       658.80000  1.21608e-07  6.19958e+06
       658.90000  1.21608e-07  6.22147e+06
       659.00000  1.21608e-07  6.24093e+06
       659.10000  1.21608e-07  6.26038e+06
       659.20000  1.21608e-07  6.27862e+06
       659.30000  1.21608e-07  6.29443e+06
       659.40000  1.21608e-07  6.30903e+06
       659.50000  3.68671e-07  1.91672e+07
       659.60000  3.68671e-07  1.92041e+07
       659.70000  3.68671e-07  1.92336e+07
       659.80000  3.68671e-07  1.92630e+07
       659.90000  3.68671e-07  1.92852e+07
       660.00000  3.68671e-07  1.93036e+07
       660.10000  3.68671e-07  1.93183e+07
       660.20000  3.68671e-07  1.93257e+07
       660.30000  3.68671e-07  1.93331e+07
       660.40000  3.68671e-07  1.93331e+07
       660.50000  1.40773e-07  7.38074e+06
       660.60000  1.40773e-07  7.37793e+06
       660.70000  1.40773e-07  7.37370e+06
       660.80000  1.40773e-07  7.36666e+06
       660.90000  1.40773e-07  7.35962e+06
       661.00000  1.40773e-07  7.34977e+06
       661.10000  1.40773e-07  7.34555e+06
       661.20000  1.40773e-07  7.33992e+06
       661.30000  1.40424e-07  7.31748e+06
       661.40000  1.40424e-07  7.31327e+06
       661.50000  2.06132e-07  1.07292e+07
       661.60000  2.06132e-07  1.07251e+07
       661.70000  2.06132e-07  1.07189e+07
       661.80000  2.06132e-07  1.07147e+07
       661.90000  2.06132e-07  1.07106e+07
       662.00000  2.06132e-07  1.07065e+07
       662.10000  2.06132e-07  1.07024e+07
       662.20000  2.06132e-07  1.06983e+07
       662.30000  2.06132e-07  1.06962e+07
       662.40000  2.06132e-07  1.06941e+07
       662.50000  2.77404e-07  1.43862e+07
       662.60000  2.77404e-07  1.43862e+07
       662.70000  2.77404e-07  1.43834e+07
       662.80000  2.77404e-07  1.43806e+07
       662.90000  2.77404e-07  1.43806e+07
       663.00000  2.77404e-07  1.43806e+07
       663.10000  2.77404e-07  1.43917e+07
       663.20000  2.77404e-07  1.44000e+07
       663.30000  2.77404e-07  1.44111e+07
       663.40000  2.77404e-07  1.44195e+07
       663.50000  1.81223e-07  9.42539e+06
       663.60000  1.81223e-07  9.43082e+06
       663.70000  1.81223e-07  9.43445e+06
       663.80000  1.80836e-07  9.41975e+06
       663.90000  1.80836e-07  9.42337e+06
       664.00000  1.80836e-07  9.42518e+06
       664.10000  1.80836e-07  9.42879e+06
       664.20000  1.80836e-07  9.43060e+06
       664.30000  1.80836e-07  9.43241e+06
       664.40000  1.80836e-07  9.43422e+06
       664.50000  1.98764e-07  1.03695e+07
       664.60000  1.98764e-07  1.03695e+07
       664.70000  1.98764e-07  1.03695e+07
       664.80000  1.98764e-07  1.03695e+07
       664.90000  1.98764e-07  1.03695e+07
       665.00000  1.98764e-07  1.03676e+07
       665.10000  1.98764e-07  1.03656e+07
       665.20000  1.98764e-07  1.03636e+07
       665.30000  1.98764e-07  1.03596e+07
       665.40000  1.98764e-07  1.03556e+07
       665.50000  3.51269e-07  1.82941e+07
       665.60000  3.51269e-07  1.82871e+07
       665.70000  3.51269e-07  1.82765e+07
       665.80000  3.51269e-07  1.82695e+07
       665.90000  3.51269e-07  1.82590e+07
       666.00000  3.51269e-07  1.82449e+07
       666.10000  3.51269e-07  1.82344e+07
       666.20000  3.51269e-07  1.82203e+07
       666.30000  3.50386e-07  1.81605e+07
       666.40000  3.50386e-07  1.81465e+07
       666.50000  1.52598e-07  7.89541e+06
       666.60000  1.52598e-07  7.88778e+06
       666.70000  1.52598e-07  7.88015e+06
       666.80000  1.52598e-07  7.87252e+06
       666.90000  1.52598e-07  7.86489e+06
       667.00000  1.52598e-07  7.85574e+06
       667.10000  1.52598e-07  7.86489e+06
       667.20000  1.52598e-07  7.87252e+06
       667.30000  1.52598e-07  7.88015e+06
       667.40000  1.52598e-07  7.88778e+06
       667.50000  2.26048e-07  1.16957e+07
       667.60000  2.26048e-07  1.17048e+07
       667.70000  2.26048e-07  1.17138e+07
       667.80000  2.26048e-07  1.17206e+07
       667.90000  2.26048e-07  1.17274e+07
       668.00000  2.26048e-07  1.17341e+07
       668.10000  2.26048e-07  1.17409e+07
       668.20000  2.26048e-07  1.17454e+07
       668.30000  2.26048e-07  1.17500e+07
       668.40000  2.26048e-07  1.17522e+07
       668.50000  2.58919e-07  1.34638e+07
       668.60000  2.58919e-07  1.34664e+07
       668.70000  2.58919e-07  1.34664e+07
       668.80000  2.58495e-07  1.34443e+07
       668.90000  2.58495e-07  1.34443e+07
       669.00000  2.58495e-07  1.34418e+07
       669.10000  2.58495e-07  1.34237e+07
       669.20000  2.58495e-07  1.34056e+07
       669.30000  2.58495e-07  1.33901e+07
       669.40000  2.58495e-07  1.33745e+07
       669.50000  1.33647e-07  6.90686e+06
       669.60000  1.33647e-07  6.89884e+06
       669.70000  1.33647e-07  6.89216e+06
       669.80000  1.33647e-07  6.88548e+06
       669.90000  1.33647e-07  6.87879e+06
       670.00000  1.33647e-07  6.87345e+06
       670.10000  1.33647e-07  6.86810e+06
       670.20000  1.33647e-07  6.86276e+06
       670.30000  1.33647e-07  6.85741e+06
       670.40000  1.33647e-07  6.85340e+06
       670.50000  1.41184e-07  7.23566e+06
       670.60000  1.41184e-07  7.23142e+06
       670.70000  1.41184e-07  7.22860e+06
       670.80000  1.41184e-07  7.22577e+06
       670.90000  1.41184e-07  7.22295e+06
       671.00000  1.41184e-07  7.22154e+06
       671.10000  1.41184e-07  7.21871e+06
       671.20000  1.41184e-07  7.21871e+06
       671.30000  1.41189e-07  7.21758e+06
       671.40000  1.41189e-07  7.21758e+06
       671.50000  1.67117e-07  8.54302e+06
       671.60000  1.67117e-07  8.54302e+06
       671.70000  1.67117e-07  8.54302e+06
       671.80000  1.67117e-07  8.54469e+06
       671.90000  1.67117e-07  8.54636e+06
       672.00000  1.67117e-07  8.54970e+06
       672.10000  1.67117e-07  8.55304e+06
       672.20000  1.67117e-07  8.55639e+06
       672.30000  1.67117e-07  8.55973e+06
       672.40000  1.67117e-07  8.56474e+06
       672.50000  1.30461e-07  6.69003e+06
       672.60000  1.30461e-07  6.69395e+06
       672.70000  1.30461e-07  6.69786e+06
       672.80000  1.30461e-07  6.70308e+06
       672.90000  1.30461e-07  6.70830e+06
       673.00000  1.30461e-07  6.71482e+06
       673.10000  1.30461e-07  6.71221e+06
       673.20000  1.30461e-07  6.70960e+06
       673.30000  1.30461e-07  6.70699e+06
       673.40000  1.30461e-07  6.70569e+06
       673.50000  1.15853e-07  5.95252e+06
       673.60000  1.15853e-07  5.95136e+06
       673.70000  1.15853e-07  5.95020e+06
       673.80000  1.15899e-07  5.95026e+06
       673.90000  1.15899e-07  5.94910e+06
       674.00000  1.15899e-07  5.94794e+06
       674.10000  1.15899e-07  5.94678e+06
       674.20000  1.15899e-07  5.94562e+06
       674.30000  1.15899e-07  5.94446e+06
       674.40000  1.15899e-07  5.94330e+06
       674.50000  2.28622e-07  1.17215e+07
       674.60000  2.28622e-07  1.17215e+07
       674.70000  2.28622e-07  1.17192e+07
       674.80000  2.28622e-07  1.17192e+07
       674.90000  2.28622e-07  1.17169e+07
       675.00000  2.28622e-07  1.17169e+07
       675.10000  2.28622e-07  1.17192e+07
       675.20000  2.28622e-07  1.17215e+07
       675.30000  2.28622e-07  1.17237e+07
       675.40000  2.28622e-07  1.17260e+07
       675.50000  9.37475e-08  4.80831e+06
       675.60000  9.37475e-08  4.80924e+06
       675.70000  9.37475e-08  4.81018e+06
       675.80000  9.37475e-08  4.81018e+06
       675.90000  9.37475e-08  4.81112e+06
       676.00000  9.37475e-08  4.81112e+06
       676.10000  9.37475e-08  4.81206e+06
       676.20000  9.37475e-08  4.81206e+06
       676.30000  9.36519e-08  4.80715e+06
       676.40000  9.36519e-08  4.80715e+06
       676.50000  1.54811e-07  7.94799e+06
       676.60000  1.54811e-07  7.94799e+06
       676.70000  1.54811e-07  7.94799e+06
       676.80000  1.54811e-07  7.94644e+06
       676.90000  1.54811e-07  7.94644e+06
       677.00000  1.54811e-07  7.94644e+06
       677.10000  1.54811e-07  7.94644e+06
       677.20000  1.54811e-07  7.94489e+06
       677.30000  1.54811e-07  7.94489e+06
       677.40000  1.54811e-07  7.94334e+06
       677.50000  2.88095e-07  1.47821e+07
       677.60000  2.88095e-07  1.47793e+07
       677.70000  2.88095e-07  1.47793e+07
       677.80000  2.88095e-07  1.47764e+07
       677.90000  2.88095e-07  1.47735e+07
       678.00000  2.88095e-07  1.47706e+07
       678.10000  2.88095e-07  1.47677e+07
       678.20000  2.88095e-07  1.47649e+07
       678.30000  2.88095e-07  1.47620e+07
       678.40000  2.88095e-07  1.47591e+07
       678.50000  1.11908e-07  5.73083e+06
       678.60000  1.11908e-07  5.72971e+06
       678.70000  1.11908e-07  5.72859e+06
       678.80000  1.11900e-07  5.72592e+06
       678.90000  1.11900e-07  5.72480e+06
       679.00000  1.11900e-07  5.72257e+06
       679.10000  1.11900e-07  5.72257e+06
       679.20000  1.11900e-07  5.72369e+06
       679.30000  1.11900e-07  5.72369e+06
       679.40000  1.11900e-07  5.72369e+06
       679.50000  2.08096e-07  1.06441e+07
       679.60000  2.08096e-07  1.06441e+07
       679.70000  2.08096e-07  1.06441e+07
       679.80000  2.08096e-07  1.06441e+07
       679.90000  2.08096e-07  1.06441e+07
       680.00000  2.08096e-07  1.06420e+07
       680.10000  2.08096e-07  1.06420e+07
       680.20000  2.08096e-07  1.06420e+07
       680.30000  2.08096e-07  1.06400e+07
       680.40000  2.08096e-07  1.06400e+07
       680.50000  1.76610e-07  9.02828e+06
       680.60000  1.76610e-07  9.02828e+06
       680.70000  1.76610e-07  9.02652e+06
       680.80000  1.76610e-07  9.02475e+06
       680.90000  1.76610e-07  9.02298e+06
       681.00000  1.76610e-07  9.02298e+06
       681.10000  1.76610e-07  9.02122e+06
       681.20000  1.76610e-07  9.01945e+06
       681.30000  1.76593e-07  9.01860e+06
       681.40000  1.76593e-07  9.01684e+06
       681.50000  3.39260e-08  1.73192e+06
       681.60000  3.39260e-08  1.73158e+06
       681.70000  3.39260e-08  1.73125e+06
       681.80000  3.39260e-08  1.73057e+06
       681.90000  3.39260e-08  1.73023e+06
       682.00000  3.39260e-08  1.72989e+06
       682.10000  3.39260e-08  1.72921e+06
       682.20000  3.39260e-08  1.72853e+06
       682.30000  3.39260e-08  1.72819e+06
       682.40000  3.39260e-08  1.72751e+06
       682.50000  1.92763e-07  9.81164e+06
       682.60000  1.92763e-07  9.80778e+06
       682.70000  1.92763e-07  9.80393e+06
       682.80000  1.92763e-07  9.80007e+06
       682.90000  1.92763e-07  9.79429e+06
       683.00000  1.92763e-07  9.79043e+06
       683.10000  1.92763e-07  9.78658e+06
       683.20000  1.92763e-07  9.78080e+06
       683.30000  1.92763e-07  9.77501e+06
       683.40000  1.92763e-07  9.76923e+06
       683.50000  2.62465e-07  1.32965e+07
       683.60000  2.62465e-07  1.32886e+07
       683.70000  2.62465e-07  1.32807e+07
       683.80000  2.62264e-07  1.32601e+07
       683.90000  2.62264e-07  1.32522e+07
       684.00000  2.62264e-07  1.32443e+07
       684.10000  2.62264e-07  1.32338e+07
       684.20000  2.62264e-07  1.32260e+07
       684.30000  2.62264e-07  1.32155e+07
       684.40000  2.62264e-07  1.32076e+07
       684.50000  1.70892e-07  8.59926e+06
       684.60000  1.70892e-07  8.59243e+06
       684.70000  1.70892e-07  8.58559e+06
       684.80000  1.70892e-07  8.57876e+06
       684.90000  1.70892e-07  8.57021e+06
       685.00000  1.70892e-07  8.56338e+06
       685.10000  1.70892e-07  8.57021e+06
       685.20000  1.70892e-07  8.57876e+06
       685.30000  1.70892e-07  8.58559e+06
       685.40000  1.70892e-07  8.59072e+06
       685.50000  2.17107e-07  1.09227e+07
       685.60000  2.17107e-07  1.09314e+07
       685.70000  2.17107e-07  1.09379e+07
       685.80000  2.17107e-07  1.09444e+07
       685.90000  2.17107e-07  1.09509e+07
       686.00000  2.17107e-07  1.09574e+07
       686.10000  2.17107e-07  1.09639e+07
       686.20000  2.17107e-07  1.09683e+07
       686.30000  2.16879e-07  1.09633e+07
       686.40000  2.16879e-07  1.09676e+07
       686.50000  1.50021e-07  7.58958e+06
       686.60000  1.50021e-07  7.59258e+06
       686.70000  1.50021e-07  7.59558e+06
       686.80000  1.50021e-07  7.59708e+06
       686.90000  1.50021e-07  7.60008e+06
       687.00000  1.50021e-07  7.60158e+06
       687.10000  1.50021e-07  7.60309e+06
       687.20000  1.50021e-07  7.60309e+06
       687.30000  1.50021e-07  7.60309e+06
       687.40000  1.50021e-07  7.60309e+06
       687.50000  1.12547e-07  5.70387e+06
       687.60000  1.12547e-07  5.70387e+06
       687.70000  1.12547e-07  5.70387e+06
       687.80000  1.12547e-07  5.70387e+06
       687.90000  1.12547e-07  5.70387e+06
       688.00000  1.12547e-07  5.70274e+06
       688.10000  1.12547e-07  5.70274e+06
       688.20000  1.12547e-07  5.70274e+06
       688.30000  1.12547e-07  5.70161e+06
       688.40000  1.12547e-07  5.70161e+06
       688.50000  2.54831e-07  1.29072e+07
       688.60000  2.54831e-07  1.29046e+07
       688.70000  2.54831e-07  1.29046e+07
       688.80000  2.54506e-07  1.28856e+07
       688.90000  2.54506e-07  1.28831e+07
       689.00000  2.54506e-07  1.28805e+07
       689.10000  2.54506e-07  1.28780e+07
       689.20000  2.54506e-07  1.28754e+07
       689.30000  2.54506e-07  1.28729e+07
       689.40000  2.54506e-07  1.28704e+07
       689.50000  1.01932e-07  5.15370e+06
       689.60000  1.01932e-07  5.15268e+06
       689.70000  1.01932e-07  5.15064e+06
       689.80000  1.01932e-07  5.14962e+06
       689.90000  1.01932e-07  5.14860e+06
       690.00000  1.01932e-07  5.14656e+06
       690.10000  1.01932e-07  5.14452e+06
       690.20000  1.01932e-07  5.14351e+06
       690.30000  1.01932e-07  5.14147e+06
       690.40000  1.01932e-07  5.13943e+06
       690.50000  1.83645e-07  9.25753e+06
       690.60000  1.83645e-07  9.25386e+06
       690.70000  1.83645e-07  9.25018e+06
       690.80000  1.83645e-07  9.24651e+06
       690.90000  1.83645e-07  9.24284e+06
       691.00000  1.83645e-07  9.23916e+06
       691.10000  1.83645e-07  9.24284e+06
       691.20000  1.83645e-07  9.24467e+06
       691.30000  1.83469e-07  9.23951e+06
       691.40000  1.83469e-07  9.24135e+06
       691.50000  2.37527e-07  1.19666e+07
       691.60000  2.37527e-07  1.19714e+07
       691.70000  2.37527e-07  1.19738e+07
       691.80000  2.37527e-07  1.19761e+07
       691.90000  2.37527e-07  1.19785e+07
       692.00000  2.37527e-07  1.19785e+07
       692.10000  2.37527e-07  1.19809e+07
       692.20000  2.37527e-07  1.19833e+07
       692.30000  2.37527e-07  1.19833e+07
       692.40000  2.37527e-07  1.19833e+07
       692.50000  1.74159e-07  8.78808e+06
       692.60000  1.74159e-07  8.78808e+06
       692.70000  1.74159e-07  8.78808e+06
       692.80000  1.74159e-07  8.78808e+06
       692.90000  1.74159e-07  8.78808e+06
       693.00000  1.74159e-07  8.78634e+06
       693.10000  1.74159e-07  8.78634e+06
       693.20000  1.74159e-07  8.78460e+06
       693.30000  1.74159e-07  8.78285e+06
       693.40000  1.74159e-07  8.78111e+06
       693.50000  1.98282e-07  9.99540e+06
       693.60000  1.98282e-07  9.99342e+06
       693.70000  1.98282e-07  9.99144e+06
       693.80000  1.97495e-07  9.94982e+06
       693.90000  1.97495e-07  9.94587e+06
       694.00000  1.97495e-07  9.94390e+06
       694.10000  1.97495e-07  9.94192e+06
       694.20000  1.97495e-07  9.93797e+06
       694.30000  1.97495e-07  9.93600e+06
       694.40000  1.97495e-07  9.93205e+06
       694.50000  1.53906e-07  7.73687e+06
       694.60000  1.53906e-07  7.73533e+06
       694.70000  1.53906e-07  7.73225e+06
       694.80000  1.53906e-07  7.72917e+06
       694.90000  1.53906e-07  7.72609e+06
       695.00000  1.53906e-07  7.72302e+06
       695.10000  1.53906e-07  7.71994e+06
       695.20000  1.53906e-07  7.71686e+06
       695.30000  1.53906e-07  7.71224e+06
       695.40000  1.53906e-07  7.70916e+06
       695.50000  3.66035e-08  1.83274e+06
       695.60000  3.66035e-08  1.83164e+06
       695.70000  3.66035e-08  1.83090e+06
       695.80000  3.66035e-08  1.82981e+06
       695.90000  3.66035e-08  1.82871e+06
       696.00000  3.66035e-08  1.82798e+06
       696.10000  3.66035e-08  1.82688e+06
       696.20000  3.66035e-08  1.82578e+06
       696.30000  3.65675e-08  1.82289e+06
       696.40000  3.65675e-08  1.82179e+06
       696.50000  2.18323e-07  1.08703e+07
       696.60000  2.18323e-07  1.08638e+07
       696.70000  2.18323e-07  1.08550e+07
       696.80000  2.18323e-07  1.08485e+07
       696.90000  2.18323e-07  1.08419e+07
       697.00000  2.18323e-07  1.08332e+07
       697.10000  2.18323e-07  1.08485e+07
       697.20000  2.18323e-07  1.08594e+07
       697.30000  2.18323e-07  1.08725e+07
       697.40000  2.18323e-07  1.08834e+07
       697.50000  2.37795e-07  1.18660e+07
       697.60000  2.37795e-07  1.18755e+07
       697.70000  2.37795e-07  1.18850e+07
       697.80000  2.37795e-07  1.18921e+07
       697.90000  2.37795e-07  1.18993e+07
       698.00000  2.37795e-07  1.19040e+07
       698.10000  2.37795e-07  1.19088e+07
       698.20000  2.37795e-07  1.19135e+07
       698.30000  2.37795e-07  1.19159e+07
       698.40000  2.37795e-07  1.19183e+07
       698.50000  1.16480e-07  5.83915e+06
       698.60000  1.16480e-07  5.83915e+06
       698.70000  1.16480e-07  5.83798e+06
       698.80000  1.16281e-07  5.82685e+06
       698.90000  1.16281e-07  5.82569e+06
       699.00000  1.16281e-07  5.82336e+06
       699.10000  1.16281e-07  5.81290e+06
       699.20000  1.16281e-07  5.80127e+06
       699.30000  1.16281e-07  5.79197e+06
       699.40000  1.16281e-07  5.78150e+06
       699.50000  2.87996e-07  1.42961e+07
       699.60000  2.87996e-07  1.42731e+07
       699.70000  2.87996e-07  1.42529e+07
       699.80000  2.87996e-07  1.42328e+07
       699.90000  2.87996e-07  1.42126e+07
       700.00000  2.87996e-07  1.41953e+07
       700.10000  2.87996e-07  1.41780e+07
       700.20000  2.87996e-07  1.41608e+07
       700.30000  2.87996e-07  1.41464e+07
       700.40000  2.87996e-07  1.41320e+07
       700.50000  2.92771e-07  1.43516e+07
       700.60000  2.92771e-07  1.43399e+07
       700.70000  2.92771e-07  1.43282e+07
       700.80000  2.92771e-07  1.43194e+07
       700.90000  2.92771e-07  1.43106e+07
       701.00000  2.92771e-07  1.43019e+07
       701.10000  2.92771e-07  1.42989e+07
       701.20000  2.92771e-07  1.42960e+07
       701.30000  2.92571e-07  1.42833e+07
       701.40000  2.92571e-07  1.42833e+07
       701.50000  1.53270e-07  7.48265e+06
       701.60000  1.53270e-07  7.48265e+06
       701.70000  1.53270e-07  7.48265e+06
       701.80000  1.53270e-07  7.48418e+06
       701.90000  1.53270e-07  7.48418e+06
       702.00000  1.53270e-07  7.48571e+06
       702.10000  1.53270e-07  7.48878e+06
       702.20000  1.53270e-07  7.49031e+06
       702.30000  1.53270e-07  7.49338e+06
       702.40000  1.53270e-07  7.49491e+06
       702.50000  2.83842e-07  1.38856e+07
       702.60000  2.83842e-07  1.38941e+07
       702.70000  2.83842e-07  1.38998e+07
       702.80000  2.83842e-07  1.39083e+07
       702.90000  2.83842e-07  1.39168e+07
       703.00000  2.83842e-07  1.39253e+07
       703.10000  2.83842e-07  1.39509e+07
       703.20000  2.83842e-07  1.39764e+07
       703.30000  2.83842e-07  1.39991e+07
       703.40000  2.83842e-07  1.40218e+07
       703.50000  9.49487e-08  4.69711e+06
       703.60000  9.49487e-08  4.70471e+06
       703.70000  9.49487e-08  4.71040e+06
       703.80000  9.46931e-08  4.70436e+06
       703.90000  9.46931e-08  4.71004e+06
       704.00000  9.46931e-08  4.71477e+06
       704.10000  9.46931e-08  4.72045e+06
       704.20000  9.46931e-08  4.72519e+06
       704.30000  9.46931e-08  4.72898e+06
       704.40000  9.46931e-08  4.73276e+06
       704.50000  4.98631e-08  2.49415e+06
       704.60000  4.98631e-08  2.49615e+06
       704.70000  4.98631e-08  2.49764e+06
       704.80000  4.98631e-08  2.49864e+06
       704.90000  4.98631e-08  2.50014e+06
       705.00000  4.98631e-08  2.50113e+06
       705.10000  4.98631e-08  2.50163e+06
       705.20000  4.98631e-08  2.50213e+06
       705.30000  4.98631e-08  2.50263e+06
       705.40000  4.98631e-08  2.50313e+06
       705.50000  2.66579e-07  1.33823e+07
       705.60000  2.66579e-07  1.33823e+07
       705.70000  2.66579e-07  1.33796e+07
       705.80000  2.66579e-07  1.33769e+07
       705.90000  2.66579e-07  1.33743e+07
       706.00000  2.66579e-07  1.33689e+07
       706.10000  2.66579e-07  1.33636e+07
       706.20000  2.66579e-07  1.33556e+07
       706.30000  2.66779e-07  1.33576e+07
       706.40000  2.66779e-07  1.33496e+07
       706.50000  1.20788e-07  6.03941e+06
       706.60000  1.20788e-07  6.03458e+06
       706.70000  1.20788e-07  6.02975e+06
       706.80000  1.20788e-07  6.02371e+06
       706.90000  1.20788e-07  6.01767e+06
       707.00000  1.20788e-07  6.01163e+06
       707.10000  1.20788e-07  6.00680e+06
       707.20000  1.20788e-07  6.00318e+06
       707.30000  1.20788e-07  5.99834e+06
       707.40000  1.20788e-07  5.99472e+06
       707.50000  2.24218e-07  1.11212e+07
       707.60000  2.24218e-07  1.11145e+07
       707.70000  2.24218e-07  1.11100e+07
       707.80000  2.24218e-07  1.11033e+07
       707.90000  2.24218e-07  1.10988e+07
       708.00000  2.24218e-07  1.10943e+07
       708.10000  2.24218e-07  1.10898e+07
       708.20000  2.24218e-07  1.10853e+07
       708.30000  2.24218e-07  1.10808e+07
       708.40000  2.24218e-07  1.10764e+07
       708.50000  2.84272e-07  1.40402e+07
       708.60000  2.84272e-07  1.40345e+07
       708.70000  2.84272e-07  1.40316e+07
       708.80000  2.83304e-07  1.39810e+07
       708.90000  2.83304e-07  1.39782e+07
       709.00000  2.83304e-07  1.39782e+07
       709.10000  2.83304e-07  1.39839e+07
       709.20000  2.83304e-07  1.39895e+07
       709.30000  2.83304e-07  1.39924e+07
       709.40000  2.83304e-07  1.39980e+07
       709.50000  1.54889e-07  7.65462e+06
       709.60000  1.54889e-07  7.65771e+06
       709.70000  1.54889e-07  7.65926e+06
       709.80000  1.54889e-07  7.66081e+06
       709.90000  1.54889e-07  7.66236e+06
       710.00000  1.54889e-07  7.66391e+06
       710.10000  1.54889e-07  7.66546e+06
       710.20000  1.54889e-07  7.66701e+06
       710.30000  1.54889e-07  7.66701e+06
       710.40000  1.54889e-07  7.66856e+06
       710.50000  2.55276e-07  1.26387e+07
       710.60000  2.55276e-07  1.26387e+07
       710.70000  2.55276e-07  1.26387e+07
       710.80000  2.55276e-07  1.26387e+07
       710.90000  2.55276e-07  1.26387e+07
       711.00000  2.55276e-07  1.26387e+07
       711.10000  2.55276e-07  1.26387e+07
       711.20000  2.55276e-07  1.26362e+07
       711.30000  2.55331e-07  1.26389e+07
       711.40000  2.55331e-07  1.26363e+07
       711.50000  2.08960e-07  1.03394e+07
       711.60000  2.08960e-07  1.03373e+07
       711.70000  2.08960e-07  1.03352e+07
       711.80000  2.08960e-07  1.03331e+07
       711.90000  2.08960e-07  1.03310e+07
       712.00000  2.08960e-07  1.03268e+07
       712.10000  2.08960e-07  1.03247e+07
       712.20000  2.08960e-07  1.03206e+07
       712.30000  2.08960e-07  1.03185e+07
       712.40000  2.08960e-07  1.03143e+07
       712.50000  9.90003e-08  4.88468e+06
       712.60000  9.90003e-08  4.88270e+06
       712.70000  9.90003e-08  4.87973e+06
       712.80000  9.90003e-08  4.87775e+06
       712.90000  9.90003e-08  4.87577e+06
       713.00000  9.90003e-08  4.87280e+06
       713.10000  9.90003e-08  4.87280e+06
       713.20000  9.90003e-08  4.87280e+06
       713.30000  9.90003e-08  4.87280e+06
       713.40000  9.90003e-08  4.87181e+06
       713.50000  2.34980e-07  1.15634e+07
       713.60000  2.34980e-07  1.15634e+07
       713.70000  2.34980e-07  1.15610e+07
       713.80000  2.34925e-07  1.15583e+07
       713.90000  2.34925e-07  1.15560e+07
       714.00000  2.34925e-07  1.15560e+07
       714.10000  2.34925e-07  1.15536e+07
       714.20000  2.34925e-07  1.15513e+07
       714.30000  2.34925e-07  1.15513e+07
       714.40000  2.34925e-07  1.15489e+07
       714.50000  2.60852e-07  1.28209e+07
       714.60000  2.60852e-07  1.28183e+07
       714.70000  2.60852e-07  1.28183e+07
       714.80000  2.60852e-07  1.28157e+07
       714.90000  2.60852e-07  1.28131e+07
       715.00000  2.60852e-07  1.28104e+07
       715.10000  2.60852e-07  1.28078e+07
       715.20000  2.60852e-07  1.28078e+07
       715.30000  2.60852e-07  1.28078e+07
       715.40000  2.60852e-07  1.28052e+07
       715.50000  1.94117e-07  9.52726e+06
       715.60000  1.94117e-07  9.52532e+06
       715.70000  1.94117e-07  9.52337e+06
       715.80000  1.94117e-07  9.52143e+06
       715.90000  1.94117e-07  9.51949e+06
       716.00000  1.94117e-07  9.51561e+06
       716.10000  1.94117e-07  9.51367e+06
       716.20000  1.94117e-07  9.50979e+06
       716.30000  1.93837e-07  9.49220e+06
       716.40000  1.93837e-07  9.48832e+06
       716.50000  2.53503e-07  1.24039e+07
       716.60000  2.53503e-07  1.23988e+07
       716.70000  2.53503e-07  1.23937e+07
       716.80000  2.53503e-07  1.23861e+07
       716.90000  2.53503e-07  1.23811e+07
       717.00000  2.53503e-07  1.23735e+07
       717.10000  2.53503e-07  1.23659e+07
       717.20000  2.53503e-07  1.23583e+07
       717.30000  2.53503e-07  1.23506e+07
       717.40000  2.53503e-07  1.23430e+07
       717.50000  2.73718e-07  1.33191e+07
       717.60000  2.73718e-07  1.33082e+07
       717.70000  2.73718e-07  1.32999e+07
       717.80000  2.73718e-07  1.32890e+07
       717.90000  2.73718e-07  1.32780e+07
       718.00000  2.73718e-07  1.32671e+07
       718.10000  2.73718e-07  1.32561e+07
       718.20000  2.73718e-07  1.32452e+07
       718.30000  2.73718e-07  1.32343e+07
       718.40000  2.73718e-07  1.32206e+07
       718.50000  2.44804e-07  1.18143e+07
       718.60000  2.44804e-07  1.18020e+07
       718.70000  2.44804e-07  1.17898e+07
       718.80000  2.43799e-07  1.17292e+07
       718.90000  2.43799e-07  1.17170e+07
       719.00000  2.43799e-07  1.17048e+07
       719.10000  2.43799e-07  1.17048e+07
       719.20000  2.43799e-07  1.17048e+07
       719.30000  2.43799e-07  1.17048e+07
       719.40000  2.43799e-07  1.17072e+07
       719.50000  3.56232e-07  1.71063e+07
       719.60000  3.56232e-07  1.71098e+07
       719.70000  3.56232e-07  1.71098e+07
       719.80000  3.56232e-07  1.71134e+07
       719.90000  3.56232e-07  1.71170e+07
       720.00000  3.56232e-07  1.71241e+07
       720.10000  3.56232e-07  1.71276e+07
       720.20000  3.56232e-07  1.71312e+07
       720.30000  3.56232e-07  1.71383e+07
       720.40000  3.56232e-07  1.71419e+07
       720.50000  3.42517e-07  1.64888e+07
       720.60000  3.42517e-07  1.64956e+07
       720.70000  3.42517e-07  1.65025e+07
       720.80000  3.42517e-07  1.65093e+07
       720.90000  3.42517e-07  1.65196e+07
       721.00000  3.42517e-07  1.65265e+07
       721.10000  3.42517e-07  1.65436e+07
       721.20000  3.42517e-07  1.65607e+07
       721.30000  3.41820e-07  1.65441e+07
       721.40000  3.41820e-07  1.65578e+07
       721.50000  3.29877e-07  1.59958e+07
       721.60000  3.29877e-07  1.60089e+07
       721.70000  3.29877e-07  1.60221e+07
       721.80000  3.29877e-07  1.60386e+07
       721.90000  3.29877e-07  1.60518e+07
       722.00000  3.29877e-07  1.60617e+07
       722.10000  3.29877e-07  1.60749e+07
       722.20000  3.29877e-07  1.60881e+07
       722.30000  3.29877e-07  1.60980e+07
       722.40000  3.29877e-07  1.61079e+07
       722.50000  2.49257e-07  1.21787e+07
       722.60000  2.49257e-07  1.21887e+07
       722.70000  2.49257e-07  1.21937e+07
       722.80000  2.49257e-07  1.22011e+07
       722.90000  2.49257e-07  1.22086e+07
       723.00000  2.49257e-07  1.22136e+07
       723.10000  2.49257e-07  1.22211e+07
       723.20000  2.49257e-07  1.22261e+07
       723.30000  2.49257e-07  1.22311e+07
       723.40000  2.49257e-07  1.22360e+07
       723.50000  3.05787e-07  1.50172e+07
       723.60000  3.05787e-07  1.50202e+07
       723.70000  3.05787e-07  1.50264e+07
       723.80000  3.04848e-07  1.49833e+07
       723.90000  3.04848e-07  1.49863e+07
       724.00000  3.04848e-07  1.49894e+07
       724.10000  3.04848e-07  1.49924e+07
       724.20000  3.04848e-07  1.49955e+07
       724.30000  3.04848e-07  1.49985e+07
       724.40000  3.04848e-07  1.50016e+07
       724.50000  1.85153e-07  9.11136e+06
       724.60000  1.85153e-07  9.11136e+06
       724.70000  1.85153e-07  9.11136e+06
       724.80000  1.85153e-07  9.11136e+06
       724.90000  1.85153e-07  9.11136e+06
       725.00000  1.85153e-07  9.11136e+06
       725.10000  1.85153e-07  9.11507e+06
       725.20000  1.85153e-07  9.11877e+06
       725.30000  1.85153e-07  9.12062e+06
       725.40000  1.85153e-07  9.12432e+06
       725.50000  2.61763e-07  1.29023e+07
       725.60000  2.61763e-07  1.29049e+07
       725.70000  2.61763e-07  1.29049e+07
       725.80000  2.61763e-07  1.29075e+07
       725.90000  2.61763e-07  1.29075e+07
       726.00000  2.61763e-07  1.29075e+07
       726.10000  2.61763e-07  1.29075e+07
       726.20000  2.61763e-07  1.29075e+07
       726.30000  2.61081e-07  1.28713e+07
       726.40000  2.61081e-07  1.28687e+07
       726.50000  2.92224e-07  1.44008e+07
       726.60000  2.92224e-07  1.43979e+07
       726.70000  2.92224e-07  1.43949e+07
       726.80000  2.92224e-07  1.43891e+07
       726.90000  2.92224e-07  1.43832e+07
       727.00000  2.92224e-07  1.43774e+07
       727.10000  2.92224e-07  1.43569e+07
       727.20000  2.92224e-07  1.43365e+07
       727.30000  2.92224e-07  1.43160e+07
       727.40000  2.92224e-07  1.42985e+07
       727.50000  2.61293e-07  1.27694e+07
       727.60000  2.61293e-07  1.27537e+07
       727.70000  2.61293e-07  1.27407e+07
       727.80000  2.61293e-07  1.27276e+07
       727.90000  2.61293e-07  1.27145e+07
       728.00000  2.61293e-07  1.27041e+07
       728.10000  2.61293e-07  1.26936e+07
       728.20000  2.61293e-07  1.26832e+07
       728.30000  2.61293e-07  1.26727e+07
       728.40000  2.61293e-07  1.26649e+07
       728.50000  3.28089e-07  1.58926e+07
       728.60000  3.28089e-07  1.58861e+07
       728.70000  3.28089e-07  1.58762e+07
       728.80000  3.28158e-07  1.58763e+07
       728.90000  3.28158e-07  1.58697e+07
       729.00000  3.28158e-07  1.58664e+07
       729.10000  3.28158e-07  1.58632e+07
       729.20000  3.28158e-07  1.58599e+07
       729.30000  3.28158e-07  1.58599e+07
       729.40000  3.28158e-07  1.58566e+07
       729.50000  2.59053e-07  1.25200e+07
       729.60000  2.59053e-07  1.25200e+07
       729.70000  2.59053e-07  1.25226e+07
       729.80000  2.59053e-07  1.25252e+07
       729.90000  2.59053e-07  1.25304e+07
       730.00000  2.59053e-07  1.25356e+07
       730.10000  2.59053e-07  1.25408e+07
       730.20000  2.59053e-07  1.25459e+07
       730.30000  2.59053e-07  1.25537e+07
       730.40000  2.59053e-07  1.25615e+07
       730.50000  3.56697e-07  1.73069e+07
       730.60000  3.56697e-07  1.73212e+07
       730.70000  3.56697e-07  1.73354e+07
       730.80000  3.56697e-07  1.73497e+07
       730.90000  3.56697e-07  1.73676e+07
       731.00000  3.56697e-07  1.73854e+07
       731.10000  3.56697e-07  1.73818e+07
       731.20000  3.56697e-07  1.73783e+07
       731.30000  3.56434e-07  1.73619e+07
       731.40000  3.56434e-07  1.73619e+07
       731.50000  3.41629e-07  1.66373e+07
       731.60000  3.41629e-07  1.66339e+07
       731.70000  3.41629e-07  1.66305e+07
       731.80000  3.41629e-07  1.66305e+07
       731.90000  3.41629e-07  1.66271e+07
       732.00000  3.41629e-07  1.66236e+07
       732.10000  3.41629e-07  1.66202e+07
       732.20000  3.41629e-07  1.66168e+07
       732.30000  3.41629e-07  1.66168e+07
       732.40000  3.41629e-07  1.66134e+07
       732.50000  3.56376e-07  1.73270e+07
       732.60000  3.56376e-07  1.73235e+07
       732.70000  3.56376e-07  1.73199e+07
       732.80000  3.56376e-07  1.73163e+07
       732.90000  3.56376e-07  1.73128e+07
       733.00000  3.56376e-07  1.73092e+07
       733.10000  3.56376e-07  1.73056e+07
       733.20000  3.56376e-07  1.72985e+07
       733.30000  3.56376e-07  1.72949e+07
       733.40000  3.56376e-07  1.72878e+07
       733.50000  4.12471e-07  2.00048e+07
       733.60000  4.12471e-07  2.00007e+07
       733.70000  4.12471e-07  1.99925e+07
       733.80000  4.11790e-07  1.99553e+07
       733.90000  4.11790e-07  1.99512e+07
       734.00000  4.11790e-07  1.99471e+07
       734.10000  4.11790e-07  1.99430e+07
       734.20000  4.11790e-07  1.99389e+07
       734.30000  4.11790e-07  1.99347e+07
       734.40000  4.11790e-07  1.99347e+07
       734.50000  2.14971e-07  1.04046e+07
       734.60000  2.14971e-07  1.04025e+07
       734.70000  2.14971e-07  1.04025e+07
       734.80000  2.14971e-07  1.04003e+07
       734.90000  2.14971e-07  1.04003e+07
       735.00000  2.14971e-07  1.03982e+07
       735.10000  2.14971e-07  1.03982e+07
       735.20000  2.14971e-07  1.03982e+07
       735.30000  2.14971e-07  1.03982e+07
       735.40000  2.14971e-07  1.03960e+07
       735.50000  3.18244e-07  1.53903e+07
       735.60000  3.18244e-07  1.53903e+07
       735.70000  3.18244e-07  1.53903e+07
       735.80000  3.18244e-07  1.53934e+07
       735.90000  3.18244e-07  1.53934e+07
       736.00000  3.18244e-07  1.53934e+07
       736.10000  3.18244e-07  1.53934e+07
       736.20000  3.18244e-07  1.53966e+07
       736.30000  3.17636e-07  1.53672e+07
       736.40000  3.17636e-07  1.53704e+07
       736.50000  2.04707e-07  9.90577e+06
       736.60000  2.04707e-07  9.90782e+06
       736.70000  2.04707e-07  9.90986e+06
       736.80000  2.04707e-07  9.90986e+06
       736.90000  2.04707e-07  9.91191e+06
       737.00000  2.04707e-07  9.91396e+06
       737.10000  2.04707e-07  9.90372e+06
       737.20000  2.04707e-07  9.89144e+06
       737.30000  2.04707e-07  9.88120e+06
       737.40000  2.04707e-07  9.87097e+06
       737.50000  2.74591e-07  1.32243e+07
       737.60000  2.74591e-07  1.32106e+07
       737.70000  2.74591e-07  1.31968e+07
       737.80000  2.74591e-07  1.31831e+07
       737.90000  2.74591e-07  1.31721e+07
       738.00000  2.74591e-07  1.31584e+07
       738.10000  2.74591e-07  1.31447e+07
       738.20000  2.74591e-07  1.31309e+07
       738.30000  2.74591e-07  1.31200e+07
       738.40000  2.74591e-07  1.31090e+07
       738.50000  1.91640e-07  9.13934e+06
       738.60000  1.91640e-07  9.13167e+06
       738.70000  1.91640e-07  9.12400e+06
       738.80000  1.90835e-07  9.07804e+06
       738.90000  1.90835e-07  9.07041e+06
       739.00000  1.90835e-07  9.06278e+06
       739.10000  1.90835e-07  9.04751e+06
       739.20000  1.90835e-07  9.03415e+06
       739.30000  1.90835e-07  9.02270e+06
       739.40000  1.90835e-07  9.01125e+06
       739.50000  3.36741e-07  1.58807e+07
       739.60000  3.36741e-07  1.58639e+07
       739.70000  3.36741e-07  1.58504e+07
       739.80000  3.36741e-07  1.58336e+07
       739.90000  3.36741e-07  1.58235e+07
       740.00000  3.36741e-07  1.58100e+07
       740.10000  3.36741e-07  1.58033e+07
       740.20000  3.36741e-07  1.57932e+07
       740.30000  3.36741e-07  1.57864e+07
       740.40000  3.36741e-07  1.57831e+07
       740.50000  2.73765e-07  1.28286e+07
       740.60000  2.73765e-07  1.28259e+07
       740.70000  2.73765e-07  1.28259e+07
       740.80000  2.73765e-07  1.28259e+07
       740.90000  2.73765e-07  1.28286e+07
       741.00000  2.73765e-07  1.28314e+07
       741.10000  2.73765e-07  1.28368e+07
       741.20000  2.73765e-07  1.28423e+07
       741.30000  2.73579e-07  1.28391e+07
       741.40000  2.73579e-07  1.28473e+07
       741.50000  3.54709e-07  1.66678e+07
       741.60000  3.54709e-07  1.66820e+07
       741.70000  3.54709e-07  1.66997e+07
       741.80000  3.54709e-07  1.67139e+07
       741.90000  3.54709e-07  1.67352e+07
       742.00000  3.54709e-07  1.67529e+07
       742.10000  3.54709e-07  1.67742e+07
       742.20000  3.54709e-07  1.67990e+07
       742.30000  3.54709e-07  1.68238e+07
       742.40000  3.54709e-07  1.68487e+07
       742.50000  3.42327e-07  1.62879e+07
       742.60000  3.42327e-07  1.63153e+07
       742.70000  3.42327e-07  1.63461e+07
       742.80000  3.42327e-07  1.63769e+07
       742.90000  3.42327e-07  1.64111e+07
       743.00000  3.42327e-07  1.64454e+07
       743.10000  3.42327e-07  1.64385e+07
       743.20000  3.42327e-07  1.64351e+07
       743.30000  3.42327e-07  1.64317e+07
       743.40000  3.42327e-07  1.64248e+07
       743.50000  2.85991e-07  1.37190e+07
       743.60000  2.85991e-07  1.37161e+07
       743.70000  2.85991e-07  1.37132e+07
       743.80000  2.85863e-07  1.37043e+07
       743.90000  2.85863e-07  1.37014e+07
       744.00000  2.85863e-07  1.36985e+07
       744.10000  2.85863e-07  1.36985e+07
       744.20000  2.85863e-07  1.36957e+07
       744.30000  2.85863e-07  1.36957e+07
       744.40000  2.85863e-07  1.36957e+07
       744.50000  4.28325e-07  2.05168e+07
       744.60000  4.28325e-07  2.05168e+07
       744.70000  4.28325e-07  2.05168e+07
       744.80000  4.28325e-07  2.05168e+07
       744.90000  4.28325e-07  2.05211e+07
       745.00000  4.28325e-07  2.05211e+07
       745.10000  4.28325e-07  2.05339e+07
       745.20000  4.28325e-07  2.05468e+07
       745.30000  4.28325e-07  2.05553e+07
       745.40000  4.28325e-07  2.05682e+07
       745.50000  3.48404e-07  1.67373e+07
       745.60000  3.48404e-07  1.67443e+07
       745.70000  3.48404e-07  1.67512e+07
       745.80000  3.48404e-07  1.67582e+07
       745.90000  3.48404e-07  1.67617e+07
       746.00000  3.48404e-07  1.67687e+07
       746.10000  3.48404e-07  1.67722e+07
       746.20000  3.48404e-07  1.67756e+07
       746.30000  3.46815e-07  1.67026e+07
       746.40000  3.46815e-07  1.67061e+07
       746.50000  3.32467e-07  1.60183e+07
       746.60000  3.32467e-07  1.60183e+07
       746.70000  3.32467e-07  1.60216e+07
       746.80000  3.32467e-07  1.60216e+07
       746.90000  3.32467e-07  1.60216e+07
       747.00000  3.32467e-07  1.60216e+07
       747.10000  3.32467e-07  1.60116e+07
       747.20000  3.32467e-07  1.60050e+07
       747.30000  3.32467e-07  1.59983e+07
       747.40000  3.32467e-07  1.59917e+07
       747.50000  4.74947e-07  2.28355e+07
       747.60000  4.74947e-07  2.28260e+07
       747.70000  4.74947e-07  2.28165e+07
       747.80000  4.74947e-07  2.28070e+07
       747.90000  4.74947e-07  2.27975e+07
       748.00000  4.74947e-07  2.27880e+07
       748.10000  4.74947e-07  2.27832e+07
       748.20000  4.74947e-07  2.27737e+07
       748.30000  4.74947e-07  2.27642e+07
       748.40000  4.74947e-07  2.27595e+07
       748.50000  3.24471e-07  1.55422e+07
       748.60000  3.24471e-07  1.55357e+07
       748.70000  3.24471e-07  1.55324e+07
       748.80000  3.23327e-07  1.54712e+07
       748.90000  3.23327e-07  1.54680e+07
       749.00000  3.23327e-07  1.54647e+07
       749.10000  3.23327e-07  1.54583e+07
       749.20000  3.23327e-07  1.54550e+07
       749.30000  3.23327e-07  1.54518e+07
       749.40000  3.23327e-07  1.54486e+07
       749.50000  3.88891e-07  1.85773e+07
       749.60000  3.88891e-07  1.85734e+07
       749.70000  3.88891e-07  1.85657e+07
       749.80000  3.88891e-07  1.85618e+07
       749.90000  3.88891e-07  1.85618e+07
       750.00000  3.88891e-07  1.85579e+07
       750.10000  3.88891e-07  1.85540e+07
       750.20000  3.88891e-07  1.85501e+07
       750.30000  3.88891e-07  1.85462e+07
       750.40000  3.88891e-07  1.85462e+07
       750.50000  4.83149e-07  2.30365e+07
       750.60000  4.83149e-07  2.30317e+07
       750.70000  4.83149e-07  2.30317e+07
       750.80000  4.83149e-07  2.30269e+07
       750.90000  4.83149e-07  2.30269e+07
       751.00000  4.83149e-07  2.30220e+07
       751.10000  4.83149e-07  2.30220e+07
       751.20000  4.83149e-07  2.30220e+07
       751.30000  4.82068e-07  2.29657e+07
       751.40000  4.82068e-07  2.29657e+07
       751.50000  4.84426e-07  2.30781e+07
       751.60000  4.84426e-07  2.30781e+07
       751.70000  4.84426e-07  2.30781e+07
       751.80000  4.84426e-07  2.30781e+07
       751.90000  4.84426e-07  2.30781e+07
       752.00000  4.84426e-07  2.30781e+07
       752.10000  4.84426e-07  2.30781e+07
       752.20000  4.84426e-07  2.30781e+07
       752.30000  4.84426e-07  2.30781e+07
       752.40000  4.84426e-07  2.30781e+07
       752.50000  5.25475e-07  2.50389e+07
       752.60000  5.25475e-07  2.50389e+07
       752.70000  5.25475e-07  2.50389e+07
       752.80000  5.25475e-07  2.50442e+07
       752.90000  5.25475e-07  2.50442e+07
       753.00000  5.25475e-07  2.50494e+07
       753.10000  5.25475e-07  2.50494e+07
       753.20000  5.25475e-07  2.50494e+07
       753.30000  5.25475e-07  2.50494e+07
       753.40000  5.25475e-07  2.50494e+07
       753.50000  5.08333e-07  2.42323e+07
       753.60000  5.08333e-07  2.42323e+07
       753.70000  5.08333e-07  2.42323e+07
       753.80000  5.08077e-07  2.42200e+07
       753.90000  5.08077e-07  2.42200e+07
       754.00000  5.08077e-07  2.42200e+07
       754.10000  5.08077e-07  2.42200e+07
       754.20000  5.08077e-07  2.42149e+07
       754.30000  5.08077e-07  2.42149e+07
       754.40000  5.08077e-07  2.42149e+07
       754.50000  3.13033e-07  1.49192e+07
       754.60000  3.13033e-07  1.49192e+07
       754.70000  3.13033e-07  1.49160e+07
       754.80000  3.13033e-07  1.49160e+07
       754.90000  3.13033e-07  1.49129e+07
       755.00000  3.13033e-07  1.49129e+07
       755.10000  3.13033e-07  1.49098e+07
       755.20000  3.13033e-07  1.49098e+07
       755.30000  3.13033e-07  1.49066e+07
       755.40000  3.13033e-07  1.49066e+07
       755.50000  4.38888e-07  2.08955e+07
       755.60000  4.38888e-07  2.08911e+07
       755.70000  4.38888e-07  2.08911e+07
       755.80000  4.38888e-07  2.08867e+07
       755.90000  4.38888e-07  2.08823e+07
       756.00000  4.38888e-07  2.08823e+07
       756.10000  4.38888e-07  2.08779e+07
       756.20000  4.38888e-07  2.08735e+07
       756.30000  4.38189e-07  2.08359e+07
       756.40000  4.38189e-07  2.08359e+07
       756.50000  4.81551e-07  2.28929e+07
       756.60000  4.81551e-07  2.28881e+07
       756.70000  4.81551e-07  2.28833e+07
       756.80000  4.81551e-07  2.28833e+07
       756.90000  4.81551e-07  2.28785e+07
       757.00000  4.81551e-07  2.28737e+07
       757.10000  4.81551e-07  2.28688e+07
       757.20000  4.81551e-07  2.28640e+07
       757.30000  4.81551e-07  2.28640e+07
       757.40000  4.81551e-07  2.28592e+07
       757.50000  4.96066e-07  2.35433e+07
       757.60000  4.96066e-07  2.35383e+07
       757.70000  4.96066e-07  2.35334e+07
       757.80000  4.96066e-07  2.35284e+07
       757.90000  4.96066e-07  2.35234e+07
       758.00000  4.96066e-07  2.35234e+07
       758.10000  4.96066e-07  2.35185e+07
       758.20000  4.96066e-07  2.35135e+07
       758.30000  4.96066e-07  2.35085e+07
       758.40000  4.96066e-07  2.35036e+07
       758.50000  4.97286e-07  2.35564e+07
       758.60000  4.97286e-07  2.35515e+07
       758.70000  4.97286e-07  2.35465e+07
       758.80000  4.95944e-07  2.34780e+07
       758.90000  4.95944e-07  2.34730e+07
       759.00000  4.95944e-07  2.34681e+07
       759.10000  4.95944e-07  2.34681e+07
       759.20000  4.95944e-07  2.34631e+07
       759.30000  4.95944e-07  2.34631e+07
       759.40000  4.95944e-07  2.34582e+07
       759.50000  4.96232e-07  2.34718e+07
       759.60000  4.96232e-07  2.34718e+07
       759.70000  4.96232e-07  2.34668e+07
       759.80000  4.96232e-07  2.34668e+07
       759.90000  4.96232e-07  2.34668e+07
       760.00000  4.96232e-07  2.34668e+07
       760.10000  4.96232e-07  2.34668e+07
       760.20000  4.96232e-07  2.34668e+07
       760.30000  4.96232e-07  2.34718e+07
       760.40000  4.96232e-07  2.34718e+07
       760.50000  5.74247e-07  2.71619e+07
       760.60000  5.74247e-07  2.71676e+07
       760.70000  5.74247e-07  2.71676e+07
       760.80000  5.74247e-07  2.71734e+07
       760.90000  5.74247e-07  2.71734e+07
       761.00000  5.74247e-07  2.71791e+07
       761.10000  5.74247e-07  2.72021e+07
       761.20000  5.74247e-07  2.72193e+07
       761.30000  5.73053e-07  2.71799e+07
       761.40000  5.73053e-07  2.71971e+07
       761.50000  5.92565e-07  2.81409e+07
       761.60000  5.92565e-07  2.81528e+07
       761.70000  5.92565e-07  2.81646e+07
       761.80000  5.92565e-07  2.81765e+07
       761.90000  5.92565e-07  2.81883e+07
       762.00000  5.92565e-07  2.81943e+07
       762.10000  5.92565e-07  2.82061e+07
       762.20000  5.92565e-07  2.82120e+07
       762.30000  5.92565e-07  2.82180e+07
       762.40000  5.92565e-07  2.82180e+07
       762.50000  6.73856e-07  3.20890e+07
       762.60000  6.73856e-07  3.20958e+07
       762.70000  6.73856e-07  3.20958e+07
       762.80000  6.73856e-07  3.20890e+07
       762.90000  6.73856e-07  3.20890e+07
       763.00000  6.73856e-07  3.20823e+07
       763.10000  6.73856e-07  3.20755e+07
       763.20000  6.73856e-07  3.20688e+07
       763.30000  6.73856e-07  3.20553e+07
       763.40000  6.73856e-07  3.20419e+07
       763.50000  6.59888e-07  3.13645e+07
       763.60000  6.59888e-07  3.13513e+07
       763.70000  6.59888e-07  3.13381e+07
       763.80000  6.58199e-07  3.12381e+07
       763.90000  6.58199e-07  3.12184e+07
       764.00000  6.58199e-07  3.11986e+07
       764.10000  6.58199e-07  3.11789e+07
       764.20000  6.58199e-07  3.11525e+07
       764.30000  6.58199e-07  3.11262e+07
       764.40000  6.58199e-07  3.10999e+07
       764.50000  6.82033e-07  3.21988e+07
       764.60000  6.82033e-07  3.21715e+07
       764.70000  6.82033e-07  3.21374e+07
       764.80000  6.82033e-07  3.21033e+07
       764.90000  6.82033e-07  3.20692e+07
       765.00000  6.82033e-07  3.20283e+07
       765.10000  6.82033e-07  3.19533e+07
       765.20000  6.82033e-07  3.18782e+07
       765.30000  6.82033e-07  3.18100e+07
       765.40000  6.82033e-07  3.17418e+07
       765.50000  7.62535e-07  3.54197e+07
       765.60000  7.62535e-07  3.53587e+07
       765.70000  7.62535e-07  3.52901e+07
       765.80000  7.62535e-07  3.52367e+07
       765.90000  7.62535e-07  3.51833e+07
       766.00000  7.62535e-07  3.51300e+07
       766.10000  7.62535e-07  3.50842e+07
       766.20000  7.62535e-07  3.50385e+07
       766.30000  7.62514e-07  3.49994e+07
       766.40000  7.62514e-07  3.49689e+07
       766.50000  7.69594e-07  3.52628e+07
       766.60000  7.69594e-07  3.52320e+07
       766.70000  7.69594e-07  3.52166e+07
       766.80000  7.69594e-07  3.51935e+07
       766.90000  7.69594e-07  3.51781e+07
       767.00000  7.69594e-07  3.51704e+07
       767.10000  7.69594e-07  3.52089e+07
       767.20000  7.69594e-07  3.52551e+07
       767.30000  7.69594e-07  3.52936e+07
       767.40000  7.69594e-07  3.53320e+07
       767.50000  9.13701e-07  4.19937e+07
       767.60000  9.13701e-07  4.20394e+07
       767.70000  9.13701e-07  4.20851e+07
       767.80000  9.13701e-07  4.21216e+07
       767.90000  9.13701e-07  4.21673e+07
       768.00000  9.13701e-07  4.22038e+07
       768.10000  9.13701e-07  4.22404e+07
       768.20000  9.13701e-07  4.22769e+07
       768.30000  9.13701e-07  4.23043e+07
       768.40000  9.13701e-07  4.23409e+07
       768.50000  1.06915e-06  4.95764e+07
       768.60000  1.06915e-06  4.96084e+07
       768.70000  1.06915e-06  4.96405e+07
       768.80000  1.06858e-06  4.96462e+07
       768.90000  1.06858e-06  4.96783e+07
       769.00000  1.06858e-06  4.96996e+07
       769.10000  1.06858e-06  4.97317e+07
       769.20000  1.06858e-06  4.97531e+07
       769.30000  1.06858e-06  4.97744e+07
       769.40000  1.06858e-06  4.97958e+07
       769.50000  1.09523e-06  5.10488e+07
       769.60000  1.09523e-06  5.10707e+07
       769.70000  1.09523e-06  5.10816e+07
       769.80000  1.09523e-06  5.11035e+07
       769.90000  1.09523e-06  5.11145e+07
       770.00000  1.09523e-06  5.11145e+07
       770.10000  1.09523e-06  5.11254e+07
       770.20000  1.09523e-06  5.11364e+07
       770.30000  1.09523e-06  5.11364e+07
       770.40000  1.09523e-06  5.11364e+07
       770.50000  1.21269e-06  5.66207e+07
       770.60000  1.21269e-06  5.66207e+07
       770.70000  1.21269e-06  5.66207e+07
       770.80000  1.21269e-06  5.66207e+07
       770.90000  1.21269e-06  5.66086e+07
       771.00000  1.21269e-06  5.65965e+07
       771.10000  1.21269e-06  5.66450e+07
       771.20000  1.21269e-06  5.66813e+07
       771.30000  1.20898e-06  5.65442e+07
       771.40000  1.20898e-06  5.65804e+07
       771.50000  1.47383e-06  6.90196e+07
       771.60000  1.47383e-06  6.90491e+07
       771.70000  1.47383e-06  6.90933e+07
       771.80000  1.47383e-06  6.91228e+07
       771.90000  1.47383e-06  6.91375e+07
       772.00000  1.47383e-06  6.91670e+07
       772.10000  1.47383e-06  6.91817e+07
       772.20000  1.47383e-06  6.91965e+07
       772.30000  1.47383e-06  6.92112e+07
       772.40000  1.47383e-06  6.92260e+07
       772.50000  1.50393e-06  7.06397e+07
       772.60000  1.50393e-06  7.06397e+07
       772.70000  1.50393e-06  7.06397e+07
       772.80000  1.50393e-06  7.06247e+07
       772.90000  1.50393e-06  7.06247e+07
       773.00000  1.50393e-06  7.06097e+07
       773.10000  1.50393e-06  7.05194e+07
       773.20000  1.50393e-06  7.04442e+07
       773.30000  1.50393e-06  7.03540e+07
       773.40000  1.50393e-06  7.02788e+07
       773.50000  1.73927e-06  8.11891e+07
       773.60000  1.73927e-06  8.11196e+07
       773.70000  1.73927e-06  8.10500e+07
       773.80000  1.73239e-06  8.06600e+07
       773.90000  1.73239e-06  8.05908e+07
       774.00000  1.73239e-06  8.05215e+07
       774.10000  1.73239e-06  8.04695e+07
       774.20000  1.73239e-06  8.04175e+07
       774.30000  1.73239e-06  8.03829e+07
       774.40000  1.73239e-06  8.03309e+07
       774.50000  1.72303e-06  7.98624e+07
       774.60000  1.72303e-06  7.98452e+07
       774.70000  1.72303e-06  7.98107e+07
       774.80000  1.72303e-06  7.97935e+07
       774.90000  1.72303e-06  7.97763e+07
       775.00000  1.72303e-06  7.97590e+07
       775.10000  1.72303e-06  7.97590e+07
       775.20000  1.72303e-06  7.97590e+07
       775.30000  1.72303e-06  7.97590e+07
       775.40000  1.72303e-06  7.97590e+07
       775.50000  3.42763e-06  1.58699e+08
       775.60000  3.42763e-06  1.58733e+08
       775.70000  3.42763e-06  1.58768e+08
       775.80000  3.42763e-06  1.58802e+08
       775.90000  3.42763e-06  1.58871e+08
       776.00000  3.42763e-06  1.58939e+08
       776.10000  3.42763e-06  1.59008e+08
       776.20000  3.42763e-06  1.59110e+08
       776.30000  3.41894e-06  1.58810e+08
       776.40000  3.41894e-06  1.58912e+08
       776.50000  3.40042e-06  1.58154e+08
       776.60000  3.40042e-06  1.58290e+08
       776.70000  3.40042e-06  1.58426e+08
       776.80000  3.40042e-06  1.58562e+08
       776.90000  3.40042e-06  1.58732e+08
       777.00000  3.40042e-06  1.58868e+08
       777.10000  3.40042e-06  1.58800e+08
       777.20000  3.40042e-06  1.58766e+08
       777.30000  3.40042e-06  1.58698e+08
       777.40000  3.40042e-06  1.58630e+08
       777.50000  3.38454e-06  1.57821e+08
       777.60000  3.38454e-06  1.57787e+08
       777.70000  3.38454e-06  1.57720e+08
       777.80000  3.38454e-06  1.57686e+08
       777.90000  3.38454e-06  1.57652e+08
       778.00000  3.38454e-06  1.57584e+08
       778.10000  3.38454e-06  1.57551e+08
       778.20000  3.38454e-06  1.57517e+08
       778.30000  3.38454e-06  1.57483e+08
       778.40000  3.38454e-06  1.57449e+08
       778.50000  5.04860e-06  2.34861e+08
       778.60000  5.04860e-06  2.34810e+08
       778.70000  5.04860e-06  2.34760e+08
       778.80000  5.03581e-06  2.34165e+08
       778.90000  5.03581e-06  2.34165e+08
       779.00000  5.03581e-06  2.34115e+08
       779.10000  5.03581e-06  2.34215e+08
       779.20000  5.03581e-06  2.34266e+08
       779.30000  5.03581e-06  2.34366e+08
       779.40000  5.03581e-06  2.34417e+08
       779.50000  5.00161e-06  2.32875e+08
       779.60000  5.00161e-06  2.32925e+08
       779.70000  5.00161e-06  2.32975e+08
       779.80000  5.00161e-06  2.33025e+08
       779.90000  5.00161e-06  2.33075e+08
       780.00000  5.00161e-06  2.33125e+08
       780.10000  5.00161e-06  2.33125e+08
       780.20000  5.00161e-06  2.33175e+08
       780.30000  5.00161e-06  2.33175e+08
       780.40000  5.00161e-06  2.33175e+08
       780.50000  6.63560e-06  3.09352e+08
       780.60000  6.63560e-06  3.09352e+08
       780.70000  6.63560e-06  3.09352e+08
       780.80000  6.63560e-06  3.09352e+08
       780.90000  6.63560e-06  3.09352e+08
       781.00000  6.63560e-06  3.09285e+08
       781.10000  6.63560e-06  3.09285e+08
       781.20000  6.63560e-06  3.09219e+08
       781.30000  6.59871e-06  3.07434e+08
       781.40000  6.59871e-06  3.07368e+08
       781.50000  8.20612e-06  3.82159e+08
       781.60000  8.20612e-06  3.82077e+08
       781.70000  8.20612e-06  3.81995e+08
       781.80000  8.20612e-06  3.81913e+08
       781.90000  8.20612e-06  3.81749e+08
       782.00000  8.20612e-06  3.81666e+08
       782.10000  8.20612e-06  3.81502e+08
       782.20000  8.20612e-06  3.81338e+08
       782.30000  8.20612e-06  3.81256e+08
       782.40000  8.20612e-06  3.81092e+08
       782.50000  1.14299e-05  5.30576e+08
       782.60000  1.14299e-05  5.30233e+08
       782.70000  1.14299e-05  5.30004e+08
       782.80000  1.14299e-05  5.29776e+08
       782.90000  1.14299e-05  5.29433e+08
       783.00000  1.14299e-05  5.29204e+08
       783.10000  1.14299e-05  5.29433e+08
       783.20000  1.14299e-05  5.29662e+08
       783.30000  1.14299e-05  5.29890e+08
       783.40000  1.14299e-05  5.30004e+08
       783.50000  1.29754e-05  6.01930e+08
       783.60000  1.29754e-05  6.02189e+08
       783.70000  1.29754e-05  6.02319e+08
       783.80000  1.29093e-05  5.99507e+08
       783.90000  1.29093e-05  5.99765e+08
       784.00000  1.29093e-05  5.99894e+08
       784.10000  1.29093e-05  6.00023e+08
       784.20000  1.29093e-05  6.00281e+08
       784.30000  1.29093e-05  6.00410e+08
       784.40000  1.29093e-05  6.00540e+08
       784.50000  1.44547e-05  6.72579e+08
       784.60000  1.44547e-05  6.72724e+08
       784.70000  1.44547e-05  6.72869e+08
       784.80000  1.44547e-05  6.73013e+08
       784.90000  1.44547e-05  6.73158e+08
       785.00000  1.44547e-05  6.73158e+08
       785.10000  1.44547e-05  6.73158e+08
       785.20000  1.44547e-05  6.73158e+08
       785.30000  1.44547e-05  6.73158e+08
       785.40000  1.44547e-05  6.73158e+08
       785.50000  1.59755e-05  7.43978e+08
       785.60000  1.59755e-05  7.43978e+08
       785.70000  1.59755e-05  7.43978e+08
       785.80000  1.59755e-05  7.43978e+08
       785.90000  1.59755e-05  7.43978e+08
       786.00000  1.59755e-05  7.43978e+08
       786.10000  1.59755e-05  7.43978e+08
       786.20000  1.59755e-05  7.43978e+08
       786.30000  1.59487e-05  7.42731e+08
       786.40000  1.59487e-05  7.42731e+08
       786.50000  1.74349e-05  8.11944e+08
       786.60000  1.74349e-05  8.11944e+08
       786.70000  1.74349e-05  8.11944e+08
       786.80000  1.74349e-05  8.11944e+08
       786.90000  1.74349e-05  8.11944e+08
       787.00000  1.74349e-05  8.11944e+08
       787.10000  1.74349e-05  8.11944e+08
       787.20000  1.74349e-05  8.11944e+08
       787.30000  1.74349e-05  8.11944e+08
       787.40000  1.74349e-05  8.11944e+08
       787.50000  1.73713e-05  8.08982e+08
       787.60000  1.73713e-05  8.08982e+08
       787.70000  1.73713e-05  8.08982e+08
       787.80000  1.73713e-05  8.08982e+08
       787.90000  1.73713e-05  8.08982e+08
       788.00000  1.73713e-05  8.08982e+08
       788.10000  1.73713e-05  8.08982e+08
       788.20000  1.73713e-05  8.08982e+08
       788.30000  1.73713e-05  8.08982e+08
       788.40000  1.73713e-05  8.08982e+08
       788.50000  1.72199e-05  8.01932e+08
       788.60000  1.72199e-05  8.01932e+08
       788.70000  1.72199e-05  8.01932e+08
       788.80000  1.72229e-05  8.02072e+08
       788.90000  1.72229e-05  8.02072e+08
       789.00000  1.72229e-05  8.02072e+08
       789.10000  1.72229e-05  8.01727e+08
       789.20000  1.72229e-05  8.01211e+08
       789.30000  1.72229e-05  8.00694e+08
       789.40000  1.72229e-05  8.00350e+08
       789.50000  1.71509e-05  7.96490e+08
       789.60000  1.71509e-05  7.95976e+08
       789.70000  1.71509e-05  7.95633e+08
       789.80000  1.71509e-05  7.95118e+08
       789.90000  1.71509e-05  7.94604e+08
       790.00000  1.71509e-05  7.94260e+08
       790.10000  1.71509e-05  7.93746e+08
       790.20000  1.71509e-05  7.93403e+08
       790.30000  1.71509e-05  7.92888e+08
       790.40000  1.71509e-05  7.92545e+08
       790.50000  1.54846e-05  7.15080e+08
       790.60000  1.54846e-05  7.14616e+08
       790.70000  1.54846e-05  7.14306e+08
       790.80000  1.54846e-05  7.13842e+08
       790.90000  1.54846e-05  7.13532e+08
       791.00000  1.54846e-05  7.13067e+08
       791.10000  1.54846e-05  7.12603e+08
       791.20000  1.54846e-05  7.12293e+08
       791.30000  1.54395e-05  7.09754e+08
       791.40000  1.54395e-05  7.09291e+08
       791.50000  1.38107e-05  6.34047e+08
       791.60000  1.38107e-05  6.33633e+08
       791.70000  1.38107e-05  6.33357e+08
       791.80000  1.38107e-05  6.32943e+08
       791.90000  1.38107e-05  6.32666e+08
       792.00000  1.38107e-05  6.32252e+08
       792.10000  1.38107e-05  6.31976e+08
       792.20000  1.38107e-05  6.31700e+08
       792.30000  1.38107e-05  6.31285e+08
       792.40000  1.38107e-05  6.31009e+08
       792.50000  1.22038e-05  5.57348e+08
       792.60000  1.22038e-05  5.57104e+08
       792.70000  1.22038e-05  5.56860e+08
       792.80000  1.22038e-05  5.56616e+08
       792.90000  1.22038e-05  5.56372e+08
       793.00000  1.22038e-05  5.56128e+08
       793.10000  1.22038e-05  5.55761e+08
       793.20000  1.22038e-05  5.55273e+08
       793.30000  1.22038e-05  5.54907e+08
       793.40000  1.22038e-05  5.54541e+08
       793.50000  1.21288e-05  5.50770e+08
       793.60000  1.21288e-05  5.50527e+08
       793.70000  1.21288e-05  5.50163e+08
       793.80000  1.20942e-05  5.48473e+08
       793.90000  1.20942e-05  5.48231e+08
       794.00000  1.20942e-05  5.48110e+08
       794.10000  1.20942e-05  5.47868e+08
       794.20000  1.20942e-05  5.47868e+08
       794.30000  1.20942e-05  5.47747e+08
       794.40000  1.20942e-05  5.47747e+08
       794.50000  1.05178e-05  4.76353e+08
       794.60000  1.05178e-05  4.76353e+08
       794.70000  1.05178e-05  4.76458e+08
       794.80000  1.05178e-05  4.76458e+08
       794.90000  1.05178e-05  4.76564e+08
       795.00000  1.05178e-05  4.76774e+08
       795.10000  1.05178e-05  4.77510e+08
       795.20000  1.05178e-05  4.78246e+08
       795.30000  1.05178e-05  4.78983e+08
       795.40000  1.05178e-05  4.79719e+08
       795.50000  1.04532e-05  4.77399e+08
       795.60000  1.04532e-05  4.78027e+08
       795.70000  1.04532e-05  4.78549e+08
       795.80000  1.04532e-05  4.79072e+08
       795.90000  1.04532e-05  4.79595e+08
       796.00000  1.04532e-05  4.80013e+08
       796.10000  1.04532e-05  4.80431e+08
       796.20000  1.04532e-05  4.80849e+08
       796.30000  1.04393e-05  4.80522e+08
       796.40000  1.04393e-05  4.80835e+08
       796.50000  1.03677e-05  4.77846e+08
       796.60000  1.03677e-05  4.78053e+08
       796.70000  1.03677e-05  4.78261e+08
       796.80000  1.03677e-05  4.78364e+08
       796.90000  1.03677e-05  4.78468e+08
       797.00000  1.03677e-05  4.78572e+08
       797.10000  1.03677e-05  4.78675e+08
       797.20000  1.03677e-05  4.78675e+08
       797.30000  1.03677e-05  4.78675e+08
       797.40000  1.03677e-05  4.78572e+08
       797.50000  1.03144e-05  4.76009e+08
       797.60000  1.03144e-05  4.75906e+08
       797.70000  1.03144e-05  4.75700e+08
       797.80000  1.03144e-05  4.75493e+08
       797.90000  1.03144e-05  4.75287e+08
       798.00000  1.03144e-05  4.74978e+08
       798.10000  1.03144e-05  4.74668e+08
       798.20000  1.03144e-05  4.74359e+08
       798.30000  1.03144e-05  4.73946e+08
       798.40000  1.03144e-05  4.73534e+08
       798.50000  1.02431e-05  4.69850e+08
       798.60000  1.02431e-05  4.69338e+08
       798.70000  1.02431e-05  4.68825e+08
       798.80000  1.02197e-05  4.67243e+08
       798.90000  1.02197e-05  4.66630e+08
       799.00000  1.02197e-05  4.66016e+08
       799.10000  1.02197e-05  4.66323e+08
       799.20000  1.02197e-05  4.66732e+08
       799.30000  1.02197e-05  4.67141e+08
       799.40000  1.02197e-05  4.67447e+08
       799.50000  1.01582e-05  4.64942e+08
       799.60000  1.01582e-05  4.65247e+08
       799.70000  1.01582e-05  4.65552e+08
       799.80000  1.01582e-05  4.65755e+08
       799.90000  1.01582e-05  4.65958e+08
       800.00000  1.01582e-05  4.66161e+08
       800.10000  1.01582e-05  4.66365e+08
       800.20000  1.01582e-05  4.66568e+08
       800.30000  1.01582e-05  4.66771e+08
       800.40000  1.01582e-05  4.66872e+08
       800.50000  1.00990e-05  4.64253e+08
       800.60000  1.00990e-05  4.64354e+08
       800.70000  1.00990e-05  4.64354e+08
       800.80000  1.00990e-05  4.64455e+08
       800.90000  1.00990e-05  4.64455e+08
       801.00000  1.00990e-05  4.64455e+08
       801.10000  1.00990e-05  4.64253e+08
       801.20000  1.00990e-05  4.64051e+08
       801.30000  1.00694e-05  4.62487e+08
       801.40000  1.00694e-05  4.62286e+08
       801.50000  1.00166e-05  4.59662e+08
       801.60000  1.00166e-05  4.59462e+08
       801.70000  1.00166e-05  4.59262e+08
       801.80000  1.00166e-05  4.59061e+08
       801.90000  1.00166e-05  4.58861e+08
       802.00000  1.00166e-05  4.58661e+08
       802.10000  1.00166e-05  4.58460e+08
       802.20000  1.00166e-05  4.58260e+08
       802.30000  1.00166e-05  4.58060e+08
       802.40000  1.00166e-05  4.57859e+08
       802.50000  9.95113e-06  4.54667e+08
       802.60000  9.95113e-06  4.54468e+08
       802.70000  9.95113e-06  4.54269e+08
       802.80000  9.95113e-06  4.53971e+08
       802.90000  9.95113e-06  4.53771e+08
       803.00000  9.95113e-06  4.53572e+08
       803.10000  9.95113e-06  4.53373e+08
       803.20000  9.95113e-06  4.53174e+08
       803.30000  9.95113e-06  4.52975e+08
       803.40000  9.95113e-06  4.52677e+08
       803.50000  1.12849e-05  5.13126e+08
       803.60000  1.12849e-05  5.12900e+08
       803.70000  1.12849e-05  5.12675e+08
       803.80000  1.12499e-05  5.10857e+08
       803.90000  1.12499e-05  5.10519e+08
       804.00000  1.12499e-05  5.10294e+08
       804.10000  1.12499e-05  5.10069e+08
       804.20000  1.12499e-05  5.09844e+08
       804.30000  1.12499e-05  5.09507e+08
       804.40000  1.12499e-05  5.09282e+08
       804.50000  1.12056e-05  5.07053e+08
       804.60000  1.12056e-05  5.06716e+08
       804.70000  1.12056e-05  5.06492e+08
       804.80000  1.12056e-05  5.06268e+08
       804.90000  1.12056e-05  5.05932e+08
       805.00000  1.12056e-05  5.05708e+08
       805.10000  1.12056e-05  5.06156e+08
       805.20000  1.12056e-05  5.06716e+08
       805.30000  1.12056e-05  5.07053e+08
       805.40000  1.12056e-05  5.07501e+08
       805.50000  1.25027e-05  5.66621e+08
       805.60000  1.25027e-05  5.66996e+08
       805.70000  1.25027e-05  5.67371e+08
       805.80000  1.25027e-05  5.67621e+08
       805.90000  1.25027e-05  5.67871e+08
       806.00000  1.25027e-05  5.68121e+08
       806.10000  1.25027e-05  5.68246e+08
       806.20000  1.25027e-05  5.68371e+08
       806.30000  1.24782e-05  5.67384e+08
       806.40000  1.24782e-05  5.67509e+08
       806.50000  1.37619e-05  6.25889e+08
       806.60000  1.37619e-05  6.25889e+08
       806.70000  1.37619e-05  6.25752e+08
       806.80000  1.37619e-05  6.25752e+08
       806.90000  1.37619e-05  6.25614e+08
       807.00000  1.37619e-05  6.25339e+08
       807.10000  1.37619e-05  6.24238e+08
       807.20000  1.37619e-05  6.22999e+08
       807.30000  1.37619e-05  6.21898e+08
       807.40000  1.37619e-05  6.20935e+08
       807.50000  1.36797e-05  6.16270e+08
       807.60000  1.36797e-05  6.15313e+08
       807.70000  1.36797e-05  6.14492e+08
       807.80000  1.36797e-05  6.13808e+08
       807.90000  1.36797e-05  6.13124e+08
       808.00000  1.36797e-05  6.12440e+08
       808.10000  1.36797e-05  6.11893e+08
       808.20000  1.36797e-05  6.11346e+08
       808.30000  1.36797e-05  6.10798e+08
       808.40000  1.36797e-05  6.10388e+08
       808.50000  1.49471e-05  6.66642e+08
       808.60000  1.49471e-05  6.66343e+08
       808.70000  1.49471e-05  6.66044e+08
       808.80000  1.49330e-05  6.65265e+08
       808.90000  1.49330e-05  6.65116e+08
       809.00000  1.49330e-05  6.65116e+08
       809.10000  1.49330e-05  6.65116e+08
       809.20000  1.49330e-05  6.65265e+08
       809.30000  1.49330e-05  6.65414e+08
       809.40000  1.49330e-05  6.65564e+08
       809.50000  1.61789e-05  7.21419e+08
       809.60000  1.61789e-05  7.21904e+08
       809.70000  1.61789e-05  7.22389e+08
       809.80000  1.61789e-05  7.22875e+08
       809.90000  1.61789e-05  7.23522e+08
       810.00000  1.61789e-05  7.24169e+08
       810.10000  1.61789e-05  7.24978e+08
       810.20000  1.61789e-05  7.25787e+08
       810.30000  1.61789e-05  7.26596e+08
       810.40000  1.61789e-05  7.27567e+08
       810.50000  1.60842e-05  7.24434e+08
       810.60000  1.60842e-05  7.25399e+08
       810.70000  1.60842e-05  7.26686e+08
       810.80000  1.60842e-05  7.27972e+08
       810.90000  1.60842e-05  7.29259e+08
       811.00000  1.60842e-05  7.30707e+08
       811.10000  1.60842e-05  7.30867e+08
       811.20000  1.60842e-05  7.31189e+08
       811.30000  1.60736e-05  7.30868e+08
       811.40000  1.60736e-05  7.31190e+08
       811.50000  1.59748e-05  7.26852e+08
       811.60000  1.59748e-05  7.27012e+08
       811.70000  1.59748e-05  7.27171e+08
       811.80000  1.59748e-05  7.27331e+08
       811.90000  1.59748e-05  7.27491e+08
       812.00000  1.59748e-05  7.27651e+08
       812.10000  1.59748e-05  7.27651e+08
       812.20000  1.59748e-05  7.27810e+08
       812.30000  1.59748e-05  7.27970e+08
       812.40000  1.59748e-05  7.27970e+08
       812.50000  1.45393e-05  6.62557e+08
       812.60000  1.45393e-05  6.62702e+08
       812.70000  1.45393e-05  6.62702e+08
       812.80000  1.45393e-05  6.62702e+08
       812.90000  1.45393e-05  6.62702e+08
       813.00000  1.45393e-05  6.62702e+08
       813.10000  1.45393e-05  6.62411e+08
       813.20000  1.45393e-05  6.62266e+08
       813.30000  1.45393e-05  6.61975e+08
       813.40000  1.45393e-05  6.61830e+08
       813.50000  1.31239e-05  5.97138e+08
       813.60000  1.31239e-05  5.97007e+08
       813.70000  1.31239e-05  5.96876e+08
       813.80000  1.31225e-05  5.96679e+08
       813.90000  1.31225e-05  5.96548e+08
       814.00000  1.31225e-05  5.96286e+08
       814.10000  1.31225e-05  5.96154e+08
       814.20000  1.31225e-05  5.96023e+08
       814.30000  1.31225e-05  5.95892e+08
       814.40000  1.31225e-05  5.95892e+08
       814.50000  1.30094e-05  5.90629e+08
       814.60000  1.30094e-05  5.90499e+08
       814.70000  1.30094e-05  5.90369e+08
       814.80000  1.30094e-05  5.90239e+08
       814.90000  1.30094e-05  5.90239e+08
       815.00000  1.30094e-05  5.90109e+08
       815.10000  1.30094e-05  5.90629e+08
       815.20000  1.30094e-05  5.91019e+08
       815.30000  1.30094e-05  5.91409e+08
       815.40000  1.30094e-05  5.91670e+08
       815.50000  1.16198e-05  5.28818e+08
       815.60000  1.16198e-05  5.28934e+08
       815.70000  1.16198e-05  5.29167e+08
       815.80000  1.16198e-05  5.29167e+08
       815.90000  1.16198e-05  5.29283e+08
       816.00000  1.16198e-05  5.29283e+08
       816.10000  1.16198e-05  5.29283e+08
       816.20000  1.16198e-05  5.29167e+08
       816.30000  1.16195e-05  5.29036e+08
       816.40000  1.16195e-05  5.28920e+08
       816.50000  1.02772e-05  4.67613e+08
       816.60000  1.02772e-05  4.67408e+08
       816.70000  1.02772e-05  4.67100e+08
       816.80000  1.02772e-05  4.66791e+08
       816.90000  1.02772e-05  4.66483e+08
       817.00000  1.02772e-05  4.66072e+08
       817.10000  1.02772e-05  4.64633e+08
       817.20000  1.02772e-05  4.63297e+08
       817.30000  1.02772e-05  4.62064e+08
       817.40000  1.02772e-05  4.60830e+08
       817.50000  8.92376e-06  3.99160e+08
       817.60000  8.92376e-06  3.98268e+08
       817.70000  8.92376e-06  3.97375e+08
       817.80000  8.92376e-06  3.96483e+08
       817.90000  8.92376e-06  3.95769e+08
       818.00000  8.92376e-06  3.94966e+08
       818.10000  8.92376e-06  3.94341e+08
       818.20000  8.92376e-06  3.93716e+08
       818.30000  8.92376e-06  3.93092e+08
       818.40000  8.92376e-06  3.92646e+08
       818.50000  7.60736e-06  3.34267e+08
       818.60000  7.60736e-06  3.33963e+08
       818.70000  7.60736e-06  3.33659e+08
       818.80000  7.60620e-06  3.33304e+08
       818.90000  7.60620e-06  3.33152e+08
       819.00000  7.60620e-06  3.32923e+08
       819.10000  7.60620e-06  3.32847e+08
       819.20000  7.60620e-06  3.32771e+08
       819.30000  7.60620e-06  3.32695e+08
       819.40000  7.60620e-06  3.32695e+08
       819.50000  6.27929e-06  2.74719e+08
       819.60000  6.27929e-06  2.74782e+08
       819.70000  6.27929e-06  2.74907e+08
       819.80000  6.27929e-06  2.75096e+08
       819.90000  6.27929e-06  2.75284e+08
       820.00000  6.27929e-06  2.75535e+08
       820.10000  6.27929e-06  2.75786e+08
       820.20000  6.27929e-06  2.76100e+08
       820.30000  6.27929e-06  2.76477e+08
       820.40000  6.27929e-06  2.76854e+08
       820.50000  6.22924e-06  2.75083e+08
       820.60000  6.22924e-06  2.75519e+08
       820.70000  6.22924e-06  2.76017e+08
       820.80000  6.22924e-06  2.76516e+08
       820.90000  6.22924e-06  2.77076e+08
       821.00000  6.22924e-06  2.77699e+08
       821.10000  6.22924e-06  2.77575e+08
       821.20000  6.22924e-06  2.77512e+08
       821.30000  6.24710e-06  2.78183e+08
       821.40000  6.24710e-06  2.78121e+08
       821.50000  4.97107e-06  2.21212e+08
       821.60000  4.97107e-06  2.21163e+08
       821.70000  4.97107e-06  2.21113e+08
       821.80000  4.97107e-06  2.21014e+08
       821.90000  4.97107e-06  2.20964e+08
       822.00000  4.97107e-06  2.20914e+08
       822.10000  4.97107e-06  2.20914e+08
       822.20000  4.97107e-06  2.20864e+08
       822.30000  4.97107e-06  2.20815e+08
       822.40000  4.97107e-06  2.20815e+08
       822.50000  4.93349e-06  2.19096e+08
       822.60000  4.93349e-06  2.19096e+08
       822.70000  4.93349e-06  2.19047e+08
       822.80000  4.93349e-06  2.19047e+08
       822.90000  4.93349e-06  2.19047e+08
       823.00000  4.93349e-06  2.19047e+08
       823.10000  4.93349e-06  2.19047e+08
       823.20000  4.93349e-06  2.19047e+08
       823.30000  4.93349e-06  2.19047e+08
       823.40000  4.93349e-06  2.19047e+08
       823.50000  3.66895e-06  1.62938e+08
       823.60000  3.66895e-06  1.62938e+08
       823.70000  3.66895e-06  1.62975e+08
       823.80000  3.67896e-06  1.63419e+08
       823.90000  3.67896e-06  1.63456e+08
       824.00000  3.67896e-06  1.63493e+08
       824.10000  3.67896e-06  1.63530e+08
       824.20000  3.67896e-06  1.63567e+08
       824.30000  3.67896e-06  1.63603e+08
       824.40000  3.67896e-06  1.63677e+08
       824.50000  3.64564e-06  1.62231e+08
       824.60000  3.64564e-06  1.62304e+08
       824.70000  3.64564e-06  1.62340e+08
       824.80000  3.64564e-06  1.62413e+08
       824.90000  3.64564e-06  1.62486e+08
       825.00000  3.64564e-06  1.62559e+08
       825.10000  3.64564e-06  1.62632e+08
       825.20000  3.64564e-06  1.62705e+08
       825.30000  3.64564e-06  1.62814e+08
       825.40000  3.64564e-06  1.62887e+08
       825.50000  3.63224e-06  1.62398e+08
       825.60000  3.63224e-06  1.62470e+08
       825.70000  3.63224e-06  1.62579e+08
       825.80000  3.63224e-06  1.62688e+08
       825.90000  3.63224e-06  1.62797e+08
       826.00000  3.63224e-06  1.62906e+08
       826.10000  3.63224e-06  1.63015e+08
       826.20000  3.63224e-06  1.63088e+08
       826.30000  3.63466e-06  1.63305e+08
       826.40000  3.63466e-06  1.63378e+08
       826.50000  2.40096e-06  1.07947e+08
       826.60000  2.40096e-06  1.07995e+08
       826.70000  2.40096e-06  1.08043e+08
       826.80000  2.40096e-06  1.08067e+08
       826.90000  2.40096e-06  1.08091e+08
       827.00000  2.40096e-06  1.08115e+08
       827.10000  2.40096e-06  1.08115e+08
       827.20000  2.40096e-06  1.08139e+08
       827.30000  2.40096e-06  1.08139e+08
       827.40000  2.40096e-06  1.08139e+08
       827.50000  2.38049e-06  1.07217e+08
       827.60000  2.38049e-06  1.07217e+08
       827.70000  2.38049e-06  1.07193e+08
       827.80000  2.38049e-06  1.07169e+08
       827.90000  2.38049e-06  1.07146e+08
       828.00000  2.38049e-06  1.07122e+08
       828.10000  2.38049e-06  1.07050e+08
       828.20000  2.38049e-06  1.06955e+08
       828.30000  2.38049e-06  1.06860e+08
       828.40000  2.38049e-06  1.06765e+08
       828.50000  2.35945e-06  1.05751e+08
       828.60000  2.35945e-06  1.05656e+08
       828.70000  2.35945e-06  1.05585e+08
       828.80000  2.35754e-06  1.05429e+08
       828.90000  2.35754e-06  1.05335e+08
       829.00000  2.35754e-06  1.05264e+08
       829.10000  2.35754e-06  1.05193e+08
       829.20000  2.35754e-06  1.05123e+08
       829.30000  2.35754e-06  1.05052e+08
       829.40000  2.35754e-06  1.04981e+08
       829.50000  2.34456e-06  1.04333e+08
       829.60000  2.34456e-06  1.04262e+08
       829.70000  2.34456e-06  1.04192e+08
       829.80000  2.34456e-06  1.04122e+08
       829.90000  2.34456e-06  1.04075e+08
       830.00000  2.34456e-06  1.04004e+08
       830.10000  2.34456e-06  1.03958e+08
       830.20000  2.34456e-06  1.03887e+08
       830.30000  2.34456e-06  1.03840e+08
       830.40000  2.34456e-06  1.03770e+08
       830.50000  2.32489e-06  1.02853e+08
       830.60000  2.32489e-06  1.02806e+08
       830.70000  2.32489e-06  1.02737e+08
       830.80000  2.32489e-06  1.02690e+08
       830.90000  2.32489e-06  1.02644e+08
       831.00000  2.32489e-06  1.02597e+08
       831.10000  2.32489e-06  1.02551e+08
       831.20000  2.32489e-06  1.02504e+08
       831.30000  2.33119e-06  1.02759e+08
       831.40000  2.33119e-06  1.02712e+08
       831.50000  2.30795e-06  1.01642e+08
       831.60000  2.30795e-06  1.01619e+08
       831.70000  2.30795e-06  1.01573e+08
       831.80000  2.30795e-06  1.01527e+08
       831.90000  2.30795e-06  1.01504e+08
       832.00000  2.30795e-06  1.01481e+08
       832.10000  2.30795e-06  1.01388e+08
       832.20000  2.30795e-06  1.01296e+08
       832.30000  2.30795e-06  1.01227e+08
       832.40000  2.30795e-06  1.01158e+08
       832.50000  2.29183e-06  1.00382e+08
       832.60000  2.29183e-06  1.00336e+08
       832.70000  2.29183e-06  1.00290e+08
       832.80000  2.29183e-06  1.00222e+08
       832.90000  2.29183e-06  1.00199e+08
       833.00000  2.29183e-06  1.00153e+08
       833.10000  2.29183e-06  1.00107e+08
       833.20000  2.29183e-06  1.00084e+08
       833.30000  2.29183e-06  1.00061e+08
       833.40000  2.29183e-06  1.00038e+08
       833.50000  2.27671e-06  9.93784e+07
       833.60000  2.27671e-06  9.93556e+07
       833.70000  2.27671e-06  9.93556e+07
       833.80000  2.27909e-06  9.94593e+07
       833.90000  2.27909e-06  9.94821e+07
       834.00000  2.27909e-06  9.94821e+07
       834.10000  2.27909e-06  9.95961e+07
       834.20000  2.27909e-06  9.96873e+07
       834.30000  2.27909e-06  9.98012e+07
       834.40000  2.27909e-06  9.98924e+07
       834.50000  2.25534e-06  9.89417e+07
       834.60000  2.25534e-06  9.90319e+07
       834.70000  2.25534e-06  9.90996e+07
       834.80000  2.25534e-06  9.91672e+07
       834.90000  2.25534e-06  9.92575e+07
       835.00000  2.25534e-06  9.93251e+07
       835.10000  2.25534e-06  9.93702e+07
       835.20000  2.25534e-06  9.94379e+07
       835.30000  2.25534e-06  9.94830e+07
       835.40000  2.25534e-06  9.95281e+07
       835.50000  2.23558e-06  9.87008e+07
       835.60000  2.23558e-06  9.87455e+07
       835.70000  2.23558e-06  9.87678e+07
       835.80000  2.23558e-06  9.88126e+07
       835.90000  2.23558e-06  9.88349e+07
       836.00000  2.23558e-06  9.88573e+07
       836.10000  2.23558e-06  9.88126e+07
       836.20000  2.23558e-06  9.87902e+07
       836.30000  2.23457e-06  9.87008e+07
       836.40000  2.23457e-06  9.86784e+07
       836.50000  2.21910e-06  9.79731e+07
       836.60000  2.21910e-06  9.79287e+07
       836.70000  2.21910e-06  9.79065e+07
       836.80000  2.21910e-06  9.78843e+07
       836.90000  2.21910e-06  9.78399e+07
       837.00000  2.21910e-06  9.78177e+07
       837.10000  2.21910e-06  9.77956e+07
       837.20000  2.21910e-06  9.77734e+07
       837.30000  2.21910e-06  9.77512e+07
       837.40000  2.21910e-06  9.77290e+07
       837.50000  2.19809e-06  9.67819e+07
       837.60000  2.19809e-06  9.67599e+07
       837.70000  2.19809e-06  9.67379e+07
       837.80000  2.19809e-06  9.67159e+07
       837.90000  2.19809e-06  9.67159e+07
       838.00000  2.19809e-06  9.66939e+07
       838.10000  2.19809e-06  9.66720e+07
       838.20000  2.19809e-06  9.66720e+07
       838.30000  2.19809e-06  9.66720e+07
       838.40000  2.19809e-06  9.66720e+07
       838.50000  2.17984e-06  9.58477e+07
       838.60000  2.17984e-06  9.58477e+07
       838.70000  2.17984e-06  9.58477e+07
       838.80000  2.17325e-06  9.55361e+07
       838.90000  2.17325e-06  9.55361e+07
       839.00000  2.17325e-06  9.55361e+07
       839.10000  2.17325e-06  9.55144e+07
       839.20000  2.17325e-06  9.55144e+07
       839.30000  2.17325e-06  9.55144e+07
       839.40000  2.17325e-06  9.54926e+07
       839.50000  2.15790e-06  9.48180e+07
       839.60000  2.15790e-06  9.48180e+07
       839.70000  2.15790e-06  9.47964e+07
       839.80000  2.15790e-06  9.47964e+07
       839.90000  2.15790e-06  9.47964e+07
       840.00000  2.15790e-06  9.47748e+07
       840.10000  2.15790e-06  9.47748e+07
       840.20000  2.15790e-06  9.47748e+07
       840.30000  2.15790e-06  9.47532e+07
       840.40000  2.15790e-06  9.47532e+07
       840.50000  2.13914e-06  9.39295e+07
       840.60000  2.13914e-06  9.39081e+07
       840.70000  2.13914e-06  9.39081e+07
       840.80000  2.13914e-06  9.39081e+07
       840.90000  2.13914e-06  9.38867e+07
       841.00000  2.13914e-06  9.38867e+07
       841.10000  2.13914e-06  9.38867e+07
       841.20000  2.13914e-06  9.38867e+07
       841.30000  2.13902e-06  9.38602e+07
       841.40000  2.13902e-06  9.38602e+07
       841.50000  2.11843e-06  9.29567e+07
       841.60000  2.11843e-06  9.29355e+07
       841.70000  2.11843e-06  9.29355e+07
       841.80000  2.11843e-06  9.29355e+07
       841.90000  2.11843e-06  9.29143e+07
       842.00000  2.11843e-06  9.29143e+07
       842.10000  2.11843e-06  9.28296e+07
       842.20000  2.11843e-06  9.27660e+07
       842.30000  2.11843e-06  9.27025e+07
       842.40000  2.11843e-06  9.26178e+07
       842.50000  2.09519e-06  9.15387e+07
       842.60000  2.09519e-06  9.14967e+07
       842.70000  2.09519e-06  9.14339e+07
       842.80000  2.09519e-06  9.13920e+07
       842.90000  2.09519e-06  9.13291e+07
       843.00000  2.09519e-06  9.12872e+07
       843.10000  2.09519e-06  9.12453e+07
       843.20000  2.09519e-06  9.12034e+07
       843.30000  2.09519e-06  9.11825e+07
       843.40000  2.09519e-06  9.11406e+07
       843.50000  2.08125e-06  9.05137e+07
       843.60000  2.08125e-06  9.04929e+07
       843.70000  2.08125e-06  9.04721e+07
       843.80000  2.08426e-06  9.05817e+07
       843.90000  2.08426e-06  9.05817e+07
       844.00000  2.08426e-06  9.05609e+07
       844.10000  2.08426e-06  9.06234e+07
       844.20000  2.08426e-06  9.06651e+07
       844.30000  2.08426e-06  9.07068e+07
       844.40000  2.08426e-06  9.07485e+07
       844.50000  2.06408e-06  8.99111e+07
       844.60000  2.06408e-06  8.99524e+07
       844.70000  2.06408e-06  8.99730e+07
       844.80000  2.06408e-06  9.00143e+07
       844.90000  2.06408e-06  9.00350e+07
       845.00000  2.06408e-06  9.00763e+07
       845.10000  2.06408e-06  9.00969e+07
       845.20000  2.06408e-06  9.01175e+07
       845.30000  2.06408e-06  9.01588e+07
       845.40000  2.06408e-06  9.01795e+07
       845.50000  2.04352e-06  8.92813e+07
       845.60000  2.04352e-06  8.93018e+07
       845.70000  2.04352e-06  8.93222e+07
       845.80000  2.04352e-06  8.93426e+07
       845.90000  2.04352e-06  8.93426e+07
       846.00000  2.04352e-06  8.93631e+07
       846.10000  2.04352e-06  8.93631e+07
       846.20000  2.04352e-06  8.93631e+07
       846.30000  2.04890e-06  8.95983e+07
       846.40000  2.04890e-06  8.96188e+07
       846.50000  2.03515e-06  8.90174e+07
       846.60000  2.03515e-06  8.89971e+07
       846.70000  2.03515e-06  8.89971e+07
       846.80000  2.03515e-06  8.89971e+07
       846.90000  2.03515e-06  8.89767e+07
       847.00000  2.03515e-06  8.89767e+07
       847.10000  2.03515e-06  8.89564e+07
       847.20000  2.03515e-06  8.89564e+07
       847.30000  2.03515e-06  8.89360e+07
       847.40000  2.03515e-06  8.89157e+07
       847.50000  2.01343e-06  8.79465e+07
       847.60000  2.01343e-06  8.79263e+07
       847.70000  2.01343e-06  8.79062e+07
       847.80000  2.01343e-06  8.78861e+07
       847.90000  2.01343e-06  8.78458e+07
       848.00000  2.01343e-06  8.78257e+07
       848.10000  2.01343e-06  8.74028e+07
       848.20000  2.01343e-06  8.70203e+07
       848.30000  2.01343e-06  8.66377e+07
       848.40000  2.01343e-06  8.62753e+07
       848.50000  1.99109e-06  8.49799e+07
       848.60000  1.99109e-06  8.46812e+07
       848.70000  1.99109e-06  8.43826e+07
       848.80000  1.99869e-06  8.44249e+07
       848.90000  1.99869e-06  8.41650e+07
       849.00000  1.99869e-06  8.39252e+07
       849.10000  1.99869e-06  8.36854e+07
       849.20000  1.99869e-06  8.34855e+07
       849.30000  1.99869e-06  8.33056e+07
       849.40000  1.99869e-06  8.31257e+07
       849.50000  2.94722e-06  1.22368e+08
       849.60000  2.94722e-06  1.22162e+08
       849.70000  2.94722e-06  1.22015e+08
       849.80000  2.94722e-06  1.21867e+08
       849.90000  2.94722e-06  1.21750e+08
       850.00000  2.94722e-06  1.21661e+08
       850.10000  2.94722e-06  1.22310e+08
       850.20000  2.94722e-06  1.22928e+08
       850.30000  2.94722e-06  1.23488e+08
       850.40000  2.94722e-06  1.23989e+08
       850.50000  3.88980e-06  1.64266e+08
       850.60000  3.88980e-06  1.64811e+08
       850.70000  3.88980e-06  1.65278e+08
       850.80000  3.88980e-06  1.65705e+08
       850.90000  3.88980e-06  1.66055e+08
       851.00000  3.88980e-06  1.66367e+08
       851.10000  3.88980e-06  1.66600e+08
       851.20000  3.88980e-06  1.66795e+08
       851.30000  3.89392e-06  1.67088e+08
       851.40000  3.89392e-06  1.67127e+08
       851.50000  3.86049e-06  1.65692e+08
       851.60000  3.86049e-06  1.65615e+08
       851.70000  3.86049e-06  1.65499e+08
       851.80000  3.86049e-06  1.65306e+08
       851.90000  3.86049e-06  1.65036e+08
       852.00000  3.86049e-06  1.64727e+08
       852.10000  3.86049e-06  1.64341e+08
       852.20000  3.86049e-06  1.63916e+08
       852.30000  3.86049e-06  1.63415e+08
       852.40000  3.86049e-06  1.62874e+08
       852.50000  2.87157e-06  1.20663e+08
       852.60000  2.87157e-06  1.20175e+08
       852.70000  2.87157e-06  1.19601e+08
       852.80000  2.87157e-06  1.19026e+08
       852.90000  2.87157e-06  1.18366e+08
       853.00000  2.87157e-06  1.17677e+08
       853.10000  2.87157e-06  1.16930e+08
       853.20000  2.87157e-06  1.16155e+08
       853.30000  2.87157e-06  1.15322e+08
       853.40000  2.87157e-06  1.14461e+08
       853.50000  2.84905e-06  1.12652e+08
       853.60000  2.84905e-06  1.11683e+08
       853.70000  2.84905e-06  1.10686e+08
       853.80000  2.85286e-06  1.09778e+08
       853.90000  2.85286e-06  1.08694e+08
       854.00000  2.85286e-06  1.07553e+08
       854.10000  2.85286e-06  1.08352e+08
       854.20000  2.85286e-06  1.09150e+08
       854.30000  2.85286e-06  1.09921e+08
       854.40000  2.85286e-06  1.10662e+08
       854.50000  2.83445e-06  1.10657e+08
       854.60000  2.83445e-06  1.11366e+08
       854.70000  2.83445e-06  1.12046e+08
       854.80000  2.83445e-06  1.12698e+08
       854.90000  2.83445e-06  1.13350e+08
       855.00000  2.83445e-06  1.13973e+08
       855.10000  2.83445e-06  1.14569e+08
       855.20000  2.83445e-06  1.15135e+08
       855.30000  2.83445e-06  1.15702e+08
       855.40000  2.83445e-06  1.16213e+08
       855.50000  3.74875e-06  1.54411e+08
       855.60000  3.74875e-06  1.55048e+08
       855.70000  3.74875e-06  1.55686e+08
       855.80000  3.74875e-06  1.56285e+08
       855.90000  3.74875e-06  1.56848e+08
       856.00000  3.74875e-06  1.57373e+08
       856.10000  3.74875e-06  1.57785e+08
       856.20000  3.74875e-06  1.58160e+08
       856.30000  3.75296e-06  1.58713e+08
       856.40000  3.75296e-06  1.59088e+08
       856.50000  2.79460e-06  1.18715e+08
       856.60000  2.79460e-06  1.18966e+08
       856.70000  2.79460e-06  1.19190e+08
       856.80000  2.79460e-06  1.19413e+08
       856.90000  2.79460e-06  1.19609e+08
       857.00000  2.79460e-06  1.19805e+08
       857.10000  2.79460e-06  1.20000e+08
       857.20000  2.79460e-06  1.20168e+08
       857.30000  2.79460e-06  1.20336e+08
       857.40000  2.79460e-06  1.20475e+08
       857.50000  2.77025e-06  1.19564e+08
       857.60000  2.77025e-06  1.19702e+08
       857.70000  2.77025e-06  1.19813e+08
       857.80000  2.77025e-06  1.19924e+08
       857.90000  2.77025e-06  1.20007e+08
       858.00000  2.77025e-06  1.20118e+08
       858.10000  2.77025e-06  1.20173e+08
       858.20000  2.77025e-06  1.20229e+08
       858.30000  2.77025e-06  1.20284e+08
       858.40000  2.77025e-06  1.20312e+08
       858.50000  2.75031e-06  1.19473e+08
       858.60000  2.75031e-06  1.19501e+08
       858.70000  2.75031e-06  1.19501e+08
       858.80000  2.75863e-06  1.19862e+08
       858.90000  2.75863e-06  1.19835e+08
       859.00000  2.75863e-06  1.19807e+08
       859.10000  2.75863e-06  1.19780e+08
       859.20000  2.75863e-06  1.19725e+08
       859.30000  2.75863e-06  1.19669e+08
       859.40000  2.75863e-06  1.19587e+08
       859.50000  2.73868e-06  1.18640e+08
       859.60000  2.73868e-06  1.18557e+08
       859.70000  2.73868e-06  1.18448e+08
       859.80000  2.73868e-06  1.18311e+08
       859.90000  2.73868e-06  1.18201e+08
       860.00000  2.73868e-06  1.18065e+08
       860.10000  2.73868e-06  1.18037e+08
       860.20000  2.73868e-06  1.18010e+08
       860.30000  2.73868e-06  1.18010e+08
       860.40000  2.73868e-06  1.18010e+08
       860.50000  3.62326e-06  1.56090e+08
       860.60000  3.62326e-06  1.56090e+08
       860.70000  3.62326e-06  1.56090e+08
       860.80000  3.62326e-06  1.56090e+08
       860.90000  3.62326e-06  1.56090e+08
       861.00000  3.62326e-06  1.56090e+08
       861.10000  3.62326e-06  1.56090e+08
       861.20000  3.62326e-06  1.56090e+08
       861.30000  3.63517e-06  1.56603e+08
       861.40000  3.63517e-06  1.56639e+08
       861.50000  2.70164e-06  1.16414e+08
       861.60000  2.70164e-06  1.16414e+08
       861.70000  2.70164e-06  1.16441e+08
       861.80000  2.70164e-06  1.16468e+08
       861.90000  2.70164e-06  1.16468e+08
       862.00000  2.70164e-06  1.16495e+08
       862.10000  2.70164e-06  1.16873e+08
       862.20000  2.70164e-06  1.17197e+08
       862.30000  2.70164e-06  1.17494e+08
       862.40000  2.70164e-06  1.17764e+08
       862.50000  2.68321e-06  1.17176e+08
       862.60000  2.68321e-06  1.17364e+08
       862.70000  2.68321e-06  1.17525e+08
       862.80000  2.68321e-06  1.17659e+08
       862.90000  2.68321e-06  1.17739e+08
       863.00000  2.68321e-06  1.17793e+08
       863.10000  2.68321e-06  1.17820e+08
       863.20000  2.68321e-06  1.17820e+08
       863.30000  2.68321e-06  1.17766e+08
       863.40000  2.68321e-06  1.17686e+08
       863.50000  2.66099e-06  1.16605e+08
       863.60000  2.66099e-06  1.16445e+08
       863.70000  2.66099e-06  1.16259e+08
       863.80000  2.66844e-06  1.16370e+08
       863.90000  2.66844e-06  1.16130e+08
       864.00000  2.66844e-06  1.15837e+08
       864.10000  2.66844e-06  1.15517e+08
       864.20000  2.66844e-06  1.15170e+08
       864.30000  2.66844e-06  1.14769e+08
       864.40000  2.66844e-06  1.14369e+08
       864.50000  2.64606e-06  1.12934e+08
       864.60000  2.64606e-06  1.12458e+08
       864.70000  2.64606e-06  1.11929e+08
       864.80000  2.64606e-06  1.11399e+08
       864.90000  2.64606e-06  1.10791e+08
       865.00000  2.64606e-06  1.10182e+08
       865.10000  2.64606e-06  1.09521e+08
       865.20000  2.64606e-06  1.08833e+08
       865.30000  2.64606e-06  1.08118e+08
       865.40000  2.64606e-06  1.07351e+08
       865.50000  2.62459e-06  1.05692e+08
       865.60000  2.62459e-06  1.04879e+08
       865.70000  2.62459e-06  1.04039e+08
       865.80000  2.62459e-06  1.03146e+08
       865.90000  2.62459e-06  1.02228e+08
       866.00000  2.62459e-06  1.01283e+08
       866.10000  2.62459e-06  1.01650e+08
       866.20000  2.62459e-06  1.01992e+08
       866.30000  2.63235e-06  1.02662e+08
       866.40000  2.63235e-06  1.03004e+08
       866.50000  2.61116e-06  1.02514e+08
       866.60000  2.61116e-06  1.02853e+08
       866.70000  2.61116e-06  1.03193e+08
       866.80000  2.61116e-06  1.03532e+08
       866.90000  2.61116e-06  1.03846e+08
       867.00000  2.61116e-06  1.04159e+08
       867.10000  2.61116e-06  1.04472e+08
       867.20000  2.61116e-06  1.04786e+08
       867.30000  2.61116e-06  1.05099e+08
       867.40000  2.61116e-06  1.05386e+08
       867.50000  2.58796e-06  1.04735e+08
       867.60000  2.58796e-06  1.05020e+08
       867.70000  2.58796e-06  1.05304e+08
       867.80000  2.58796e-06  1.05589e+08
       867.90000  2.58796e-06  1.05848e+08
       868.00000  2.58796e-06  1.06107e+08
       868.10000  2.58796e-06  1.06391e+08
       868.20000  2.58796e-06  1.06676e+08
       868.30000  2.58796e-06  1.06935e+08
       868.40000  2.58796e-06  1.07193e+08
       868.50000  2.56863e-06  1.06649e+08
       868.60000  2.56863e-06  1.06881e+08
       868.70000  2.56863e-06  1.07137e+08
       868.80000  2.57506e-06  1.07612e+08
       868.90000  2.57506e-06  1.07844e+08
       869.00000  2.57506e-06  1.08050e+08
       869.10000  2.57506e-06  1.08256e+08
       869.20000  2.57506e-06  1.08462e+08
       869.30000  2.57506e-06  1.08668e+08
       869.40000  2.57506e-06  1.08848e+08
       869.50000  1.70151e-06  7.20420e+07
       869.60000  1.70151e-06  7.21441e+07
       869.70000  1.70151e-06  7.22462e+07
       869.80000  1.70151e-06  7.23483e+07
       869.90000  1.70151e-06  7.24504e+07
       870.00000  1.70151e-06  7.25525e+07
       870.10000  1.70151e-06  7.26375e+07
       870.20000  1.70151e-06  7.27226e+07
       870.30000  1.70151e-06  7.27907e+07
       870.40000  1.70151e-06  7.28587e+07
       870.50000  2.53240e-06  1.08539e+08
       870.60000  2.53240e-06  1.08640e+08
       870.70000  2.53240e-06  1.08716e+08
       870.80000  2.53240e-06  1.08817e+08
       870.90000  2.53240e-06  1.08868e+08
       871.00000  2.53240e-06  1.08944e+08
       871.10000  2.53240e-06  1.08995e+08
       871.20000  2.53240e-06  1.09045e+08
       871.30000  2.54713e-06  1.09730e+08
       871.40000  2.54713e-06  1.09756e+08
       871.50000  2.52399e-06  1.08784e+08
       871.60000  2.52399e-06  1.08809e+08
       871.70000  2.52399e-06  1.08809e+08
       871.80000  2.52399e-06  1.08834e+08
       871.90000  2.52399e-06  1.08809e+08
       872.00000  2.52399e-06  1.08809e+08
       872.10000  2.52399e-06  1.08733e+08
       872.20000  2.52399e-06  1.08683e+08
       872.30000  2.52399e-06  1.08607e+08
       872.40000  2.52399e-06  1.08557e+08
       872.50000  2.50220e-06  1.07544e+08
       872.60000  2.50220e-06  1.07494e+08
       872.70000  2.50220e-06  1.07444e+08
       872.80000  2.50220e-06  1.07394e+08
       872.90000  2.50220e-06  1.07319e+08
       873.00000  2.50220e-06  1.07269e+08
       873.10000  2.50220e-06  1.07219e+08
       873.20000  2.50220e-06  1.07169e+08
       873.30000  2.50220e-06  1.07119e+08
       873.40000  2.50220e-06  1.07069e+08
       873.50000  1.65301e-06  7.06992e+07
       873.60000  1.65301e-06  7.06661e+07
       873.70000  1.65301e-06  7.06331e+07
       873.80000  1.66174e-06  7.09895e+07
       873.90000  1.66174e-06  7.09563e+07
       874.00000  1.66174e-06  7.09230e+07
       874.10000  1.66174e-06  7.08732e+07
       874.20000  1.66174e-06  7.08233e+07
       874.30000  1.66174e-06  7.07901e+07
       874.40000  1.66174e-06  7.07402e+07
       874.50000  1.64614e-06  7.00434e+07
       874.60000  1.64614e-06  7.00104e+07
       874.70000  1.64614e-06  6.99775e+07
       874.80000  1.64614e-06  6.99611e+07
       874.90000  1.64614e-06  6.99281e+07
       875.00000  1.64614e-06  6.99117e+07
       875.10000  1.64614e-06  6.98952e+07
       875.20000  1.64614e-06  6.98788e+07
       875.30000  1.64614e-06  6.98788e+07
       875.40000  1.64614e-06  6.98623e+07
       875.50000  1.63195e-06  6.92599e+07
       875.60000  1.63195e-06  6.92599e+07
       875.70000  1.63195e-06  6.92599e+07
       875.80000  1.63195e-06  6.92762e+07
       875.90000  1.63195e-06  6.92762e+07
       876.00000  1.63195e-06  6.92925e+07
       876.10000  1.63195e-06  6.93088e+07
       876.20000  1.63195e-06  6.93251e+07
       876.30000  1.64055e-06  6.97068e+07
       876.40000  1.64055e-06  6.97396e+07
       876.50000  1.62611e-06  6.91586e+07
       876.60000  1.62611e-06  6.91911e+07
       876.70000  1.62611e-06  6.92236e+07
       876.80000  1.62611e-06  6.92561e+07
       876.90000  1.62611e-06  6.93049e+07
       877.00000  1.62611e-06  6.93537e+07
       877.10000  1.62611e-06  6.94025e+07
       877.20000  1.62611e-06  6.94513e+07
       877.30000  1.62611e-06  6.95000e+07
       877.40000  1.62611e-06  6.95651e+07
       877.50000  1.61222e-06  6.90351e+07
       877.60000  1.61222e-06  6.90996e+07
       877.70000  1.61222e-06  6.91641e+07
       877.80000  1.61222e-06  6.92286e+07
       877.90000  1.61222e-06  6.93092e+07
       878.00000  1.61222e-06  6.93898e+07
       878.10000  1.61222e-06  6.92931e+07
       878.20000  1.61222e-06  6.92125e+07
       878.30000  1.61222e-06  6.91319e+07
       878.40000  1.61222e-06  6.90512e+07
       878.50000  1.59699e-06  6.83193e+07
       878.60000  1.59699e-06  6.82554e+07
       878.70000  1.59699e-06  6.81756e+07
       878.80000  1.60416e-06  6.84174e+07
       878.90000  1.60416e-06  6.83532e+07
       879.00000  1.60416e-06  6.82890e+07
       879.10000  1.60416e-06  6.82249e+07
       879.20000  1.60416e-06  6.81767e+07
       879.30000  1.60416e-06  6.81126e+07
       879.40000  1.60416e-06  6.80644e+07
       879.50000  1.58746e-06  6.73084e+07
       879.60000  1.58746e-06  6.72608e+07
       879.70000  1.58746e-06  6.72132e+07
       879.80000  1.58746e-06  6.71814e+07
       879.90000  1.58746e-06  6.71338e+07
       880.00000  1.58746e-06  6.71021e+07
       880.10000  1.58746e-06  6.70862e+07
       880.20000  1.58746e-06  6.70544e+07
       880.30000  1.58746e-06  6.70386e+07
       880.40000  1.58746e-06  6.70068e+07
       880.50000  1.57333e-06  6.63945e+07
       880.60000  1.57333e-06  6.63788e+07
       880.70000  1.57333e-06  6.63631e+07
       880.80000  1.57333e-06  6.63631e+07
       880.90000  1.57333e-06  6.63473e+07
       881.00000  1.57333e-06  6.63316e+07
       881.10000  1.57333e-06  6.63316e+07
       881.20000  1.57333e-06  6.63316e+07
       881.30000  1.58276e-06  6.67292e+07
       881.40000  1.58276e-06  6.67134e+07
       881.50000  1.56827e-06  6.61182e+07
       881.60000  1.56827e-06  6.61182e+07
       881.70000  1.56827e-06  6.61182e+07
       881.80000  1.56827e-06  6.61339e+07
       881.90000  1.56827e-06  6.61339e+07
       882.00000  1.56827e-06  6.61496e+07
       882.10000  1.56827e-06  6.62280e+07
       882.20000  1.56827e-06  6.62907e+07
       882.30000  1.56827e-06  6.63535e+07
       882.40000  1.56827e-06  6.64162e+07
       882.50000  1.55322e-06  6.58409e+07
       882.60000  1.55322e-06  6.58875e+07
       882.70000  1.55322e-06  6.59341e+07
       882.80000  1.55322e-06  6.59807e+07
       882.90000  1.55322e-06  6.60117e+07
       883.00000  1.55322e-06  6.60428e+07
       883.10000  1.55322e-06  6.60739e+07
       883.20000  1.55322e-06  6.61049e+07
       883.30000  1.55322e-06  6.61205e+07
       883.40000  1.55322e-06  6.61360e+07
       883.50000  1.53786e-06  6.54977e+07
       883.60000  1.53786e-06  6.54977e+07
       883.70000  1.53786e-06  6.54977e+07
       883.80000  1.54347e-06  6.57362e+07
       883.90000  1.54347e-06  6.57208e+07
       884.00000  1.54347e-06  6.57054e+07
       884.10000  1.54347e-06  6.56128e+07
       884.20000  1.54347e-06  6.55202e+07
       884.30000  1.54347e-06  6.54276e+07
       884.40000  1.54347e-06  6.53349e+07
       884.50000  1.52854e-06  6.46114e+07
       884.60000  1.52854e-06  6.45350e+07
       884.70000  1.52854e-06  6.44585e+07
       884.80000  1.52854e-06  6.43974e+07
       884.90000  1.52854e-06  6.43210e+07
       885.00000  1.52854e-06  6.42598e+07
       885.10000  1.52854e-06  6.42140e+07
       885.20000  1.52854e-06  6.41528e+07
       885.30000  1.52854e-06  6.41070e+07
       885.40000  1.52854e-06  6.40611e+07
       885.50000  1.51431e-06  6.34343e+07
       885.60000  1.51431e-06  6.33888e+07
       885.70000  1.51431e-06  6.33585e+07
       885.80000  1.51431e-06  6.33434e+07
       885.90000  1.51431e-06  6.33131e+07
       886.00000  1.51431e-06  6.32980e+07
       886.10000  1.51431e-06  6.32828e+07
       886.20000  1.51431e-06  6.32677e+07
       886.30000  1.51814e-06  6.34280e+07
       886.40000  1.51814e-06  6.34280e+07
       886.50000  1.50161e-06  6.27373e+07
       886.60000  1.50161e-06  6.27523e+07
       886.70000  1.50161e-06  6.27673e+07
       886.80000  1.50161e-06  6.27823e+07
       886.90000  1.50161e-06  6.27973e+07
       887.00000  1.50161e-06  6.28273e+07
       887.10000  1.50161e-06  6.28574e+07
       887.20000  1.50161e-06  6.28874e+07
       887.30000  1.50161e-06  6.29174e+07
       887.40000  1.50161e-06  6.29625e+07
       887.50000  1.48704e-06  6.23963e+07
       887.60000  1.48704e-06  6.24557e+07
       887.70000  1.48704e-06  6.25003e+07
       887.80000  1.48704e-06  6.25598e+07
       887.90000  1.48704e-06  6.26342e+07
       888.00000  1.48704e-06  6.26937e+07
       888.10000  1.48704e-06  6.27680e+07
       888.20000  1.48704e-06  6.28275e+07
       888.30000  1.48704e-06  6.29018e+07
       888.40000  1.48704e-06  6.29613e+07
       888.50000  1.47142e-06  6.23586e+07
       888.60000  1.47142e-06  6.24028e+07
       888.70000  1.47142e-06  6.24469e+07
       888.80000  1.47764e-06  6.27554e+07
       888.90000  1.47764e-06  6.27998e+07
       889.00000  1.47764e-06  6.28441e+07
       889.10000  1.47764e-06  6.28736e+07
       889.20000  1.47764e-06  6.29032e+07
       889.30000  1.47764e-06  6.29327e+07
       889.40000  1.47764e-06  6.29475e+07
       889.50000  7.31335e-07  3.11695e+07
       889.60000  7.31335e-07  3.11768e+07
       889.70000  7.31335e-07  3.11841e+07
       889.80000  7.31335e-07  3.11841e+07
       889.90000  7.31335e-07  3.11841e+07
       890.00000  7.31335e-07  3.11841e+07
       890.10000  7.31335e-07  3.11622e+07
       890.20000  7.31335e-07  3.11403e+07
       890.30000  7.31335e-07  3.11183e+07
       890.40000  7.31335e-07  3.10964e+07
       890.50000  1.44753e-06  6.15054e+07
       890.60000  1.44753e-06  6.14619e+07
       890.70000  1.44753e-06  6.14185e+07
       890.80000  1.44753e-06  6.13751e+07
       890.90000  1.44753e-06  6.13317e+07
       891.00000  1.44753e-06  6.13027e+07
       891.10000  1.44753e-06  6.12593e+07
       891.20000  1.44753e-06  6.12303e+07
       891.30000  1.45455e-06  6.14839e+07
       891.40000  1.45455e-06  6.14549e+07
       891.50000  7.19490e-07  3.03841e+07
       891.60000  7.19490e-07  3.03697e+07
       891.70000  7.19490e-07  3.03553e+07
       891.80000  7.19490e-07  3.03409e+07
       891.90000  7.19490e-07  3.03265e+07
       892.00000  7.19490e-07  3.03121e+07
       892.10000  7.19490e-07  3.02977e+07
       892.20000  7.19490e-07  3.02905e+07
       892.30000  7.19490e-07  3.02762e+07
       892.40000  7.19490e-07  3.02690e+07
       892.50000  1.42318e-06  5.98447e+07
       892.60000  1.42318e-06  5.98304e+07
       892.70000  1.42318e-06  5.98162e+07
       892.80000  1.42318e-06  5.98020e+07
       892.90000  1.42318e-06  5.97877e+07
       893.00000  1.42318e-06  5.97735e+07
       893.10000  1.42318e-06  5.97593e+07
       893.20000  1.42318e-06  5.97450e+07
       893.30000  1.42318e-06  5.97308e+07
       893.40000  1.42318e-06  5.97308e+07
       893.50000  7.03940e-07  2.95373e+07
       893.60000  7.03940e-07  2.95373e+07
       893.70000  7.03940e-07  2.95303e+07
       893.80000  7.10073e-07  2.97876e+07
       893.90000  7.10073e-07  2.97876e+07
       894.00000  7.10073e-07  2.97876e+07
       894.10000  7.10073e-07  2.98089e+07
       894.20000  7.10073e-07  2.98231e+07
       894.30000  7.10073e-07  2.98444e+07
       894.40000  7.10073e-07  2.98586e+07
       894.50000  7.02183e-07  2.95479e+07
       894.60000  7.02183e-07  2.95619e+07
       894.70000  7.02183e-07  2.95760e+07
       894.80000  7.02183e-07  2.95900e+07
       894.90000  7.02183e-07  2.96040e+07
       895.00000  7.02183e-07  2.96181e+07
       895.10000  7.02183e-07  2.96251e+07
       895.20000  7.02183e-07  2.96392e+07
       895.30000  7.02183e-07  2.96462e+07
       895.40000  7.02183e-07  2.96532e+07
       895.50000  1.38938e-06  5.87011e+07
       895.60000  1.38938e-06  5.87150e+07
       895.70000  1.38938e-06  5.87289e+07
       895.80000  1.38938e-06  5.87289e+07
       895.90000  1.38938e-06  5.87428e+07
       896.00000  1.38938e-06  5.87567e+07
       896.10000  1.38938e-06  5.87706e+07
       896.20000  1.38938e-06  5.87706e+07
       896.30000  1.39886e-06  5.91859e+07
       896.40000  1.39886e-06  5.91859e+07
       896.50000  1.38311e-06  5.85193e+07
       896.60000  1.38311e-06  5.85193e+07
       896.70000  1.38311e-06  5.85193e+07
       896.80000  1.38311e-06  5.85193e+07
       896.90000  1.38311e-06  5.85193e+07
       897.00000  1.38311e-06  5.85055e+07
       897.10000  1.38311e-06  5.85055e+07
       897.20000  1.38311e-06  5.84917e+07
       897.30000  1.38311e-06  5.84778e+07
       897.40000  1.38311e-06  5.84640e+07
       897.50000  1.36664e-06  5.77407e+07
       897.60000  1.36664e-06  5.77270e+07
       897.70000  1.36664e-06  5.76997e+07
       897.80000  1.36664e-06  5.76860e+07
       897.90000  1.36664e-06  5.76587e+07
       898.00000  1.36664e-06  5.76314e+07
       898.10000  1.36664e-06  5.75904e+07
       898.20000  1.36664e-06  5.75630e+07
       898.30000  1.36664e-06  5.75357e+07
       898.40000  1.36664e-06  5.74947e+07
       898.50000  6.75927e-07  2.84160e+07
       898.60000  6.75927e-07  2.83957e+07
       898.70000  6.75927e-07  2.83754e+07
       898.80000  6.80765e-07  2.85581e+07
       898.90000  6.80765e-07  2.85309e+07
       899.00000  6.80765e-07  2.85104e+07
       899.10000  6.80765e-07  2.84832e+07
       899.20000  6.80765e-07  2.84560e+07
       899.30000  6.80765e-07  2.84288e+07
       899.40000  6.80765e-07  2.84015e+07
       899.50000  6.72955e-07  2.80488e+07
       899.60000  6.72955e-07  2.80151e+07
       899.70000  6.72955e-07  2.79882e+07
       899.80000  6.72955e-07  2.79546e+07
       899.90000  6.72955e-07  2.79209e+07
       900.00000  6.72955e-07  2.78873e+07
       900.10000  6.72955e-07  2.78065e+07
       900.20000  6.72955e-07  2.77392e+07
       900.30000  6.72955e-07  2.76652e+07
       900.40000  6.72955e-07  2.76046e+07
       900.50000  6.66203e-07  2.72677e+07
       900.60000  6.66203e-07  2.72144e+07
       900.70000  6.66203e-07  2.71611e+07
       900.80000  6.66203e-07  2.71211e+07
       900.90000  6.66203e-07  2.70811e+07
       901.00000  6.66203e-07  2.70412e+07
       901.10000  6.66203e-07  2.70145e+07
       901.20000  6.66203e-07  2.69879e+07
       901.30000  6.68916e-07  2.70710e+07
       901.40000  6.68916e-07  2.70577e+07
       901.50000  6.62200e-07  2.67728e+07
       901.60000  6.62200e-07  2.67661e+07
       901.70000  6.62200e-07  2.67595e+07
       901.80000  6.62200e-07  2.67595e+07
       901.90000  6.62200e-07  2.67661e+07
       902.00000  6.62200e-07  2.67794e+07
       902.10000  6.62200e-07  2.68721e+07
       902.20000  6.62200e-07  2.69582e+07
       902.30000  6.62200e-07  2.70443e+07
       902.40000  6.62200e-07  2.71237e+07
       902.50000  6.55479e-07  2.69271e+07
       902.60000  6.55479e-07  2.69992e+07
       902.70000  6.55479e-07  2.70713e+07
       902.80000  6.55479e-07  2.71368e+07
       902.90000  6.55479e-07  2.72024e+07
       903.00000  6.55479e-07  2.72614e+07
       903.10000  6.55479e-07  2.73204e+07
       903.20000  6.55479e-07  2.73728e+07
       903.30000  6.55479e-07  2.74187e+07
       903.40000  6.55479e-07  2.74646e+07
       903.50000  6.48947e-07  2.72298e+07
       903.60000  6.48947e-07  2.72687e+07
       903.70000  6.48947e-07  2.73077e+07
       903.80000  6.52384e-07  2.74784e+07
       903.90000  6.52384e-07  2.75110e+07
       904.00000  6.52384e-07  2.75306e+07
       904.10000  6.52384e-07  2.75502e+07
       904.20000  6.52384e-07  2.75698e+07
       904.30000  6.52384e-07  2.75828e+07
       904.40000  6.52384e-07  2.75893e+07
       904.50000  1.29145e-06  5.46283e+07
       904.60000  1.29145e-06  5.46412e+07
       904.70000  1.29145e-06  5.46412e+07
       904.80000  1.29145e-06  5.46283e+07
       904.90000  1.29145e-06  5.46154e+07
       905.00000  1.29145e-06  5.45896e+07
       905.10000  1.29145e-06  5.45638e+07
       905.20000  1.29145e-06  5.45250e+07
       905.30000  1.29145e-06  5.44863e+07
       905.40000  1.29145e-06  5.44346e+07
       905.50000  6.39082e-07  2.69054e+07
       905.60000  6.39082e-07  2.68734e+07
       905.70000  6.39082e-07  2.68414e+07
       905.80000  6.39082e-07  2.68031e+07
       905.90000  6.39082e-07  2.67584e+07
       906.00000  6.39082e-07  2.67136e+07
       906.10000  6.39082e-07  2.66881e+07
       906.20000  6.39082e-07  2.66689e+07
       906.30000  6.42031e-07  2.67727e+07
       906.40000  6.42031e-07  2.67470e+07
       906.50000  6.35301e-07  2.64476e+07
       906.60000  6.35301e-07  2.64285e+07
       906.70000  6.35301e-07  2.64095e+07
       906.80000  6.35301e-07  2.63904e+07
       906.90000  6.35301e-07  2.63714e+07
       907.00000  6.35301e-07  2.63523e+07
       907.10000  6.35301e-07  2.63332e+07
       907.20000  6.35301e-07  2.63142e+07
       907.30000  6.35301e-07  2.62951e+07
       907.40000  6.35301e-07  2.62761e+07
       907.50000  6.28489e-07  2.59755e+07
       907.60000  6.28489e-07  2.59629e+07
       907.70000  6.28489e-07  2.59440e+07
       907.80000  6.28489e-07  2.59252e+07
       907.90000  6.28489e-07  2.59126e+07
       908.00000  6.28489e-07  2.58938e+07
       908.10000  6.28489e-07  2.58686e+07
       908.20000  6.28489e-07  2.58498e+07
       908.30000  6.28489e-07  2.58246e+07
       908.40000  6.28489e-07  2.58058e+07
       908.50000  6.21939e-07  2.55182e+07
       908.60000  6.21939e-07  2.54995e+07
       908.70000  6.21939e-07  2.54871e+07
       908.80000  6.24078e-07  2.55560e+07
       908.90000  6.24078e-07  2.55435e+07
       909.00000  6.24078e-07  2.55310e+07
       909.10000  6.24078e-07  2.55185e+07
       909.20000  6.24078e-07  2.55061e+07
       909.30000  6.24078e-07  2.54936e+07
       909.40000  6.24078e-07  2.54873e+07
       909.50000  6.17224e-07  2.52013e+07
       909.60000  6.17224e-07  2.51951e+07
       909.70000  6.17224e-07  2.51889e+07
       909.80000  6.17224e-07  2.51827e+07
       909.90000  6.17224e-07  2.51827e+07
       910.00000  6.17224e-07  2.51766e+07
       910.10000  6.17224e-07  2.51766e+07
       910.20000  6.17224e-07  2.51766e+07
       910.30000  6.17224e-07  2.51827e+07
       910.40000  6.17224e-07  2.51827e+07
       910.50000  6.10637e-07  2.49201e+07
       910.60000  6.10637e-07  2.49201e+07
       910.70000  6.10637e-07  2.49262e+07
       910.80000  6.10637e-07  2.49384e+07
       910.90000  6.10637e-07  2.49445e+07
       911.00000  6.10637e-07  2.49506e+07
       911.10000  6.10637e-07  2.49628e+07
       911.20000  6.10637e-07  2.49750e+07
       911.30000  6.11203e-07  2.50104e+07
       911.40000  6.11203e-07  2.50226e+07
       911.50000  6.04204e-07  2.47542e+07
       911.60000  6.04204e-07  2.47663e+07
       911.70000  6.04204e-07  2.47844e+07
       911.80000  6.04204e-07  2.48026e+07
       911.90000  6.04204e-07  2.48207e+07
       912.00000  6.04204e-07  2.48449e+07
       912.10000  6.04204e-07  2.48751e+07
       912.20000  6.04204e-07  2.48992e+07
       912.30000  6.04204e-07  2.49234e+07
       912.40000  6.04204e-07  2.49476e+07
       912.50000  5.97509e-07  2.46950e+07
       912.60000  5.97509e-07  2.47189e+07
       912.70000  5.97509e-07  2.47428e+07
       912.80000  5.97509e-07  2.47608e+07
       912.90000  5.97509e-07  2.47787e+07
       913.00000  5.97509e-07  2.47966e+07
       913.10000  5.97509e-07  2.48145e+07
       913.20000  5.97509e-07  2.48265e+07
       913.30000  5.97509e-07  2.48444e+07
       913.40000  5.97509e-07  2.48564e+07
       913.50000  5.90773e-07  2.45880e+07
       913.60000  5.90773e-07  2.45998e+07
       913.70000  5.90773e-07  2.46057e+07
       913.80000  5.93924e-07  2.47429e+07
       913.90000  5.93924e-07  2.47548e+07
       914.00000  5.93924e-07  2.47607e+07
       914.10000  5.93924e-07  2.47488e+07
       914.20000  5.93924e-07  2.47429e+07
       914.30000  5.93924e-07  2.47369e+07
       914.40000  5.93924e-07  2.47310e+07
       914.50000  5.87396e-07  2.44533e+07
       914.60000  5.87396e-07  2.44415e+07
       914.70000  5.87396e-07  2.44357e+07
       914.80000  5.87396e-07  2.44298e+07
       914.90000  5.87396e-07  2.44239e+07
       915.00000  5.87396e-07  2.44180e+07
       915.10000  5.87396e-07  2.44122e+07
       915.20000  5.87396e-07  2.44063e+07
       915.30000  5.87396e-07  2.44004e+07
       915.40000  5.87396e-07  2.43945e+07
       915.50000  5.80352e-07  2.40962e+07
       915.60000  5.80352e-07  2.40904e+07
       915.70000  5.80352e-07  2.40846e+07
       915.80000  5.80352e-07  2.40788e+07
       915.90000  5.80352e-07  2.40730e+07
       916.00000  5.80352e-07  2.40672e+07
       916.10000  5.80352e-07  2.40614e+07
       916.20000  5.80352e-07  2.40556e+07
       916.30000  5.84492e-07  2.42214e+07
       916.40000  5.84492e-07  2.42155e+07
       916.50000  5.77687e-07  2.39278e+07
       916.60000  5.77687e-07  2.39278e+07
       916.70000  5.77687e-07  2.39220e+07
       916.80000  5.77687e-07  2.39162e+07
       916.90000  5.77687e-07  2.39104e+07
       917.00000  5.77687e-07  2.39047e+07
       917.10000  5.77687e-07  2.39047e+07
       917.20000  5.77687e-07  2.38989e+07
       917.30000  5.77687e-07  2.38931e+07
       917.40000  5.77687e-07  2.38873e+07
       917.50000  5.70799e-07  2.36025e+07
       917.60000  5.70799e-07  2.35968e+07
       917.70000  5.70799e-07  2.35911e+07
       917.80000  5.70799e-07  2.35911e+07
       917.90000  5.70799e-07  2.35854e+07
       918.00000  5.70799e-07  2.35797e+07
       918.10000  5.70799e-07  2.35911e+07
       918.20000  5.70799e-07  2.36025e+07
       918.30000  5.70799e-07  2.36139e+07
       918.40000  5.70799e-07  2.36197e+07
       918.50000  5.64040e-07  2.33456e+07
       918.60000  5.64040e-07  2.33512e+07
       918.70000  5.64040e-07  2.33512e+07
       918.80000  5.69288e-07  2.35685e+07
       918.90000  5.69288e-07  2.35685e+07
       919.00000  5.69288e-07  2.35685e+07
       919.10000  5.69288e-07  2.35628e+07
       919.20000  5.69288e-07  2.35571e+07
       919.30000  5.69288e-07  2.35514e+07
       919.40000  5.69288e-07  2.35400e+07
       919.50000  5.62195e-07  2.32355e+07
       919.60000  5.62195e-07  2.32243e+07
       919.70000  5.62195e-07  2.32130e+07
       919.80000  5.62195e-07  2.31962e+07
       919.90000  5.62195e-07  2.31849e+07
       920.00000  5.62195e-07  2.31680e+07
       920.10000  5.62195e-07  2.31174e+07
       920.20000  5.62195e-07  2.30725e+07
       920.30000  5.62195e-07  2.30275e+07
       920.40000  5.62195e-07  2.29825e+07
       920.50000  5.55266e-07  2.26549e+07
       920.60000  5.55266e-07  2.26160e+07
       920.70000  5.55266e-07  2.25771e+07
       920.80000  5.55266e-07  2.25438e+07
       920.90000  5.55266e-07  2.25049e+07
       921.00000  5.55266e-07  2.24716e+07
       921.10000  5.55266e-07  2.24383e+07
       921.20000  5.55266e-07  2.24106e+07
       921.30000  5.57562e-07  2.24697e+07
       921.40000  5.57562e-07  2.24419e+07
       921.50000  5.50631e-07  2.21354e+07
       921.60000  5.50631e-07  2.21133e+07
       921.70000  5.50631e-07  2.20913e+07
       921.80000  5.50631e-07  2.20693e+07
       921.90000  5.50631e-07  2.20473e+07
       922.00000  5.50631e-07  2.20307e+07
       922.10000  5.50631e-07  2.20087e+07
       922.20000  5.50631e-07  2.19977e+07
       922.30000  5.50631e-07  2.19812e+07
       922.40000  5.50631e-07  2.19702e+07
       922.50000  5.43788e-07  2.16808e+07
       922.60000  5.43788e-07  2.16754e+07
       922.70000  5.43788e-07  2.16645e+07
       922.80000  5.43788e-07  2.16591e+07
       922.90000  5.43788e-07  2.16536e+07
       923.00000  5.43788e-07  2.16482e+07
       923.10000  5.43788e-07  2.16482e+07
       923.20000  5.43788e-07  2.16428e+07
       923.30000  5.43788e-07  2.16428e+07
       923.40000  5.43788e-07  2.16482e+07
       923.50000  5.36815e-07  2.13706e+07
       923.60000  5.36815e-07  2.13760e+07
       923.70000  5.36815e-07  2.13813e+07
       923.80000  5.38032e-07  2.14406e+07
       923.90000  5.38032e-07  2.14459e+07
       924.00000  5.38032e-07  2.14567e+07
       924.10000  5.38032e-07  2.14567e+07
       924.20000  5.38032e-07  2.14567e+07
       924.30000  5.38032e-07  2.14567e+07
       924.40000  5.38032e-07  2.14567e+07
       924.50000  5.31002e-07  2.11764e+07
       924.60000  5.31002e-07  2.11764e+07
       924.70000  5.31002e-07  2.11817e+07
       924.80000  5.31002e-07  2.11870e+07
       924.90000  5.31002e-07  2.11870e+07
       925.00000  5.31002e-07  2.11923e+07
       925.10000  5.31002e-07  2.12029e+07
       925.20000  5.31002e-07  2.12082e+07
       925.30000  5.31002e-07  2.12135e+07
       925.40000  5.31002e-07  2.12241e+07
       925.50000  1.04775e-06  4.18996e+07
       925.60000  1.04775e-06  4.19206e+07
       925.70000  1.04775e-06  4.19415e+07
       925.80000  1.04775e-06  4.19625e+07
       925.90000  1.04775e-06  4.19834e+07
       926.00000  1.04775e-06  4.20149e+07
       926.10000  1.04775e-06  4.20777e+07
       926.20000  1.04775e-06  4.21511e+07
       926.30000  1.05210e-06  4.23890e+07
       926.40000  1.05210e-06  4.24521e+07
       926.50000  1.03828e-06  4.19569e+07
       926.60000  1.03828e-06  4.20088e+07
       926.70000  1.03828e-06  4.20607e+07
       926.80000  1.03828e-06  4.21127e+07
       926.90000  1.03828e-06  4.21646e+07
       927.00000  1.03828e-06  4.22061e+07
       927.10000  1.03828e-06  4.22476e+07
       927.20000  1.03828e-06  4.22892e+07
       927.30000  1.03828e-06  4.23203e+07
       927.40000  1.03828e-06  4.23515e+07
       927.50000  1.02429e-06  4.18115e+07
       927.60000  1.02429e-06  4.18320e+07
       927.70000  1.02429e-06  4.18627e+07
       927.80000  1.02429e-06  4.18832e+07
       927.90000  1.02429e-06  4.18934e+07
       928.00000  1.02429e-06  4.19037e+07
       928.10000  1.02429e-06  4.18832e+07
       928.20000  1.02429e-06  4.18627e+07
       928.30000  1.02429e-06  4.18320e+07
       928.40000  1.02429e-06  4.18115e+07
       928.50000  5.05030e-07  2.06052e+07
       928.60000  5.05030e-07  2.05951e+07
       928.70000  5.05030e-07  2.05850e+07
       928.80000  5.07377e-07  2.06705e+07
       928.90000  5.07377e-07  2.06604e+07
       929.00000  5.07377e-07  2.06553e+07
       929.10000  5.07377e-07  2.06452e+07
       929.20000  5.07377e-07  2.06350e+07
       929.30000  5.07377e-07  2.06299e+07
       929.40000  5.07377e-07  2.06198e+07
       929.50000  1.00089e-06  4.06660e+07
       929.60000  1.00089e-06  4.06560e+07
       929.70000  1.00089e-06  4.06360e+07
       929.80000  1.00089e-06  4.06260e+07
       929.90000  1.00089e-06  4.06159e+07
       930.00000  1.00089e-06  4.06059e+07
       930.10000  1.00089e-06  4.06059e+07
       930.20000  1.00089e-06  4.06059e+07
       930.30000  1.00089e-06  4.05959e+07
       930.40000  1.00089e-06  4.05959e+07
       930.50000  9.86676e-07  4.00196e+07
       930.60000  9.86676e-07  4.00196e+07
       930.70000  9.86676e-07  4.00097e+07
       930.80000  9.86676e-07  4.00097e+07
       930.90000  9.86676e-07  4.00097e+07
       931.00000  9.86676e-07  4.00097e+07
       931.10000  9.86676e-07  4.00097e+07
       931.20000  9.86676e-07  3.99999e+07
       931.30000  9.91123e-07  4.01801e+07
       931.40000  9.91123e-07  4.01801e+07
       931.50000  9.76926e-07  3.96046e+07
       931.60000  9.76926e-07  3.96046e+07
       931.70000  9.76926e-07  3.96046e+07
       931.80000  9.76926e-07  3.96046e+07
       931.90000  9.76926e-07  3.96046e+07
       932.00000  9.76926e-07  3.96046e+07
       932.10000  9.76926e-07  3.96046e+07
       932.20000  9.76926e-07  3.96046e+07
       932.30000  9.76926e-07  3.96046e+07
       932.40000  9.76926e-07  3.96046e+07
       932.50000  4.81343e-07  1.95136e+07
       932.60000  4.81343e-07  1.95136e+07
       932.70000  4.81343e-07  1.95136e+07
       932.80000  4.81343e-07  1.95185e+07
       932.90000  4.81343e-07  1.95185e+07
       933.00000  4.81343e-07  1.95185e+07
       933.10000  4.81343e-07  1.95185e+07
       933.20000  4.81343e-07  1.95185e+07
       933.30000  4.81343e-07  1.95233e+07
       933.40000  4.81343e-07  1.95233e+07
       933.50000  9.48409e-07  3.84675e+07
       933.60000  9.48409e-07  3.84769e+07
       933.70000  9.48409e-07  3.84769e+07
       933.80000  9.51984e-07  3.86220e+07
       933.90000  9.51984e-07  3.86315e+07
       934.00000  9.51984e-07  3.86315e+07
       934.10000  9.51984e-07  3.86030e+07
       934.20000  9.51984e-07  3.85744e+07
       934.30000  9.51984e-07  3.85459e+07
       934.40000  9.51984e-07  3.85173e+07
       934.50000  9.37623e-07  3.79081e+07
       934.60000  9.37623e-07  3.78894e+07
       934.70000  9.37623e-07  3.78706e+07
       934.80000  9.37623e-07  3.78425e+07
       934.90000  9.37623e-07  3.78237e+07
       935.00000  9.37623e-07  3.78143e+07
       935.10000  9.37623e-07  3.77956e+07
       935.20000  9.37623e-07  3.77768e+07
       935.30000  9.37623e-07  3.77675e+07
       935.40000  9.37623e-07  3.77581e+07
       935.50000  9.23421e-07  3.71769e+07
       935.60000  9.23421e-07  3.71677e+07
       935.70000  9.23421e-07  3.71585e+07
       935.80000  9.23421e-07  3.71492e+07
       935.90000  9.23421e-07  3.71492e+07
       936.00000  9.23421e-07  3.71400e+07
       936.10000  9.23421e-07  3.71677e+07
       936.20000  9.23421e-07  3.71954e+07
       936.30000  9.26634e-07  3.73526e+07
       936.40000  9.26634e-07  3.73804e+07
       936.50000  9.12358e-07  3.68228e+07
       936.60000  9.12358e-07  3.68410e+07
       936.70000  9.12358e-07  3.68593e+07
       936.80000  9.12358e-07  3.68775e+07
       936.90000  9.12358e-07  3.68866e+07
       937.00000  9.12358e-07  3.69049e+07
       937.10000  9.12358e-07  3.69140e+07
       937.20000  9.12358e-07  3.69231e+07
       937.30000  9.12358e-07  3.69231e+07
       937.40000  9.12358e-07  3.69323e+07
       937.50000  8.97969e-07  3.63498e+07
       937.60000  8.97969e-07  3.63498e+07
       937.70000  8.97969e-07  3.63498e+07
       937.80000  8.97969e-07  3.63498e+07
       937.90000  8.97969e-07  3.63408e+07
       938.00000  8.97969e-07  3.63408e+07
       938.10000  8.97969e-07  3.63318e+07
       938.20000  8.97969e-07  3.63139e+07
       938.30000  8.97969e-07  3.63049e+07
       938.40000  8.97969e-07  3.62869e+07
       938.50000  8.83801e-07  3.57056e+07
       938.60000  8.83801e-07  3.56879e+07
       938.70000  8.83801e-07  3.56614e+07
       938.80000  8.86281e-07  3.57437e+07
       938.90000  8.86281e-07  3.57171e+07
       939.00000  8.86281e-07  3.56994e+07
       939.10000  8.86281e-07  3.56728e+07
       939.20000  8.86281e-07  3.56374e+07
       939.30000  8.86281e-07  3.56108e+07
       939.40000  8.86281e-07  3.55753e+07
       939.50000  8.71813e-07  3.49597e+07
       939.60000  8.71813e-07  3.49248e+07
       939.70000  8.71813e-07  3.48900e+07
       939.80000  8.71813e-07  3.48551e+07
       939.90000  8.71813e-07  3.48115e+07
       940.00000  8.71813e-07  3.47679e+07
       940.10000  8.71813e-07  3.47069e+07
       940.20000  8.71813e-07  3.46458e+07
       940.30000  8.71813e-07  3.45935e+07
       940.40000  8.71813e-07  3.45412e+07
       940.50000  8.57274e-07  3.39137e+07
       940.60000  8.57274e-07  3.38709e+07
       940.70000  8.57274e-07  3.38280e+07
       940.80000  8.57274e-07  3.37852e+07
       940.90000  8.57274e-07  3.37423e+07
       941.00000  8.57274e-07  3.37080e+07
       941.10000  8.57274e-07  3.36737e+07
       941.20000  8.57274e-07  3.36480e+07
       941.30000  8.58377e-07  3.36656e+07
       941.40000  8.58377e-07  3.36398e+07
       941.50000  8.43886e-07  3.30466e+07
       941.60000  8.43886e-07  3.30297e+07
       941.70000  8.43886e-07  3.30128e+07
       941.80000  8.43886e-07  3.29959e+07
       941.90000  8.43886e-07  3.29791e+07
       942.00000  8.43886e-07  3.29706e+07
       942.10000  8.43886e-07  3.29959e+07
       942.20000  8.43886e-07  3.30128e+07
       942.30000  8.43886e-07  3.30381e+07
       942.40000  8.43886e-07  3.30550e+07
       942.50000  8.29759e-07  3.25183e+07
       942.60000  8.29759e-07  3.25432e+07
       942.70000  8.29759e-07  3.25597e+07
       942.80000  8.29759e-07  3.25763e+07
       942.90000  8.29759e-07  3.25929e+07
       943.00000  8.29759e-07  3.26095e+07
       943.10000  8.29759e-07  3.26344e+07
       943.20000  8.29759e-07  3.26510e+07
       943.30000  8.29759e-07  3.26676e+07
       943.40000  8.29759e-07  3.26842e+07
       943.50000  8.15161e-07  3.21255e+07
       943.60000  8.15161e-07  3.21418e+07
       943.70000  8.15161e-07  3.21581e+07
       943.80000  8.15035e-07  3.21694e+07
       943.90000  8.15035e-07  3.21857e+07
       944.00000  8.15035e-07  3.22020e+07
       944.10000  8.15035e-07  3.22183e+07
       944.20000  8.15035e-07  3.22346e+07
       944.30000  8.15035e-07  3.22428e+07
       944.40000  8.15035e-07  3.22591e+07
       944.50000  8.00628e-07  3.17049e+07
       944.60000  8.00628e-07  3.17209e+07
       944.70000  8.00628e-07  3.17289e+07
       944.80000  8.00628e-07  3.17449e+07
       944.90000  8.00628e-07  3.17609e+07
       945.00000  8.00628e-07  3.17689e+07
       945.10000  8.00628e-07  3.17850e+07
       945.20000  8.00628e-07  3.18010e+07
       945.30000  8.00628e-07  3.18090e+07
       945.40000  8.00628e-07  3.18250e+07
       945.50000  7.86096e-07  3.12552e+07
       945.60000  7.86096e-07  3.12709e+07
       945.70000  7.86096e-07  3.12788e+07
       945.80000  7.86096e-07  3.12945e+07
       945.90000  7.86096e-07  3.13023e+07
       946.00000  7.86096e-07  3.13102e+07
       946.10000  7.86096e-07  3.13259e+07
       946.20000  7.86096e-07  3.13416e+07
       946.30000  7.86330e-07  3.13667e+07
       946.40000  7.86330e-07  3.13824e+07
       946.50000  7.71869e-07  3.08207e+07
       946.60000  7.71869e-07  3.08284e+07
       946.70000  7.71869e-07  3.08439e+07
       946.80000  7.71869e-07  3.08516e+07
       946.90000  7.71869e-07  3.08593e+07
       947.00000  7.71869e-07  3.08748e+07
       947.10000  7.71869e-07  3.08825e+07
       947.20000  7.71869e-07  3.08902e+07
       947.30000  7.71869e-07  3.08979e+07
       947.40000  7.71869e-07  3.09056e+07
       947.50000  7.57588e-07  3.03338e+07
       947.60000  7.57588e-07  3.03414e+07
       947.70000  7.57588e-07  3.03490e+07
       947.80000  7.57588e-07  3.03490e+07
       947.90000  7.57588e-07  3.03565e+07
       948.00000  7.57588e-07  3.03565e+07
       948.10000  7.57588e-07  3.03565e+07
       948.20000  7.57588e-07  3.03565e+07
       948.30000  7.57588e-07  3.03490e+07
       948.40000  7.57588e-07  3.03490e+07
       948.50000  7.42912e-07  2.97536e+07
       948.60000  7.42912e-07  2.97536e+07
       948.70000  7.42912e-07  2.97536e+07
       948.80000  7.45218e-07  2.98385e+07
       948.90000  7.45218e-07  2.98385e+07
       949.00000  7.45218e-07  2.98311e+07
       949.10000  7.45218e-07  2.98311e+07
       949.20000  7.45218e-07  2.98236e+07
       949.30000  7.45218e-07  2.98236e+07
       949.40000  7.45218e-07  2.98162e+07
       949.50000  7.30837e-07  2.92408e+07
       949.60000  7.30837e-07  2.92335e+07
       949.70000  7.30837e-07  2.92262e+07
       949.80000  7.30837e-07  2.92262e+07
       949.90000  7.30837e-07  2.92189e+07
       950.00000  7.30837e-07  2.92116e+07
       950.10000  7.30837e-07  2.92116e+07
       950.20000  7.30837e-07  2.92043e+07
       950.30000  7.30837e-07  2.91970e+07
       950.40000  7.30837e-07  2.91970e+07
       950.50000  7.21667e-07  2.88234e+07
       950.60000  7.21667e-07  2.88162e+07
       950.70000  7.21667e-07  2.88089e+07
       950.80000  7.21667e-07  2.88089e+07
       950.90000  7.21667e-07  2.88017e+07
       951.00000  7.21667e-07  2.87945e+07
       951.10000  7.21667e-07  2.87873e+07
       951.20000  7.21667e-07  2.87801e+07
       951.30000  7.20979e-07  2.87526e+07
       951.40000  7.20979e-07  2.87454e+07
       951.50000  7.12379e-07  2.83954e+07
       951.60000  7.12379e-07  2.83883e+07
       951.70000  7.12379e-07  2.83812e+07
       951.80000  7.12379e-07  2.83740e+07
       951.90000  7.12379e-07  2.83669e+07
       952.00000  7.12379e-07  2.83598e+07
       952.10000  7.12379e-07  2.83028e+07
       952.20000  7.12379e-07  2.82458e+07
       952.30000  7.12379e-07  2.81960e+07
       952.40000  7.12379e-07  2.81461e+07
       952.50000  7.04115e-07  2.77703e+07
       952.60000  7.04115e-07  2.77210e+07
       952.70000  7.04115e-07  2.76788e+07
       952.80000  7.04115e-07  2.76365e+07
       952.90000  7.04115e-07  2.75943e+07
       953.00000  7.04115e-07  2.75591e+07
       953.10000  7.04115e-07  2.75239e+07
       953.20000  7.04115e-07  2.74886e+07
       953.30000  7.04115e-07  2.74605e+07
       953.40000  7.04115e-07  2.74253e+07
       953.50000  6.95596e-07  2.70656e+07
       953.60000  6.95596e-07  2.70448e+07
       953.70000  6.95596e-07  2.70170e+07
       953.80000  6.97080e-07  2.70537e+07
       953.90000  6.97080e-07  2.70328e+07
       954.00000  6.97080e-07  2.70188e+07
       954.10000  6.97080e-07  2.70118e+07
       954.20000  6.97080e-07  2.70049e+07
       954.30000  6.97080e-07  2.70049e+07
       954.40000  6.97080e-07  2.70049e+07
       954.50000  6.88455e-07  2.66638e+07
       954.60000  6.88455e-07  2.66638e+07
       954.70000  6.88455e-07  2.66638e+07
       954.80000  6.88455e-07  2.66638e+07
       954.90000  6.88455e-07  2.66707e+07
       955.00000  6.88455e-07  2.66707e+07
       955.10000  6.88455e-07  2.66776e+07
       955.20000  6.88455e-07  2.66776e+07
       955.30000  6.88455e-07  2.66845e+07
       955.40000  6.88455e-07  2.66914e+07
       955.50000  6.79923e-07  2.63674e+07
       955.60000  6.79923e-07  2.63742e+07
       955.70000  6.79923e-07  2.63810e+07
       955.80000  6.79923e-07  2.63946e+07
       955.90000  6.79923e-07  2.64014e+07
       956.00000  6.79923e-07  2.64150e+07
       956.10000  6.79923e-07  2.64286e+07
       956.20000  6.79923e-07  2.64354e+07
       956.30000  6.82231e-07  2.65388e+07
       956.40000  6.82231e-07  2.65593e+07
       956.50000  6.73673e-07  2.62396e+07
       956.60000  6.73673e-07  2.62531e+07
       956.70000  6.73673e-07  2.62733e+07
       956.80000  6.73673e-07  2.62867e+07
       956.90000  6.73673e-07  2.63070e+07
       957.00000  6.73673e-07  2.63272e+07
       957.10000  6.73673e-07  2.63474e+07
       957.20000  6.73673e-07  2.63676e+07
       957.30000  6.73673e-07  2.63945e+07
       957.40000  6.73673e-07  2.64147e+07
       957.50000  6.65086e-07  2.60980e+07
       957.60000  6.65086e-07  2.61246e+07
       957.70000  6.65086e-07  2.61512e+07
       957.80000  6.65086e-07  2.61778e+07
       957.90000  6.65086e-07  2.62044e+07
       958.00000  6.65086e-07  2.62310e+07
       958.10000  6.65086e-07  2.62310e+07
       958.20000  6.65086e-07  2.62243e+07
       958.30000  6.65086e-07  2.62243e+07
       958.40000  6.65086e-07  2.62243e+07
       958.50000  6.56613e-07  2.58902e+07
       958.60000  6.56613e-07  2.58837e+07
       958.70000  6.56613e-07  2.58837e+07
       958.80000  6.57291e-07  2.59104e+07
       958.90000  6.57291e-07  2.59038e+07
       959.00000  6.57291e-07  2.59038e+07
       959.10000  6.57291e-07  2.58973e+07
       959.20000  6.57291e-07  2.58973e+07
       959.30000  6.57291e-07  2.58907e+07
       959.40000  6.57291e-07  2.58841e+07
       959.50000  6.48696e-07  2.55456e+07
       959.60000  6.48696e-07  2.55392e+07
       959.70000  6.48696e-07  2.55392e+07
       959.80000  6.48696e-07  2.55327e+07
       959.90000  6.48696e-07  2.55262e+07
       960.00000  6.48696e-07  2.55197e+07
       960.10000  6.48696e-07  2.55132e+07
       960.20000  6.48696e-07  2.55067e+07
       960.30000  6.48696e-07  2.55002e+07
       960.40000  6.48696e-07  2.54937e+07
       960.50000  6.40245e-07  2.51552e+07
       960.60000  6.40245e-07  2.51488e+07
       960.70000  6.40245e-07  2.51424e+07
       960.80000  6.40245e-07  2.51360e+07
       960.90000  6.40245e-07  2.51296e+07
       961.00000  6.40245e-07  2.51232e+07
       961.10000  6.40245e-07  2.51168e+07
       961.20000  6.40245e-07  2.51104e+07
       961.30000  6.41502e-07  2.51533e+07
       961.40000  6.41502e-07  2.51469e+07
       961.50000  6.32890e-07  2.48030e+07
       961.60000  6.32890e-07  2.47903e+07
       961.70000  6.32890e-07  2.47840e+07
       961.80000  6.32890e-07  2.47776e+07
       961.90000  6.32890e-07  2.47713e+07
       962.00000  6.32890e-07  2.47650e+07
       962.10000  6.32890e-07  2.47523e+07
       962.20000  6.32890e-07  2.47460e+07
       962.30000  6.32890e-07  2.47397e+07
       962.40000  6.32890e-07  2.47270e+07
       962.50000  6.24270e-07  2.43840e+07
       962.60000  6.24270e-07  2.43777e+07
       962.70000  6.24270e-07  2.43652e+07
       962.80000  6.24270e-07  2.43590e+07
       962.90000  6.24270e-07  2.43465e+07
       963.00000  6.24270e-07  2.43403e+07
       963.10000  6.24270e-07  2.43340e+07
       963.20000  6.24270e-07  2.43215e+07
       963.30000  6.24270e-07  2.43153e+07
       963.40000  6.24270e-07  2.43028e+07
       963.50000  9.23490e-07  3.59422e+07
       963.60000  9.23490e-07  3.59238e+07
       963.70000  9.23490e-07  3.59145e+07
       963.80000  9.25440e-07  3.59719e+07
       963.90000  9.25440e-07  3.59534e+07
       964.00000  9.25440e-07  3.59441e+07
       964.10000  9.25440e-07  3.59256e+07
       964.20000  9.25440e-07  3.58978e+07
       964.30000  9.25440e-07  3.58793e+07
       964.40000  9.25440e-07  3.58701e+07
       964.50000  9.12647e-07  3.53559e+07
       964.60000  9.12647e-07  3.53377e+07
       964.70000  9.12647e-07  3.53285e+07
       964.80000  9.12647e-07  3.53103e+07
       964.90000  9.12647e-07  3.53012e+07
       965.00000  9.12647e-07  3.52829e+07
       965.10000  9.12647e-07  3.52738e+07
       965.20000  9.12647e-07  3.52647e+07
       965.30000  9.12647e-07  3.52555e+07
       965.40000  9.12647e-07  3.52555e+07
       965.50000  8.99620e-07  3.47433e+07
       965.60000  8.99620e-07  3.47343e+07
       965.70000  8.99620e-07  3.47343e+07
       965.80000  8.99620e-07  3.47253e+07
       965.90000  8.99620e-07  3.47253e+07
       966.00000  8.99620e-07  3.47253e+07
       966.10000  8.99620e-07  3.47343e+07
       966.20000  8.99620e-07  3.47433e+07
       966.30000  9.02570e-07  3.48753e+07
       966.40000  9.02570e-07  3.48843e+07
       966.50000  8.89584e-07  3.43913e+07
       966.60000  8.89584e-07  3.44002e+07
       966.70000  8.89584e-07  3.44091e+07
       966.80000  8.89584e-07  3.44180e+07
       966.90000  8.89584e-07  3.44269e+07
       967.00000  8.89584e-07  3.44358e+07
       967.10000  8.89584e-07  3.44447e+07
       967.20000  8.89584e-07  3.44536e+07
       967.30000  8.89584e-07  3.44625e+07
       967.40000  8.89584e-07  3.44714e+07
       967.50000  8.76555e-07  3.39665e+07
       967.60000  8.76555e-07  3.39753e+07
       967.70000  8.76555e-07  3.39840e+07
       967.80000  8.76555e-07  3.39840e+07
       967.90000  8.76555e-07  3.39928e+07
       968.00000  8.76555e-07  3.40016e+07
       968.10000  8.76555e-07  3.40016e+07
       968.20000  8.76555e-07  3.40103e+07
       968.30000  8.76555e-07  3.40103e+07
       968.40000  8.76555e-07  3.40103e+07
       968.50000  8.63462e-07  3.35110e+07
       968.60000  8.63462e-07  3.35110e+07
       968.70000  8.63462e-07  3.35110e+07
       968.80000  8.65501e-07  3.35988e+07
       968.90000  8.65501e-07  3.35988e+07
       969.00000  8.65501e-07  3.35988e+07
       969.10000  8.65501e-07  3.35988e+07
       969.20000  8.65501e-07  3.35988e+07
       969.30000  8.65501e-07  3.35988e+07
       969.40000  8.65501e-07  3.35988e+07
       969.50000  8.52652e-07  3.30999e+07
       969.60000  8.52652e-07  3.30999e+07
       969.70000  8.52652e-07  3.30999e+07
       969.80000  8.52652e-07  3.30999e+07
       969.90000  8.52652e-07  3.30999e+07
       970.00000  8.52652e-07  3.30999e+07
       970.10000  8.52652e-07  3.31085e+07
       970.20000  8.52652e-07  3.31170e+07
       970.30000  8.52652e-07  3.31170e+07
       970.40000  8.52652e-07  3.31255e+07
       970.50000  8.39615e-07  3.26191e+07
       970.60000  8.39615e-07  3.26275e+07
       970.70000  8.39615e-07  3.26275e+07
       970.80000  8.39615e-07  3.26275e+07
       970.90000  8.39615e-07  3.26275e+07
       971.00000  8.39615e-07  3.26275e+07
       971.10000  8.39615e-07  3.26275e+07
       971.20000  8.39615e-07  3.26191e+07
       971.30000  8.40976e-07  3.26719e+07
       971.40000  8.40976e-07  3.26635e+07
       971.50000  8.27917e-07  3.21563e+07
       971.60000  8.27917e-07  3.21480e+07
       971.70000  8.27917e-07  3.21397e+07
       971.80000  8.27917e-07  3.21314e+07
       971.90000  8.27917e-07  3.21232e+07
       972.00000  8.27917e-07  3.21066e+07
       972.10000  8.27917e-07  3.20735e+07
       972.20000  8.27917e-07  3.20404e+07
       972.30000  8.27917e-07  3.20155e+07
       972.40000  8.27917e-07  3.19824e+07
       972.50000  8.14862e-07  3.14537e+07
       972.60000  8.14862e-07  3.14211e+07
       972.70000  8.14862e-07  3.13966e+07
       972.80000  8.14862e-07  3.13722e+07
       972.90000  8.14862e-07  3.13478e+07
       973.00000  8.14862e-07  3.13315e+07
       973.10000  8.14862e-07  3.13070e+07
       973.20000  8.14862e-07  3.12907e+07
       973.30000  8.14862e-07  3.12744e+07
       973.40000  8.14862e-07  3.12581e+07
       973.50000  8.01817e-07  3.07417e+07
       973.60000  8.01817e-07  3.07256e+07
       973.70000  8.01817e-07  3.07176e+07
       973.80000  8.02251e-07  3.07182e+07
       973.90000  8.02251e-07  3.07102e+07
       974.00000  8.02251e-07  3.07022e+07
       974.10000  8.02251e-07  3.07102e+07
       974.20000  8.02251e-07  3.07262e+07
       974.30000  8.02251e-07  3.07342e+07
       974.40000  8.02251e-07  3.07423e+07
       974.50000  7.89173e-07  3.02490e+07
       974.60000  7.89173e-07  3.02569e+07
       974.70000  7.89173e-07  3.02648e+07
       974.80000  7.89173e-07  3.02727e+07
       974.90000  7.89173e-07  3.02727e+07
       975.00000  7.89173e-07  3.02806e+07
       975.10000  7.89173e-07  3.02884e+07
       975.20000  7.89173e-07  3.02884e+07
       975.30000  7.89173e-07  3.02963e+07
       975.40000  7.89173e-07  3.02963e+07
       975.50000  1.03485e-06  3.97280e+07
       975.60000  1.03485e-06  3.97383e+07
       975.70000  1.03485e-06  3.97383e+07
       975.80000  1.03485e-06  3.97383e+07
       975.90000  1.03485e-06  3.97383e+07
       976.00000  1.03485e-06  3.97383e+07
       976.10000  1.03485e-06  3.97280e+07
       976.20000  1.03485e-06  3.97176e+07
       976.30000  1.03416e-06  3.96806e+07
       976.40000  1.03416e-06  3.96702e+07
       976.50000  1.01662e-06  3.89975e+07
       976.60000  1.01662e-06  3.89873e+07
       976.70000  1.01662e-06  3.89771e+07
       976.80000  1.01662e-06  3.89670e+07
       976.90000  1.01662e-06  3.89670e+07
       977.00000  1.01662e-06  3.89568e+07
       977.10000  1.01662e-06  3.89466e+07
       977.20000  1.01662e-06  3.89365e+07
       977.30000  1.01662e-06  3.89365e+07
       977.40000  1.01662e-06  3.89263e+07
       977.50000  9.99530e-07  3.82620e+07
       977.60000  9.99530e-07  3.82620e+07
       977.70000  9.99530e-07  3.82520e+07
       977.80000  9.99530e-07  3.82420e+07
       977.90000  9.99530e-07  3.82420e+07
       978.00000  9.99530e-07  3.82320e+07
       978.10000  9.99530e-07  3.82320e+07
       978.20000  9.99530e-07  3.82220e+07
       978.30000  9.99530e-07  3.82220e+07
       978.40000  9.99530e-07  3.82120e+07
       978.50000  9.81843e-07  3.75260e+07
       978.60000  9.81843e-07  3.75260e+07
       978.70000  9.81843e-07  3.75260e+07
       978.80000  9.81681e-07  3.75100e+07
       978.90000  9.81681e-07  3.75100e+07
       979.00000  9.81681e-07  3.75002e+07
       979.10000  9.81681e-07  3.75002e+07
       979.20000  9.81681e-07  3.74904e+07
       979.30000  9.81681e-07  3.74904e+07
       979.40000  9.81681e-07  3.74904e+07
       979.50000  9.64133e-07  3.68106e+07
       979.60000  9.64133e-07  3.68106e+07
       979.70000  9.64133e-07  3.68106e+07
       979.80000  9.64133e-07  3.68010e+07
       979.90000  9.64133e-07  3.68010e+07
       980.00000  9.64133e-07  3.68010e+07
       980.10000  9.64133e-07  3.68202e+07
       980.20000  9.64133e-07  3.68299e+07
       980.30000  9.64133e-07  3.68492e+07
       980.40000  9.64133e-07  3.68588e+07
       980.50000  9.46806e-07  3.62153e+07
       980.60000  9.46806e-07  3.62248e+07
       980.70000  9.46806e-07  3.62343e+07
       980.80000  9.46806e-07  3.62437e+07
       980.90000  9.46806e-07  3.62532e+07
       981.00000  9.46806e-07  3.62627e+07
       981.10000  9.46806e-07  3.62722e+07
       981.20000  9.46806e-07  3.62816e+07
       981.30000  9.51886e-07  3.64763e+07
       981.40000  9.51886e-07  3.64858e+07
       981.50000  9.34301e-07  3.58118e+07
       981.60000  9.34301e-07  3.58118e+07
       981.70000  9.34301e-07  3.58211e+07
       981.80000  9.34301e-07  3.58211e+07
       981.90000  9.34301e-07  3.58211e+07
       982.00000  9.34301e-07  3.58118e+07
       982.10000  9.34301e-07  3.58024e+07
       982.20000  9.34301e-07  3.57837e+07
       982.30000  9.34301e-07  3.57744e+07
       982.40000  9.34301e-07  3.57557e+07
       982.50000  9.16705e-07  3.50731e+07
       982.60000  9.16705e-07  3.50548e+07
       982.70000  9.16705e-07  3.50456e+07
       982.80000  9.16705e-07  3.50365e+07
       982.90000  9.16705e-07  3.50181e+07
       983.00000  9.16705e-07  3.50090e+07
       983.10000  9.16705e-07  3.49998e+07
       983.20000  9.16705e-07  3.49906e+07
       983.30000  9.16705e-07  3.49815e+07
       983.40000  9.16705e-07  3.49631e+07
       983.50000  8.99139e-07  3.42842e+07
       983.60000  8.99139e-07  3.42752e+07
       983.70000  8.99139e-07  3.42662e+07
       983.80000  8.99842e-07  3.42840e+07
       983.90000  8.99842e-07  3.42750e+07
       984.00000  8.99842e-07  3.42660e+07
       984.10000  8.99842e-07  3.42660e+07
       984.20000  8.99842e-07  3.42570e+07
       984.30000  8.99842e-07  3.42480e+07
       984.40000  8.99842e-07  3.42390e+07
       984.50000  1.10306e-06  4.19715e+07
       984.60000  1.10306e-06  4.19605e+07
       984.70000  1.10306e-06  4.19495e+07
       984.80000  1.10306e-06  4.19495e+07
       984.90000  1.10306e-06  4.19385e+07
       985.00000  1.10306e-06  4.19274e+07
       985.10000  1.10306e-06  4.19274e+07
       985.20000  1.10306e-06  4.19164e+07
       985.30000  1.10306e-06  4.19164e+07
       985.40000  1.10306e-06  4.19164e+07
       985.50000  1.08106e-06  4.10695e+07
       985.60000  1.08106e-06  4.10695e+07
       985.70000  1.08106e-06  4.10695e+07
       985.80000  1.08106e-06  4.10587e+07
       985.90000  1.08106e-06  4.10587e+07
       986.00000  1.08106e-06  4.10587e+07
       986.10000  1.08106e-06  4.10479e+07
       986.20000  1.08106e-06  4.10479e+07
       986.30000  1.07487e-06  4.08127e+07
       986.40000  1.07487e-06  4.08019e+07
       986.50000  1.05295e-06  3.99595e+07
       986.60000  1.05295e-06  3.99595e+07
       986.70000  1.05295e-06  3.99490e+07
       986.80000  1.05295e-06  3.99490e+07
       986.90000  1.05295e-06  3.99384e+07
       987.00000  1.05295e-06  3.99279e+07
       987.10000  1.05295e-06  3.99174e+07
       987.20000  1.05295e-06  3.99174e+07
       987.30000  1.05295e-06  3.99068e+07
       987.40000  1.05295e-06  3.98963e+07
       987.50000  1.03109e-06  3.90579e+07
       987.60000  1.03109e-06  3.90476e+07
       987.70000  1.03109e-06  3.90372e+07
       987.80000  1.03109e-06  3.90269e+07
       987.90000  1.03109e-06  3.90166e+07
       988.00000  1.03109e-06  3.90063e+07
       988.10000  1.03109e-06  3.89754e+07
       988.20000  1.03109e-06  3.89548e+07
       988.30000  1.03109e-06  3.89238e+07
       988.40000  1.03109e-06  3.89032e+07
       988.50000  1.00936e-06  3.80628e+07
       988.60000  1.00936e-06  3.80426e+07
       988.70000  1.00936e-06  3.80225e+07
       988.80000  1.01214e-06  3.81072e+07
       988.90000  1.01214e-06  3.80869e+07
       989.00000  1.01214e-06  3.80768e+07
       989.10000  1.01214e-06  3.80667e+07
       989.20000  1.01214e-06  3.80464e+07
       989.30000  1.01214e-06  3.80363e+07
       989.40000  1.01214e-06  3.80262e+07
       989.50000  9.89960e-07  3.71829e+07
       989.60000  9.89960e-07  3.71730e+07
       989.70000  9.89960e-07  3.71730e+07
       989.80000  9.89960e-07  3.71631e+07
       989.90000  9.89960e-07  3.71631e+07
       990.00000  9.89960e-07  3.71631e+07
       990.10000  9.89960e-07  3.71532e+07
       990.20000  9.89960e-07  3.71532e+07
       990.30000  9.89960e-07  3.71631e+07
       990.40000  9.89960e-07  3.71631e+07
       990.50000  9.68003e-07  3.63388e+07
       990.60000  9.68003e-07  3.63485e+07
       990.70000  9.68003e-07  3.63485e+07
       990.80000  9.68003e-07  3.63582e+07
       990.90000  9.68003e-07  3.63679e+07
       991.00000  9.68003e-07  3.63776e+07
       991.10000  9.68003e-07  3.63872e+07
       991.20000  9.68003e-07  3.63969e+07
       991.30000  9.70054e-07  3.64837e+07
       991.40000  9.70054e-07  3.65031e+07
       991.50000  1.13780e-06  4.28266e+07
       991.60000  1.13780e-06  4.28494e+07
       991.70000  1.13780e-06  4.28721e+07
       991.80000  1.13780e-06  4.28949e+07
       991.90000  1.13780e-06  4.29176e+07
       992.00000  1.13780e-06  4.29404e+07
       992.10000  1.13780e-06  4.29518e+07
       992.20000  1.13780e-06  4.29518e+07
       992.30000  1.13780e-06  4.29518e+07
       992.40000  1.13780e-06  4.29518e+07
       992.50000  1.11098e-06  4.19504e+07
       992.60000  1.11098e-06  4.19504e+07
       992.70000  1.11098e-06  4.19504e+07
       992.80000  1.11098e-06  4.19504e+07
       992.90000  1.11098e-06  4.19504e+07
       993.00000  1.11098e-06  4.19615e+07
       993.10000  1.11098e-06  4.19615e+07
       993.20000  1.11098e-06  4.19615e+07
       993.30000  1.11098e-06  4.19615e+07
       993.40000  1.11098e-06  4.19615e+07
       993.50000  1.08491e-06  4.09772e+07
       993.60000  1.08491e-06  4.09772e+07
       993.70000  1.08491e-06  4.09772e+07
       993.80000  1.08552e-06  4.10001e+07
       993.90000  1.08552e-06  4.09892e+07
       994.00000  1.08552e-06  4.09892e+07
       994.10000  1.08552e-06  4.09892e+07
       994.20000  1.08552e-06  4.09784e+07
       994.30000  1.08552e-06  4.09784e+07
       994.40000  1.08552e-06  4.09675e+07
       994.50000  1.05909e-06  3.99700e+07
       994.60000  1.05909e-06  3.99594e+07
       994.70000  1.05909e-06  3.99594e+07
       994.80000  1.05909e-06  3.99488e+07
       994.90000  1.05909e-06  3.99488e+07
       995.00000  1.05909e-06  3.99382e+07
       995.10000  1.05909e-06  3.99382e+07
       995.20000  1.05909e-06  3.99382e+07
       995.30000  1.05909e-06  3.99276e+07
       995.40000  1.05909e-06  3.99276e+07
       995.50000  1.03251e-06  3.89257e+07
       995.60000  1.03251e-06  3.89154e+07
       995.70000  1.03251e-06  3.89154e+07
       995.80000  1.03251e-06  3.89154e+07
       995.90000  1.03251e-06  3.89154e+07
       996.00000  1.03251e-06  3.89050e+07
       996.10000  1.03251e-06  3.89154e+07
       996.20000  1.03251e-06  3.89154e+07
       996.30000  1.03372e-06  3.89608e+07
       996.40000  1.03372e-06  3.89608e+07
       996.50000  1.17516e-06  4.42918e+07
       996.60000  1.17516e-06  4.42918e+07
       996.70000  1.17516e-06  4.42918e+07
       996.80000  1.17516e-06  4.42918e+07
       996.90000  1.17516e-06  4.42918e+07
       997.00000  1.17516e-06  4.42918e+07
       997.10000  1.17516e-06  4.42918e+07
       997.20000  1.17516e-06  4.42918e+07
       997.30000  1.17516e-06  4.42918e+07
       997.40000  1.17516e-06  4.42918e+07
       997.50000  1.14419e-06  4.31245e+07
       997.60000  1.14419e-06  4.31245e+07
       997.70000  1.14419e-06  4.31245e+07
       997.80000  1.14419e-06  4.31245e+07
       997.90000  1.14419e-06  4.31245e+07
       998.00000  1.14419e-06  4.31130e+07
       998.10000  1.14419e-06  4.31130e+07
       998.20000  1.14419e-06  4.31016e+07
       998.30000  1.14419e-06  4.31016e+07
       998.40000  1.14419e-06  4.30901e+07
       998.50000  1.11312e-06  4.19088e+07
       998.60000  1.11312e-06  4.19088e+07
       998.70000  1.11312e-06  4.18977e+07
       998.80000  1.12225e-06  4.22414e+07
       998.90000  1.12225e-06  4.22414e+07
       999.00000  1.12225e-06  4.22302e+07
       999.10000  1.12225e-06  4.22302e+07
       999.20000  1.12225e-06  4.22190e+07
       999.30000  1.12225e-06  4.22190e+07
       999.40000  1.12225e-06  4.22190e+07
       999.50000  1.09120e-06  4.10401e+07
       999.60000  1.09120e-06  4.10401e+07
       999.70000  1.09120e-06  4.10401e+07
       999.80000  1.09120e-06  4.10401e+07
       999.90000  1.09120e-06  4.10401e+07
       1000.0000  1.09120e-06  4.10292e+07
       1000.1000  1.09120e-06  4.10292e+07
       1000.2000  1.09120e-06  4.10292e+07
       1000.3000  1.09120e-06  4.10292e+07
       1000.4000  1.09120e-06  4.10292e+07
       1000.5000  1.07232e-06  4.03194e+07
       1000.6000  1.07232e-06  4.03194e+07
       1000.7000  1.07232e-06  4.03194e+07
       1000.8000  1.07232e-06  4.03194e+07
       1000.9000  1.07232e-06  4.03194e+07
       1001.0000  1.07232e-06  4.03194e+07
       1001.1000  1.07232e-06  4.03194e+07
       1001.2000  1.07232e-06  4.03301e+07
       1001.3000  1.05976e-06  3.98574e+07
       1001.4000  1.05976e-06  3.98574e+07
       1001.5000  1.18992e-06  4.47530e+07
       1001.6000  1.18992e-06  4.47530e+07
       1001.7000  1.18992e-06  4.47649e+07
       1001.8000  1.18992e-06  4.47649e+07
       1001.9000  1.18992e-06  4.47649e+07
       1002.0000  1.18992e-06  4.47768e+07
       1002.1000  1.18992e-06  4.47054e+07
       1002.2000  1.18992e-06  4.46340e+07
       1002.3000  1.18992e-06  4.45745e+07
       1002.4000  1.18992e-06  4.45031e+07
       1002.5000  1.16875e-06  4.36528e+07
       1002.6000  1.16875e-06  4.35826e+07
       1002.7000  1.16875e-06  4.35242e+07
       1002.8000  1.16875e-06  4.34658e+07
       1002.9000  1.16875e-06  4.34073e+07
       1003.0000  1.16875e-06  4.33489e+07
       1003.1000  1.16875e-06  4.32904e+07
       1003.2000  1.16875e-06  4.32320e+07
       1003.3000  1.16875e-06  4.31853e+07
       1003.4000  1.16875e-06  4.31268e+07
       1003.5000  1.14752e-06  4.22975e+07
       1003.6000  1.14752e-06  4.22516e+07
       1003.7000  1.14752e-06  4.21942e+07
       1003.8000  1.14721e-06  4.21371e+07
       1003.9000  1.14721e-06  4.20912e+07
       1004.0000  1.14721e-06  4.20453e+07
       1004.1000  1.14721e-06  4.19765e+07
       1004.2000  1.14721e-06  4.18962e+07
       1004.3000  1.14721e-06  4.18388e+07
       1004.4000  1.14721e-06  4.17700e+07
       1004.5000  1.12578e-06  4.09333e+07
       1004.6000  1.12578e-06  4.08771e+07
       1004.7000  1.12578e-06  4.08320e+07
       1004.8000  1.12578e-06  4.07870e+07
       1004.9000  1.12578e-06  4.07532e+07
       1005.0000  1.12578e-06  4.07194e+07
       1005.1000  1.12578e-06  4.06857e+07
       1005.2000  1.12578e-06  4.06632e+07
       1005.3000  1.12578e-06  4.06406e+07
       1005.4000  1.12578e-06  4.06294e+07
       1005.5000  1.24276e-06  4.48389e+07
       1005.6000  1.24276e-06  4.48265e+07
       1005.7000  1.24276e-06  4.48265e+07
       1005.8000  1.24276e-06  4.48389e+07
       1005.9000  1.24276e-06  4.48389e+07
       1006.0000  1.24276e-06  4.48513e+07
       1006.1000  1.24276e-06  4.48762e+07
       1006.2000  1.24276e-06  4.49011e+07
       1006.3000  1.24018e-06  4.48326e+07
       1006.4000  1.24018e-06  4.48698e+07
       1006.5000  1.21611e-06  4.40354e+07
       1006.6000  1.21611e-06  4.40841e+07
       1006.7000  1.21611e-06  4.41327e+07
       1006.8000  1.21611e-06  4.41814e+07
       1006.9000  1.21611e-06  4.42422e+07
       1007.0000  1.21611e-06  4.43030e+07
       1007.1000  1.21611e-06  4.43760e+07
       1007.2000  1.21611e-06  4.44489e+07
       1007.3000  1.21611e-06  4.45219e+07
       1007.4000  1.21611e-06  4.46070e+07
       1007.5000  1.19206e-06  4.38081e+07
       1007.6000  1.19206e-06  4.39034e+07
       1007.7000  1.19206e-06  4.39988e+07
       1007.8000  1.19206e-06  4.40942e+07
       1007.9000  1.19206e-06  4.42014e+07
       1008.0000  1.19206e-06  4.43087e+07
       1008.1000  1.19206e-06  4.43206e+07
       1008.2000  1.19206e-06  4.43206e+07
       1008.3000  1.19206e-06  4.43206e+07
       1008.4000  1.19206e-06  4.43206e+07
       1008.5000  1.16831e-06  4.34379e+07
       1008.6000  1.16831e-06  4.34379e+07
       1008.7000  1.16831e-06  4.34379e+07
       1008.8000  1.16586e-06  4.33467e+07
       1008.9000  1.16586e-06  4.33467e+07
       1009.0000  1.16586e-06  4.33350e+07
       1009.1000  1.16586e-06  4.33350e+07
       1009.2000  1.16586e-06  4.33350e+07
       1009.3000  1.16586e-06  4.33350e+07
       1009.4000  1.16586e-06  4.33234e+07
       1009.5000  1.26894e-06  4.71538e+07
       1009.6000  1.26894e-06  4.71538e+07
       1009.7000  1.26894e-06  4.71411e+07
       1009.8000  1.26894e-06  4.71411e+07
       1009.9000  1.26894e-06  4.71284e+07
       1010.0000  1.26894e-06  4.71284e+07
       1010.1000  1.26894e-06  4.71157e+07
       1010.2000  1.26894e-06  4.71030e+07
       1010.3000  1.26894e-06  4.70903e+07
       1010.4000  1.26894e-06  4.70777e+07
       1010.5000  1.24246e-06  4.60827e+07
       1010.6000  1.24246e-06  4.60703e+07
       1010.7000  1.24246e-06  4.60579e+07
       1010.8000  1.24246e-06  4.60454e+07
       1010.9000  1.24246e-06  4.60330e+07
       1011.0000  1.24246e-06  4.60206e+07
       1011.1000  1.24246e-06  4.60206e+07
       1011.2000  1.24246e-06  4.60082e+07
       1011.3000  1.23913e-06  4.58726e+07
       1011.4000  1.23913e-06  4.58602e+07
       1011.5000  1.21258e-06  4.48655e+07
       1011.6000  1.21258e-06  4.48534e+07
       1011.7000  1.21258e-06  4.48413e+07
       1011.8000  1.21258e-06  4.48292e+07
       1011.9000  1.21258e-06  4.48170e+07
       1012.0000  1.21258e-06  4.48049e+07
       1012.1000  1.21258e-06  4.47928e+07
       1012.2000  1.21258e-06  4.47806e+07
       1012.3000  1.21258e-06  4.47685e+07
       1012.4000  1.21258e-06  4.47564e+07
       1012.5000  1.18632e-06  4.37753e+07
       1012.6000  1.18632e-06  4.37635e+07
       1012.7000  1.18632e-06  4.37516e+07
       1012.8000  1.18632e-06  4.37398e+07
       1012.9000  1.18632e-06  4.37398e+07
       1013.0000  1.18632e-06  4.37279e+07
       1013.1000  1.18632e-06  4.37160e+07
       1013.2000  1.18632e-06  4.37042e+07
       1013.3000  1.18632e-06  4.36923e+07
       1013.4000  1.18632e-06  4.36804e+07
       1013.5000  1.27557e-06  4.69536e+07
       1013.6000  1.27557e-06  4.69408e+07
       1013.7000  1.27557e-06  4.69281e+07
       1013.8000  1.27457e-06  4.68788e+07
       1013.9000  1.27457e-06  4.68661e+07
       1014.0000  1.27457e-06  4.68533e+07
       1014.1000  1.27457e-06  4.68279e+07
       1014.2000  1.27457e-06  4.68024e+07
       1014.3000  1.27457e-06  4.67769e+07
       1014.4000  1.27457e-06  4.67514e+07
       1014.5000  1.24538e-06  4.56680e+07
       1014.6000  1.24538e-06  4.56431e+07
       1014.7000  1.24538e-06  4.56181e+07
       1014.8000  1.24538e-06  4.56057e+07
       1014.9000  1.24538e-06  4.55808e+07
       1015.0000  1.24538e-06  4.55683e+07
       1015.1000  1.24538e-06  4.55434e+07
       1015.2000  1.24538e-06  4.55310e+07
       1015.3000  1.24538e-06  4.55185e+07
       1015.4000  1.24538e-06  4.54936e+07
       1015.5000  1.21624e-06  4.44170e+07
       1015.6000  1.21624e-06  4.44048e+07
       1015.7000  1.21624e-06  4.43926e+07
       1015.8000  1.21624e-06  4.43805e+07
       1015.9000  1.21624e-06  4.43683e+07
       1016.0000  1.21624e-06  4.43562e+07
       1016.1000  1.21624e-06  4.43562e+07
       1016.2000  1.21624e-06  4.43562e+07
       1016.3000  1.21820e-06  4.44279e+07
       1016.4000  1.21820e-06  4.44157e+07
       1016.5000  1.29714e-06  4.72938e+07
       1016.6000  1.29714e-06  4.72938e+07
       1016.7000  1.29714e-06  4.72938e+07
       1016.8000  1.29714e-06  4.72808e+07
       1016.9000  1.29714e-06  4.72808e+07
       1017.0000  1.29714e-06  4.72679e+07
       1017.1000  1.29714e-06  4.72679e+07
       1017.2000  1.29714e-06  4.72549e+07
       1017.3000  1.29714e-06  4.72549e+07
       1017.4000  1.29714e-06  4.72419e+07
       1017.5000  1.26539e-06  4.60854e+07
       1017.6000  1.26539e-06  4.60728e+07
       1017.7000  1.26539e-06  4.60601e+07
       1017.8000  1.26539e-06  4.60475e+07
       1017.9000  1.26539e-06  4.60348e+07
       1018.0000  1.26539e-06  4.60348e+07
       1018.1000  1.26539e-06  4.60095e+07
       1018.2000  1.26539e-06  4.59842e+07
       1018.3000  1.26539e-06  4.59589e+07
       1018.4000  1.26539e-06  4.59336e+07
       1018.5000  1.23344e-06  4.47616e+07
       1018.6000  1.23344e-06  4.47369e+07
       1018.7000  1.23344e-06  4.47246e+07
       1018.8000  1.23286e-06  4.46789e+07
       1018.9000  1.23286e-06  4.46665e+07
       1019.0000  1.23286e-06  4.46419e+07
       1019.1000  1.23286e-06  4.46295e+07
       1019.2000  1.23286e-06  4.46172e+07
       1019.3000  1.23286e-06  4.46049e+07
       1019.4000  1.23286e-06  4.45802e+07
       1019.5000  1.30108e-06  4.70341e+07
       1019.6000  1.30108e-06  4.70211e+07
       1019.7000  1.30108e-06  4.70081e+07
       1019.8000  1.30108e-06  4.70081e+07
       1019.9000  1.30108e-06  4.69951e+07
       1020.0000  1.30108e-06  4.69821e+07
       1020.1000  1.30108e-06  4.69691e+07
       1020.2000  1.30108e-06  4.69561e+07
       1020.3000  1.30108e-06  4.69561e+07
       1020.4000  1.30108e-06  4.69430e+07
       1020.5000  1.26647e-06  4.56941e+07
       1020.6000  1.26647e-06  4.56814e+07
       1020.7000  1.26647e-06  4.56814e+07
       1020.8000  1.26647e-06  4.56687e+07
       1020.9000  1.26647e-06  4.56687e+07
       1021.0000  1.26647e-06  4.56687e+07
       1021.1000  1.26647e-06  4.56687e+07
       1021.2000  1.26647e-06  4.56687e+07
       1021.3000  1.26377e-06  4.55717e+07
       1021.4000  1.26377e-06  4.55717e+07
       1021.5000  1.22943e-06  4.43332e+07
       1021.6000  1.22943e-06  4.43332e+07
       1021.7000  1.22943e-06  4.43332e+07
       1021.8000  1.22943e-06  4.43455e+07
       1021.9000  1.22943e-06  4.43455e+07
       1022.0000  1.22943e-06  4.43578e+07
       1022.1000  1.22943e-06  4.43578e+07
       1022.2000  1.22943e-06  4.43701e+07
       1022.3000  1.22943e-06  4.43824e+07
       1022.4000  1.22943e-06  4.43824e+07
       1022.5000  1.28685e-06  4.64682e+07
       1022.6000  1.28685e-06  4.64811e+07
       1022.7000  1.28685e-06  4.64939e+07
       1022.8000  1.28685e-06  4.65068e+07
       1022.9000  1.28685e-06  4.65197e+07
       1023.0000  1.28685e-06  4.65325e+07
       1023.1000  1.28685e-06  4.65583e+07
       1023.2000  1.28685e-06  4.65711e+07
       1023.3000  1.28685e-06  4.65840e+07
       1023.4000  1.28685e-06  4.66098e+07
       1023.5000  1.24982e-06  4.52811e+07
       1023.6000  1.24982e-06  4.53060e+07
       1023.7000  1.24982e-06  4.53185e+07
       1023.8000  1.24616e-06  4.52108e+07
       1023.9000  1.24616e-06  4.52358e+07
       1024.0000  1.24616e-06  4.52607e+07
       1024.1000  1.24616e-06  4.52607e+07
       1024.2000  1.24616e-06  4.52482e+07
       1024.3000  1.24616e-06  4.52482e+07
       1024.4000  1.24616e-06  4.52482e+07
       1024.5000  1.29545e-06  4.70379e+07
       1024.6000  1.29545e-06  4.70250e+07
       1024.7000  1.29545e-06  4.70250e+07
       1024.8000  1.29545e-06  4.70250e+07
       1024.9000  1.29545e-06  4.70120e+07
       1025.0000  1.29545e-06  4.70120e+07
       1025.1000  1.29545e-06  4.70120e+07
       1025.2000  1.29545e-06  4.69991e+07
       1025.3000  1.29545e-06  4.69991e+07
       1025.4000  1.29545e-06  4.69991e+07
       1025.5000  1.25568e-06  4.55437e+07
       1025.6000  1.25568e-06  4.55437e+07
       1025.7000  1.25568e-06  4.55311e+07
       1025.8000  1.25568e-06  4.55311e+07
       1025.9000  1.25568e-06  4.55186e+07
       1026.0000  1.25568e-06  4.55186e+07
       1026.1000  1.25568e-06  4.55186e+07
       1026.2000  1.25568e-06  4.55060e+07
       1026.3000  1.25120e-06  4.53435e+07
       1026.4000  1.25120e-06  4.53310e+07
       1026.5000  1.21162e-06  4.38969e+07
       1026.6000  1.21162e-06  4.38848e+07
       1026.7000  1.21162e-06  4.38727e+07
       1026.8000  1.21162e-06  4.38727e+07
       1026.9000  1.21162e-06  4.38606e+07
       1027.0000  1.21162e-06  4.38606e+07
       1027.1000  1.21162e-06  4.38485e+07
       1027.2000  1.21162e-06  4.38363e+07
       1027.3000  1.21162e-06  4.38363e+07
       1027.4000  1.21162e-06  4.38242e+07
       1027.5000  1.25029e-06  4.52105e+07
       1027.6000  1.25029e-06  4.52105e+07
       1027.7000  1.25029e-06  4.51980e+07
       1027.8000  1.25029e-06  4.51855e+07
       1027.9000  1.25029e-06  4.51730e+07
       1028.0000  1.25029e-06  4.51605e+07
       1028.1000  1.25029e-06  4.51605e+07
       1028.2000  1.25029e-06  4.51480e+07
       1028.3000  1.25029e-06  4.51355e+07
       1028.4000  1.25029e-06  4.51230e+07
       1028.5000  1.20802e-06  4.35853e+07
       1028.6000  1.20802e-06  4.35732e+07
       1028.7000  1.20802e-06  4.35612e+07
       1028.8000  1.20837e-06  4.35618e+07
       1028.9000  1.20837e-06  4.35498e+07
       1029.0000  1.20837e-06  4.35377e+07
       1029.1000  1.20837e-06  4.35256e+07
       1029.2000  1.20837e-06  4.35135e+07
       1029.3000  1.20837e-06  4.35014e+07
       1029.4000  1.20837e-06  4.34893e+07
       1029.5000  1.23898e-06  4.45783e+07
       1029.6000  1.23898e-06  4.45659e+07
       1029.7000  1.23898e-06  4.45535e+07
       1029.8000  1.23898e-06  4.45412e+07
       1029.9000  1.23898e-06  4.45288e+07
       1030.0000  1.23898e-06  4.45040e+07
       1030.1000  1.23898e-06  4.45164e+07
       1030.2000  1.23898e-06  4.45164e+07
       1030.3000  1.23898e-06  4.45164e+07
       1030.4000  1.23898e-06  4.45164e+07
       1030.5000  1.19408e-06  4.29033e+07
       1030.6000  1.19408e-06  4.29033e+07
       1030.7000  1.19408e-06  4.28914e+07
       1030.8000  1.19408e-06  4.28914e+07
       1030.9000  1.19408e-06  4.28914e+07
       1031.0000  1.19408e-06  4.28795e+07
       1031.1000  1.19408e-06  4.28795e+07
       1031.2000  1.19408e-06  4.28675e+07
       1031.3000  1.19443e-06  4.28799e+07
       1031.4000  1.19443e-06  4.28679e+07
       1031.5000  1.21714e-06  4.36709e+07
       1031.6000  1.21714e-06  4.36587e+07
       1031.7000  1.21714e-06  4.36466e+07
       1031.8000  1.21714e-06  4.36344e+07
       1031.9000  1.21714e-06  4.36222e+07
       1032.0000  1.21714e-06  4.36101e+07
       1032.1000  1.21714e-06  4.35735e+07
       1032.2000  1.21714e-06  4.35248e+07
       1032.3000  1.21714e-06  4.34883e+07
       1032.4000  1.21714e-06  4.34640e+07
       1032.5000  1.16962e-06  4.17322e+07
       1032.6000  1.16962e-06  4.16971e+07
       1032.7000  1.16962e-06  4.16737e+07
       1032.8000  1.16962e-06  4.16386e+07
       1032.9000  1.16962e-06  4.16152e+07
       1033.0000  1.16962e-06  4.15918e+07
       1033.1000  1.16962e-06  4.15684e+07
       1033.2000  1.16962e-06  4.15567e+07
       1033.3000  1.16962e-06  4.15333e+07
       1033.4000  1.16962e-06  4.15216e+07
       1033.5000  1.12203e-06  3.98098e+07
       1033.6000  1.12203e-06  3.97986e+07
       1033.7000  1.12203e-06  3.97873e+07
       1033.8000  1.12365e-06  3.98334e+07
       1033.9000  1.12365e-06  3.98334e+07
       1034.0000  1.12365e-06  3.98222e+07
       1034.1000  1.12365e-06  3.98222e+07
       1034.2000  1.12365e-06  3.98109e+07
       1034.3000  1.12365e-06  3.98109e+07
       1034.4000  1.12365e-06  3.98109e+07
       1034.5000  1.13566e-06  4.02365e+07
       1034.6000  1.13566e-06  4.02479e+07
       1034.7000  1.13566e-06  4.02479e+07
       1034.8000  1.13566e-06  4.02592e+07
       1034.9000  1.13566e-06  4.02592e+07
       1035.0000  1.13566e-06  4.02706e+07
       1035.1000  1.13566e-06  4.02820e+07
       1035.2000  1.13566e-06  4.02933e+07
       1035.3000  1.13566e-06  4.03160e+07
       1035.4000  1.13566e-06  4.03274e+07
       1035.5000  1.08517e-06  3.85560e+07
       1035.6000  1.08517e-06  3.85777e+07
       1035.7000  1.08517e-06  3.85885e+07
       1035.8000  1.08517e-06  3.86102e+07
       1035.9000  1.08517e-06  3.86428e+07
       1036.0000  1.08517e-06  3.86645e+07
       1036.1000  1.08517e-06  3.86428e+07
       1036.2000  1.08517e-06  3.86211e+07
       1036.3000  1.08337e-06  3.85356e+07
       1036.4000  1.08337e-06  3.85139e+07
       1036.5000  1.08760e-06  3.86423e+07
       1036.6000  1.08760e-06  3.86206e+07
       1036.7000  1.08760e-06  3.86097e+07
       1036.8000  1.08760e-06  3.85879e+07
       1036.9000  1.08760e-06  3.85662e+07
       1037.0000  1.08760e-06  3.85553e+07
       1037.1000  1.08760e-06  3.85444e+07
       1037.2000  1.08760e-06  3.85227e+07
       1037.3000  1.08760e-06  3.85118e+07
       1037.4000  1.08760e-06  3.85009e+07
       1037.5000  1.03478e-06  3.66208e+07
       1037.6000  1.03478e-06  3.66104e+07
       1037.7000  1.03478e-06  3.66001e+07
       1037.8000  1.03478e-06  3.65897e+07
       1037.9000  1.03478e-06  3.65794e+07
       1038.0000  1.03478e-06  3.65690e+07
       1038.1000  1.03478e-06  3.65690e+07
       1038.2000  1.03478e-06  3.65690e+07
       1038.3000  1.03478e-06  3.65794e+07
       1038.4000  1.03478e-06  3.65794e+07
       1038.5000  1.03095e-06  3.64440e+07
       1038.6000  1.03095e-06  3.64440e+07
       1038.7000  1.03095e-06  3.64440e+07
       1038.8000  1.02868e-06  3.63639e+07
       1038.9000  1.02868e-06  3.63639e+07
       1039.0000  1.02868e-06  3.63639e+07
       1039.1000  1.02868e-06  3.63639e+07
       1039.2000  1.02868e-06  3.63639e+07
       1039.3000  1.02868e-06  3.63639e+07
       1039.4000  1.02868e-06  3.63639e+07
       1039.5000  9.73028e-07  3.43965e+07
       1039.6000  9.73028e-07  3.43965e+07
       1039.7000  9.73028e-07  3.43965e+07
       1039.8000  9.73028e-07  3.43965e+07
       1039.9000  9.73028e-07  3.43965e+07
       1040.0000  9.73028e-07  3.43965e+07
       1040.1000  9.73028e-07  3.43965e+07
       1040.2000  9.73028e-07  3.43965e+07
       1040.3000  9.73028e-07  3.43965e+07
       1040.4000  9.73028e-07  3.43965e+07
       1040.5000  9.61370e-07  3.39844e+07
       1040.6000  9.61370e-07  3.39844e+07
       1040.7000  9.61370e-07  3.39844e+07
       1040.8000  9.61370e-07  3.39844e+07
       1040.9000  9.61370e-07  3.39844e+07
       1041.0000  9.61370e-07  3.39844e+07
       1041.1000  9.61370e-07  3.39844e+07
       1041.2000  9.61370e-07  3.39844e+07
       1041.3000  9.61016e-07  3.39719e+07
       1041.4000  9.61016e-07  3.39719e+07
       1041.5000  9.43954e-07  3.33688e+07
       1041.6000  9.43954e-07  3.33688e+07
       1041.7000  9.43954e-07  3.33688e+07
       1041.8000  9.43954e-07  3.33593e+07
       1041.9000  9.43954e-07  3.33593e+07
       1042.0000  9.43954e-07  3.33593e+07
       1042.1000  9.43954e-07  3.33688e+07
       1042.2000  9.43954e-07  3.33688e+07
       1042.3000  9.43954e-07  3.33782e+07
       1042.4000  9.43954e-07  3.33782e+07
       1042.5000  8.82944e-07  3.12209e+07
       1042.6000  8.82944e-07  3.12209e+07
       1042.7000  8.82944e-07  3.12209e+07
       1042.8000  8.82944e-07  3.12121e+07
       1042.9000  8.82944e-07  3.12121e+07
       1043.0000  8.82944e-07  3.12121e+07
       1043.1000  8.82944e-07  3.12033e+07
       1043.2000  8.82944e-07  3.11944e+07
       1043.3000  8.82944e-07  3.11944e+07
       1043.4000  8.82944e-07  3.11856e+07
       1043.5000  8.58146e-07  3.03011e+07
       1043.6000  8.58146e-07  3.02926e+07
       1043.7000  8.58146e-07  3.02840e+07
       1043.8000  8.60819e-07  3.03611e+07
       1043.9000  8.60819e-07  3.03525e+07
       1044.0000  8.60819e-07  3.03353e+07
       1044.1000  8.60819e-07  3.03008e+07
       1044.2000  8.60819e-07  3.02578e+07
       1044.3000  8.60819e-07  3.02234e+07
       1044.4000  8.60819e-07  3.01889e+07
       1044.5000  7.97039e-07  2.79203e+07
       1044.6000  7.97039e-07  2.78964e+07
       1044.7000  7.97039e-07  2.78645e+07
       1044.8000  7.97039e-07  2.78406e+07
       1044.9000  7.97039e-07  2.78166e+07
       1045.0000  7.97039e-07  2.77927e+07
       1045.1000  7.97039e-07  2.77768e+07
       1045.2000  7.97039e-07  2.77529e+07
       1045.3000  7.97039e-07  2.77369e+07
       1045.4000  7.97039e-07  2.77210e+07
       1045.5000  7.63868e-07  2.65597e+07
       1045.6000  7.63868e-07  2.65444e+07
       1045.7000  7.63868e-07  2.65368e+07
       1045.8000  7.63868e-07  2.65291e+07
       1045.9000  7.63868e-07  2.65215e+07
       1046.0000  7.63868e-07  2.65139e+07
       1046.1000  7.63868e-07  2.65139e+07
       1046.2000  7.63868e-07  2.65062e+07
       1046.3000  7.65764e-07  2.65720e+07
       1046.4000  7.65764e-07  2.65720e+07
       1046.5000  6.99240e-07  2.42706e+07
       1046.6000  6.99240e-07  2.42706e+07
       1046.7000  6.99240e-07  2.42776e+07
       1046.8000  6.99240e-07  2.42846e+07
       1046.9000  6.99240e-07  2.42916e+07
       1047.0000  6.99240e-07  2.43056e+07
       1047.1000  6.99240e-07  2.43126e+07
       1047.2000  6.99240e-07  2.43266e+07
       1047.3000  6.99240e-07  2.43406e+07
       1047.4000  6.99240e-07  2.43545e+07
       1047.5000  6.58020e-07  2.29386e+07
       1047.6000  6.58020e-07  2.29517e+07
       1047.7000  6.58020e-07  2.29715e+07
       1047.8000  6.58020e-07  2.29912e+07
       1047.9000  6.58020e-07  2.30109e+07
       1048.0000  6.58020e-07  2.30373e+07
       1048.1000  6.58020e-07  2.30373e+07
       1048.2000  6.58020e-07  2.30373e+07
       1048.3000  6.58020e-07  2.30373e+07
       1048.4000  6.58020e-07  2.30307e+07
       1048.5000  6.11506e-07  2.14027e+07
       1048.6000  6.11506e-07  2.14027e+07
       1048.7000  6.11506e-07  2.14027e+07
       1048.8000  6.11361e-07  2.13976e+07
       1048.9000  6.11361e-07  2.13976e+07
       1049.0000  6.11361e-07  2.13915e+07
       1049.1000  6.11361e-07  2.13915e+07
       1049.2000  6.11361e-07  2.13915e+07
       1049.3000  6.11361e-07  2.13854e+07
       1049.4000  6.11361e-07  2.13854e+07
       1049.5000  5.39553e-07  1.88736e+07
       1049.6000  5.39553e-07  1.88682e+07
       1049.7000  5.39553e-07  1.88682e+07
       1049.8000  5.39553e-07  1.88682e+07
       1049.9000  5.39553e-07  1.88628e+07
       1050.0000  5.39553e-07  1.88628e+07
       1050.1000  5.39553e-07  1.88574e+07
       1050.2000  5.39553e-07  1.88574e+07
       1050.3000  5.39553e-07  1.88520e+07
       1050.4000  5.39553e-07  1.88466e+07
       1050.5000  4.84876e-07  1.69367e+07
       1050.6000  4.84876e-07  1.69319e+07
       1050.7000  4.84876e-07  1.69319e+07
       1050.8000  4.84876e-07  1.69270e+07
       1050.9000  4.84876e-07  1.69222e+07
       1051.0000  4.84876e-07  1.69222e+07
       1051.1000  4.84876e-07  1.69173e+07
       1051.2000  4.84876e-07  1.69173e+07
       1051.3000  4.83073e-07  1.68496e+07
       1051.4000  4.83073e-07  1.68447e+07
       1051.5000  4.23396e-07  1.47638e+07
       1051.6000  4.23396e-07  1.47596e+07
       1051.7000  4.23396e-07  1.47553e+07
       1051.8000  4.23396e-07  1.47553e+07
       1051.9000  4.23396e-07  1.47511e+07
       1052.0000  4.23396e-07  1.47511e+07
       1052.1000  4.23396e-07  1.47469e+07
       1052.2000  4.23396e-07  1.47426e+07
       1052.3000  4.23396e-07  1.47426e+07
       1052.4000  4.23396e-07  1.47384e+07
       1052.5000  3.46493e-07  1.20580e+07
       1052.6000  3.46493e-07  1.20580e+07
       1052.7000  3.46493e-07  1.20545e+07
       1052.8000  3.46493e-07  1.20510e+07
       1052.9000  3.46493e-07  1.20510e+07
       1053.0000  3.46493e-07  1.20476e+07
       1053.1000  3.46493e-07  1.20476e+07
       1053.2000  3.46493e-07  1.20441e+07
       1053.3000  3.46493e-07  1.20406e+07
       1053.4000  3.46493e-07  1.20406e+07
       1053.5000  2.78805e-07  9.68567e+06
       1053.6000  2.78805e-07  9.68288e+06
       1053.7000  2.78805e-07  9.68288e+06
       1053.8000  2.76916e-07  9.61452e+06
       1053.9000  2.76916e-07  9.61175e+06
       1054.0000  2.76916e-07  9.61175e+06
       1054.1000  2.76916e-07  9.61729e+06
       1054.2000  2.76916e-07  9.62006e+06
       1054.3000  2.76916e-07  9.62560e+06
       1054.4000  2.76916e-07  9.63114e+06
       1054.5000  2.04378e-07  7.11030e+06
       1054.6000  2.04378e-07  7.11234e+06
       1054.7000  2.04378e-07  7.11439e+06
       1054.8000  2.04378e-07  7.11643e+06
       1054.9000  2.04378e-07  7.11848e+06
       1055.0000  2.04378e-07  7.12052e+06
       1055.1000  2.04378e-07  7.12052e+06
       1055.2000  2.04378e-07  7.12052e+06
       1055.3000  2.04378e-07  7.12256e+06
       1055.4000  2.04378e-07  7.12256e+06
       1055.5000  1.22671e-07  4.27385e+06
       1055.6000  1.22671e-07  4.27385e+06
       1055.7000  1.22671e-07  4.27385e+06
       1055.8000  1.22671e-07  4.27262e+06
       1055.9000  1.22671e-07  4.27140e+06
       1056.0000  1.22671e-07  4.27017e+06
       1056.1000  1.22671e-07  4.26649e+06
       1056.2000  1.22671e-07  4.26281e+06
       1056.3000  1.21427e-07  4.21595e+06
       1056.4000  1.21427e-07  4.21109e+06
       1056.5000  4.17749e-08  1.44750e+06
       1056.6000  4.17749e-08  1.44667e+06
       1056.7000  4.17749e-08  1.44541e+06
       1056.8000  4.17749e-08  1.44416e+06
       1056.9000  4.17749e-08  1.44291e+06
       1057.0000  4.17749e-08  1.44207e+06
