PDS_VERSION_ID         = PDS3
RECORD_TYPE            = STREAM
OBJECT                 = TEXT
  PUBLICATION_DATE     = 2014-04-25
  INTERCHANGE_FORMAT   = ASCII
  NOTE                 = "System transmission vs. wavelength."
END_OBJECT             = TEXT
END
    
The systrans directory contains the non-wavelength-integrated system 
transmission values (QE*optics*filter1*filter2) for each filter combination. 
The naming convention for these files is as follows:

<camera><filter 1><filter 2>_systrans.tab

where <camera> is "issna" or "isswa," and <filter 1> and <filter 2> represent
the filter names. For polarized filter combinations, values are given for the
parallel orientation of the filter (full transmission), with values for the 
perpendicular (blocking) orientation provided in files with subscript 
"_b_systrans.tab". 

Columns in systrans files are as follows:

 1st column: Wavelength (nm)  
 2nd column: Transmitted Flux
 3rd column: Transmitted Flux * Solar Flux (phot per cm^2-s-angstrom at 1 AU)

The solar spectrum used for this calculation is provided in solarflux.tab.

\begindata
       200.00000  6.48118e-16  4.54396e-05
       200.10000  6.48118e-16  4.58997e-05
       200.20000  6.48118e-16  4.63728e-05
       200.30000  6.48118e-16  4.68589e-05
       200.40000  6.48118e-16  4.73580e-05
       200.50000  6.48118e-16  4.78635e-05
       200.60000  2.37917e-14   0.00177962
       200.70000  2.37917e-14   0.00180127
       200.80000  2.37917e-14   0.00182173
       200.90000  2.37917e-14   0.00184100
       201.00000  2.37917e-14   0.00185908
       201.10000  2.37917e-14   0.00187621
       201.20000  2.37917e-14   0.00189239
       201.30000  2.41206e-14   0.00193375
       201.40000  2.41206e-14   0.00194774
       201.50000  2.41206e-14   0.00196053
       201.60000  1.27443e-14   0.00103522
       201.70000  1.27443e-14   0.00103560
       201.80000  1.27443e-14   0.00103687
       201.90000  1.27443e-14   0.00103904
       202.00000  1.27443e-14   0.00104210
       202.10000  1.27443e-14   0.00104618
       202.20000  1.27443e-14   0.00105128
       202.30000  1.27443e-14   0.00105714
       202.40000  1.27443e-14   0.00106402
       202.50000  1.27443e-14   0.00107192
       202.60000  5.84184e-16  4.95388e-05
       202.70000  5.84184e-16  4.99828e-05
       202.80000  5.84184e-16  5.04677e-05
       202.90000  5.84184e-16  5.09993e-05
       203.00000  5.84184e-16  5.15776e-05
       203.10000  5.84184e-16  5.21910e-05
       203.20000  5.84184e-16  5.28511e-05
       203.30000  5.84184e-16  5.35580e-05
       203.40000  5.84184e-16  5.42999e-05
       203.50000  5.84184e-16  5.50944e-05
       203.60000  6.21393e-15  0.000595046
       203.70000  6.21393e-15  0.000603559
       203.80000  6.09574e-15  0.000600004
       203.90000  6.09574e-15  0.000607441
       204.00000  6.09574e-15  0.000614451
       204.10000  6.09574e-15  0.000621156
       204.20000  6.09574e-15  0.000627252
       204.30000  6.09574e-15  0.000632738
       204.40000  6.09574e-15  0.000637615
       204.50000  6.09574e-15  0.000642491
       204.60000  1.87866e-14   0.00198387
       204.70000  1.87866e-14   0.00198950
       204.80000  1.87866e-14   0.00199514
       204.90000  1.87866e-14   0.00200077
       205.00000  1.87866e-14   0.00200641
       205.10000  1.87866e-14   0.00201392
       205.20000  1.87866e-14   0.00202144
       205.30000  1.87866e-14   0.00202895
       205.40000  1.87866e-14   0.00203647
       205.50000  1.87866e-14   0.00204586
       205.60000  3.00778e-15  0.000329051
       205.70000  3.00778e-15  0.000330555
       205.80000  3.00778e-15  0.000332360
       205.90000  3.00778e-15  0.000333863
       206.00000  3.00778e-15  0.000335668
       206.10000  3.00778e-15  0.000337774
       206.20000  3.00778e-15  0.000339578
       206.30000  2.99993e-15  0.000340792
       206.40000  2.99993e-15  0.000342892
       206.50000  2.99993e-15  0.000344992
       206.60000  7.52829e-15  0.000875540
       206.70000  7.52829e-15  0.000886080
       206.80000  7.52829e-15  0.000897372
       206.90000  7.52829e-15  0.000909417
       207.00000  7.52829e-15  0.000921463
       207.10000  7.52829e-15  0.000934261
       207.20000  7.52829e-15  0.000948564
       207.30000  7.52829e-15  0.000962868
       207.40000  7.52829e-15  0.000977925
       207.50000  7.52829e-15  0.000993734
       207.60000  6.44567e-15  0.000855341
       207.70000  6.44567e-15  0.000862431
       207.80000  6.44567e-15  0.000872099
       207.90000  6.44567e-15  0.000884991
       208.00000  6.44567e-15  0.000900460
       208.10000  6.44567e-15  0.000918508
       208.20000  6.44567e-15  0.000939134
       208.30000  6.44567e-15  0.000962339
       208.40000  6.44567e-15  0.000988121
       208.50000  6.44567e-15   0.00101713
       208.60000  1.45136e-14   0.00235991
       208.70000  1.45136e-14   0.00243683
       208.80000  1.45372e-14   0.00252366
       208.90000  1.45372e-14   0.00261233
       209.00000  1.45372e-14   0.00270828
       209.10000  1.45372e-14   0.00280858
       209.20000  1.45372e-14   0.00291616
       209.30000  1.45372e-14   0.00302955
       209.40000  1.45372e-14   0.00314875
       209.50000  1.45372e-14   0.00327377
       209.60000  7.24838e-16  0.000168597
       209.70000  7.24838e-16  0.000173961
       209.80000  7.24838e-16  0.000179252
       209.90000  7.24838e-16  0.000184399
       210.00000  7.24838e-16  0.000189545
       210.10000  7.24838e-16  0.000194619
       210.20000  7.24838e-16  0.000199620
       210.30000  7.24838e-16  0.000204549
       210.40000  7.24838e-16  0.000209406
       210.50000  7.24838e-16  0.000214190
       210.60000  3.00843e-15  0.000918773
       210.70000  3.00843e-15  0.000945849
       210.80000  3.00843e-15  0.000970518
       210.90000  3.00843e-15  0.000992781
       211.00000  3.00843e-15   0.00101234
       211.10000  3.00843e-15   0.00102948
       211.20000  3.00843e-15   0.00104422
       211.30000  3.04969e-15   0.00107075
       211.40000  3.04969e-15   0.00108050
       211.50000  3.04969e-15   0.00108782
       211.60000  3.05585e-15   0.00107719
       211.70000  3.05585e-15   0.00106557
       211.80000  3.05585e-15   0.00105549
       211.90000  3.05585e-15   0.00104663
       212.00000  3.05585e-15   0.00103929
       212.10000  3.05585e-15   0.00103318
       212.20000  3.05585e-15   0.00102829
       212.30000  3.05585e-15   0.00102493
       212.40000  3.05585e-15   0.00102279
       212.50000  3.05585e-15   0.00102187
       212.60000  1.71988e-15  0.000574613
       212.70000  1.71988e-15  0.000575129
       212.80000  1.71988e-15  0.000576333
       212.90000  1.71988e-15  0.000578741
       213.00000  1.71988e-15  0.000581837
       213.10000  1.71988e-15  0.000585964
       213.20000  1.71988e-15  0.000591124
       213.30000  1.71988e-15  0.000597143
       213.40000  1.71988e-15  0.000604195
       213.50000  1.71988e-15  0.000611934
       213.60000  2.68322e-15  0.000968642
       213.70000  2.68322e-15  0.000983937
       213.80000  2.69636e-15   0.00100547
       213.90000  2.69636e-15   0.00102381
       214.00000  2.69636e-15   0.00104349
       214.10000  2.69636e-15   0.00106452
       214.20000  2.69636e-15   0.00108717
       214.30000  2.69636e-15   0.00111144
       214.40000  2.69636e-15   0.00113706
       214.50000  2.69636e-15   0.00116402
       214.60000  5.36664e-15   0.00229531
       214.70000  5.36664e-15   0.00227385
       214.80000  5.36664e-15   0.00225292
       214.90000  5.36664e-15   0.00223145
       215.00000  5.36664e-15   0.00220998
       215.10000  5.36664e-15   0.00218798
       215.20000  5.36664e-15   0.00216651
       215.30000  5.36664e-15   0.00214505
       215.40000  5.36664e-15   0.00212358
       215.50000  5.36664e-15   0.00210211
       215.60000  3.37937e-14    0.0129869
       215.70000  3.37937e-14    0.0127605
       215.80000  3.37937e-14    0.0125611
       215.90000  3.37937e-14    0.0123854
       216.00000  3.37937e-14    0.0122367
       216.10000  3.37937e-14    0.0121117
       216.20000  3.37937e-14    0.0120137
       216.30000  3.36425e-14    0.0118859
       216.40000  3.36425e-14    0.0118388
       216.50000  3.36425e-14    0.0118186
       216.60000  9.61518e-15   0.00337877
       216.70000  9.61518e-15   0.00338647
       216.80000  9.61518e-15   0.00340185
       216.90000  9.61518e-15   0.00342397
       217.00000  9.61518e-15   0.00345377
       217.10000  9.61518e-15   0.00349127
       217.20000  9.61518e-15   0.00353454
       217.30000  9.61518e-15   0.00358646
       217.40000  9.61518e-15   0.00364511
       217.50000  9.61518e-15   0.00371050
       217.60000  1.87825e-14   0.00749983
       217.70000  1.87825e-14   0.00773649
       217.80000  1.87825e-14   0.00796188
       217.90000  1.87825e-14   0.00817225
       218.00000  1.87825e-14   0.00836946
       218.10000  1.87825e-14   0.00855353
       218.20000  1.87825e-14   0.00872445
       218.30000  1.87825e-14   0.00888035
       218.40000  1.87825e-14   0.00902497
       218.50000  1.87825e-14   0.00915645
       218.60000  3.12584e-15   0.00153635
       218.70000  3.12584e-15   0.00154854
       218.80000  3.09627e-15   0.00154504
       218.90000  3.09627e-15   0.00155557
       219.00000  3.09627e-15   0.00156548
       219.10000  3.09627e-15   0.00157445
       219.20000  3.09627e-15   0.00158281
       219.30000  3.09627e-15   0.00159025
       219.40000  3.09627e-15   0.00159706
       219.50000  3.09627e-15   0.00160325
       219.60000  1.98888e-14    0.0103342
       219.70000  1.98888e-14    0.0103640
       219.80000  1.98888e-14    0.0103899
       219.90000  1.98888e-14    0.0104098
       220.00000  1.98888e-14    0.0104257
       220.10000  1.98888e-14    0.0104376
       220.20000  1.98888e-14    0.0104436
       220.30000  1.98888e-14    0.0104456
       220.40000  1.98888e-14    0.0104436
       220.50000  1.98888e-14    0.0104356
       220.60000  2.26205e-16  0.000114777
       220.70000  2.26205e-16  0.000111293
       220.80000  2.26205e-16  0.000108285
       220.90000  2.26205e-16  0.000105706
       221.00000  2.26205e-16  0.000103579
       221.10000  2.26205e-16  0.000101906
       221.20000  2.26205e-16  0.000100684
       221.30000  2.23363e-16  9.86593e-05
       221.40000  2.23363e-16  9.83243e-05
       221.50000  2.23363e-16  9.84583e-05
       221.60000  1.67581e-19  7.54951e-08
       221.70000  1.67581e-19  7.72044e-08
       221.80000  1.67581e-19  7.89640e-08
       221.90000  1.67581e-19  8.07906e-08
       222.00000  1.67581e-19  8.26843e-08
       222.10000  1.67581e-19  8.46282e-08
       222.20000  1.67581e-19  8.66560e-08
       222.30000  1.67581e-19  8.87340e-08
       222.40000  1.67581e-19  9.08790e-08
       222.50000  1.67581e-19  9.30743e-08
       222.60000  2.60235e-15   0.00148074
       222.70000  2.60235e-15   0.00151691
       222.80000  2.60235e-15   0.00155412
       222.90000  2.60235e-15   0.00159238
       223.00000  2.60235e-15   0.00163167
       223.10000  2.60235e-15   0.00167201
       223.20000  2.60235e-15   0.00171313
       223.30000  2.60235e-15   0.00175529
       223.40000  2.60235e-15   0.00179849
       223.50000  2.60235e-15   0.00184273
       223.60000  4.11382e-15   0.00290106
       223.70000  4.11382e-15   0.00288790
       223.80000  4.05994e-15   0.00283587
       223.90000  4.05994e-15   0.00282044
       224.00000  4.05994e-15   0.00280380
       224.10000  4.05994e-15   0.00278593
       224.20000  4.05994e-15   0.00276685
       224.30000  4.05994e-15   0.00274655
       224.40000  4.05994e-15   0.00272503
       224.50000  4.05994e-15   0.00270230
       224.60000  3.43605e-15   0.00227329
       224.70000  3.43605e-15   0.00225680
       224.80000  3.43605e-15   0.00223790
       224.90000  3.43605e-15   0.00221660
       225.00000  3.43605e-15   0.00219289
       225.10000  3.43605e-15   0.00216643
       225.20000  3.43605e-15   0.00213791
       225.30000  3.43605e-15   0.00210664
       225.40000  3.43605e-15   0.00207297
       225.50000  3.43605e-15   0.00203724
       225.60000  5.19386e-15   0.00302127
       225.70000  5.19386e-15   0.00295894
       225.80000  5.19386e-15   0.00289350
       225.90000  5.19386e-15   0.00282442
       226.00000  5.19386e-15   0.00275119
       226.10000  5.19386e-15   0.00267432
       226.20000  5.19386e-15   0.00259382
       226.30000  5.13567e-15   0.00248155
       226.40000  5.13567e-15   0.00239476
       226.50000  5.13567e-15   0.00230437
       226.60000  2.50061e-14    0.0110902
       226.70000  2.50061e-14    0.0109952
       226.80000  2.50061e-14    0.0109327
       226.90000  2.50061e-14    0.0109027
       227.00000  2.50061e-14    0.0109052
       227.10000  2.50061e-14    0.0109427
       227.20000  2.50061e-14    0.0110127
       227.30000  2.50061e-14    0.0111152
       227.40000  2.50061e-14    0.0112502
       227.50000  2.50061e-14    0.0114178
       227.60000  2.45605e-15   0.00117645
       227.70000  2.45605e-15   0.00122704
       227.80000  2.45605e-15   0.00127297
       227.90000  2.45605e-15   0.00131423
       228.00000  2.45605e-15   0.00135083
       228.10000  2.45605e-15   0.00138300
       228.20000  2.45605e-15   0.00141076
       228.30000  2.45605e-15   0.00143360
       228.40000  2.45605e-15   0.00145202
       228.50000  2.45605e-15   0.00146577
       228.60000  2.20757e-14    0.0132587
       228.70000  2.20757e-14    0.0133006
       228.80000  2.18844e-14    0.0131853
       228.90000  2.18844e-14    0.0131459
       229.00000  2.18844e-14    0.0130650
       229.10000  2.18844e-14    0.0129424
       229.20000  2.18844e-14    0.0127805
       229.30000  2.18844e-14    0.0125769
       229.40000  2.18844e-14    0.0123340
       229.50000  2.18844e-14    0.0120473
       229.60000  1.69426e-14   0.00946751
       229.70000  1.69426e-14   0.00959628
       229.80000  1.69426e-14   0.00971318
       229.90000  1.69426e-14   0.00981992
       230.00000  1.69426e-14   0.00991649
       230.10000  1.69426e-14    0.0100012
       230.20000  1.69426e-14    0.0100758
       230.30000  1.69426e-14    0.0101401
       230.40000  1.69426e-14    0.0101927
       230.50000  1.69426e-14    0.0102333
       230.60000  3.63799e-14    0.0218680
       230.70000  3.63799e-14    0.0217806
       230.80000  3.63799e-14    0.0217042
       230.90000  3.63799e-14    0.0216424
       231.00000  3.63799e-14    0.0215951
       231.10000  3.63799e-14    0.0215660
       231.20000  3.63799e-14    0.0215478
       231.30000  3.61280e-14    0.0213950
       231.40000  3.61280e-14    0.0214059
       231.50000  3.61280e-14    0.0214348
       231.60000  8.16971e-15   0.00485608
       231.70000  8.16971e-15   0.00486833
       231.80000  8.16971e-15   0.00488467
       231.90000  8.16971e-15   0.00490346
       232.00000  8.16971e-15   0.00492552
       232.10000  8.16971e-15   0.00495166
       232.20000  8.16971e-15   0.00498026
       232.30000  8.16971e-15   0.00501212
       232.40000  8.16971e-15   0.00504807
       232.50000  8.16971e-15   0.00508646
       232.60000  2.18394e-15   0.00133526
       232.70000  2.18394e-15   0.00131167
       232.80000  2.18394e-15   0.00128874
       232.90000  2.18394e-15   0.00126647
       233.00000  2.18394e-15   0.00124484
       233.10000  2.18394e-15   0.00122388
       233.20000  2.18394e-15   0.00120357
       233.30000  2.18394e-15   0.00118413
       233.40000  2.18394e-15   0.00116535
       233.50000  2.18394e-15   0.00114722
       233.60000  7.68635e-15   0.00391235
       233.70000  7.68635e-15   0.00380397
       233.80000  7.64067e-15   0.00368968
       233.90000  7.64067e-15   0.00361480
       234.00000  7.64067e-15   0.00355673
       234.10000  7.64067e-15   0.00351471
       234.20000  7.64067e-15   0.00348873
       234.30000  7.64067e-15   0.00347956
       234.40000  7.64067e-15   0.00348720
       234.50000  7.64067e-15   0.00351089
       234.60000  2.18088e-14    0.0105228
       234.70000  2.18088e-14    0.0109873
       234.80000  2.18088e-14    0.0114104
       234.90000  2.18088e-14    0.0117964
       235.00000  2.18088e-14    0.0121410
       235.10000  2.18088e-14    0.0124485
       235.20000  2.18088e-14    0.0127146
       235.30000  2.18088e-14    0.0129414
       235.40000  2.18088e-14    0.0131289
       235.50000  2.18088e-14    0.0132794
       235.60000  7.60041e-16  0.000459293
       235.70000  7.60041e-16  0.000456101
       235.80000  7.60041e-16  0.000453137
       235.90000  7.60041e-16  0.000450401
       236.00000  7.60041e-16  0.000447892
       236.10000  7.60041e-16  0.000445688
       236.20000  7.60041e-16  0.000443712
       236.30000  7.58506e-16  0.000441071
       236.40000  7.58506e-16  0.000439554
       236.50000  7.58506e-16  0.000438265
       236.60000  2.37980e-14    0.0137172
       236.70000  2.37980e-14    0.0136934
       236.80000  2.37980e-14    0.0136743
       236.90000  2.37980e-14    0.0136648
       237.00000  2.37980e-14    0.0136624
       237.10000  2.37980e-14    0.0136696
       237.20000  2.37980e-14    0.0136815
       237.30000  2.37980e-14    0.0137029
       237.40000  2.37980e-14    0.0137291
       237.50000  2.37980e-14    0.0137648
       237.60000  6.13170e-15   0.00347238
       237.70000  6.13170e-15   0.00340371
       237.80000  6.13170e-15   0.00334178
       237.90000  6.13170e-15   0.00328598
       238.00000  6.13170e-15   0.00323693
       238.10000  6.13170e-15   0.00319400
       238.20000  6.13170e-15   0.00315721
       238.30000  6.13170e-15   0.00312656
       238.40000  6.13170e-15   0.00310264
       238.50000  6.13170e-15   0.00308547
       238.60000  1.74566e-14   0.00889588
       238.70000  1.74566e-14   0.00899538
       238.80000  1.75082e-14   0.00910599
       238.90000  1.75082e-14   0.00917602
       239.00000  1.75082e-14   0.00923380
       239.10000  1.75082e-14   0.00927582
       239.20000  1.75082e-14   0.00930383
       239.30000  1.75082e-14   0.00931609
       239.40000  1.75082e-14   0.00931609
       239.50000  1.75082e-14   0.00930208
       239.60000  1.31646e-14   0.00697199
       239.70000  1.31646e-14   0.00694039
       239.80000  1.31646e-14   0.00689695
       239.90000  1.31646e-14   0.00684297
       240.00000  1.31646e-14   0.00677978
       240.10000  1.31646e-14   0.00670475
       240.20000  1.31646e-14   0.00661786
       240.30000  1.31646e-14   0.00652176
       240.40000  1.31646e-14   0.00641512
       240.50000  1.31646e-14   0.00629796
       240.60000  2.06109e-20  1.00787e-08
       240.70000  2.06109e-20  1.03178e-08
       240.80000  2.06109e-20  1.05734e-08
       240.90000  2.06109e-20  1.08496e-08
       241.00000  2.06109e-20  1.11422e-08
       241.10000  2.06109e-20  1.14535e-08
       241.20000  2.06109e-20  1.17832e-08
       241.30000  2.07672e-20  1.22236e-08
       241.40000  2.07672e-20  1.25932e-08
       241.50000  2.07672e-20  1.29816e-08
       241.60000  1.31456e-14   0.00869452
       241.70000  1.31456e-14   0.00913358
       241.80000  1.31456e-14   0.00953584
       241.90000  1.31456e-14   0.00990129
       242.00000  1.31456e-14    0.0102299
       242.10000  1.31456e-14    0.0105218
       242.20000  1.31456e-14    0.0107755
       242.30000  1.31456e-14    0.0109924
       242.40000  1.31456e-14    0.0111725
       242.50000  1.31456e-14    0.0113158
       242.60000  5.23870e-14    0.0455191
       242.70000  5.23870e-14    0.0457915
       242.80000  5.23870e-14    0.0459172
       242.90000  5.23870e-14    0.0458962
       243.00000  5.23870e-14    0.0457286
       243.10000  5.23870e-14    0.0454143
       243.20000  5.23870e-14    0.0449480
       243.30000  5.23870e-14    0.0443351
       243.40000  5.23870e-14    0.0435755
       243.50000  5.23870e-14    0.0426692
       243.60000  1.11508e-15  0.000904775
       243.70000  1.11508e-15  0.000900426
       243.80000  1.12652e-15  0.000904482
       243.90000  1.12652e-15  0.000898399
       244.00000  1.12652e-15  0.000891527
       244.10000  1.12652e-15  0.000883754
       244.20000  1.12652e-15  0.000875193
       244.30000  1.12652e-15  0.000865730
       244.40000  1.12652e-15  0.000855478
       244.50000  1.12652e-15  0.000844326
       244.60000  1.02152e-19  7.44276e-08
       244.70000  1.02152e-19  7.24459e-08
       244.80000  1.02152e-19  7.06174e-08
       244.90000  1.02152e-19  6.89523e-08
       245.00000  1.02152e-19  6.74405e-08
       245.10000  1.02152e-19  6.60921e-08
       245.20000  1.02152e-19  6.48969e-08
       245.30000  1.02152e-19  6.38652e-08
       245.40000  1.02152e-19  6.29969e-08
       245.50000  1.02152e-19  6.22716e-08
       245.60000  4.02188e-20  2.43002e-08
       245.70000  4.02188e-20  2.41434e-08
       245.80000  4.02188e-20  2.40468e-08
       245.90000  4.02188e-20  2.40147e-08
       246.00000  4.02188e-20  2.40428e-08
       246.10000  4.02188e-20  2.41353e-08
       246.20000  4.02188e-20  2.42882e-08
       246.30000  4.06480e-20  2.47668e-08
       246.40000  4.06480e-20  2.50473e-08
       246.50000  4.06480e-20  2.53887e-08
       246.60000  3.43970e-14    0.0220003
       246.70000  3.43970e-14    0.0224509
       246.80000  3.43970e-14    0.0228396
       246.90000  3.43970e-14    0.0231629
       247.00000  3.43970e-14    0.0234209
       247.10000  3.43970e-14    0.0236170
       247.20000  3.43970e-14    0.0237477
       247.30000  3.43970e-14    0.0238130
       247.40000  3.43970e-14    0.0238165
       247.50000  3.43970e-14    0.0237545
       247.60000  1.39491e-15  0.000930405
       247.70000  1.39491e-15  0.000901112
       247.80000  1.39491e-15  0.000875446
       247.90000  1.39491e-15  0.000853266
       248.00000  1.39491e-15  0.000834714
       248.10000  1.39491e-15  0.000819649
       248.20000  1.39491e-15  0.000808211
       248.30000  1.39491e-15  0.000800539
       248.40000  1.39491e-15  0.000796215
       248.50000  1.39491e-15  0.000795657
       248.60000  6.59857e-15   0.00377768
       248.70000  6.59857e-15   0.00380869
       248.80000  6.66901e-15   0.00389737
       248.90000  6.66901e-15   0.00396339
       249.00000  6.66901e-15   0.00404609
       249.10000  6.66901e-15   0.00414546
       249.20000  6.66901e-15   0.00426283
       249.30000  6.66901e-15   0.00439688
       249.40000  6.66901e-15   0.00454827
       249.50000  6.66901e-15   0.00471699
       249.60000  3.42165e-15   0.00247146
       249.70000  3.42165e-15   0.00251560
       249.80000  3.42165e-15   0.00255187
       249.90000  3.42165e-15   0.00258027
       250.00000  3.42165e-15   0.00260114
       250.10000  3.42165e-15   0.00261449
       250.20000  3.42165e-15   0.00261996
       250.30000  3.42165e-15   0.00261756
       250.40000  3.42165e-15   0.00260764
       250.50000  3.42165e-15   0.00258985
       250.60000  7.77557e-15   0.00570727
       250.70000  7.77557e-15   0.00553854
       250.80000  7.77557e-15   0.00537836
       250.90000  7.77557e-15   0.00522829
       251.00000  7.77557e-15   0.00508756
       251.10000  7.77557e-15   0.00495615
       251.20000  7.77557e-15   0.00483407
       251.30000  7.86297e-15   0.00477440
       251.40000  7.86297e-15   0.00466982
       251.50000  7.86297e-15   0.00457468
       251.60000  6.31255e-15   0.00360383
       251.70000  6.31255e-15   0.00354323
       251.80000  6.31255e-15   0.00348958
       251.90000  6.31255e-15   0.00344413
       252.00000  6.31255e-15   0.00340562
       252.10000  6.31255e-15   0.00337532
       252.20000  6.31255e-15   0.00335259
       252.30000  6.31255e-15   0.00333744
       252.40000  6.31255e-15   0.00332987
       252.50000  6.31255e-15   0.00332987
       252.60000  6.42127e-15   0.00347712
       252.70000  6.42127e-15   0.00356637
       252.80000  6.42127e-15   0.00365306
       252.90000  6.42127e-15   0.00373846
       253.00000  6.42127e-15   0.00382258
       253.10000  6.42127e-15   0.00390477
       253.20000  6.42127e-15   0.00398568
       253.30000  6.42127e-15   0.00406530
       253.40000  6.42127e-15   0.00414300
       253.50000  6.42127e-15   0.00421877
       253.60000  4.93069e-15   0.00325820
       253.70000  4.93069e-15   0.00328384
       253.80000  4.98631e-15   0.00335429
       253.90000  4.98631e-15   0.00339568
       254.00000  4.98631e-15   0.00344404
       254.10000  4.98631e-15   0.00350039
       254.20000  4.98631e-15   0.00356421
       254.30000  4.98631e-15   0.00363552
       254.40000  4.98631e-15   0.00371430
       254.50000  4.98631e-15   0.00380106
       254.60000  2.34278e-15   0.00182995
       254.70000  2.34278e-15   0.00187774
       254.80000  2.34278e-15   0.00192881
       254.90000  2.34278e-15   0.00198363
       255.00000  2.34278e-15   0.00204197
       255.10000  2.34278e-15   0.00210382
       255.20000  2.34278e-15   0.00216918
       255.30000  2.34278e-15   0.00223806
       255.40000  2.34278e-15   0.00231068
       255.50000  2.34278e-15   0.00238729
       255.60000  1.49122e-14    0.0156131
       255.70000  1.49122e-14    0.0160455
       255.80000  1.49122e-14    0.0164780
       255.90000  1.49122e-14    0.0169104
       256.00000  1.49122e-14    0.0173578
       256.10000  1.49122e-14    0.0177902
       256.20000  1.49122e-14    0.0182376
       256.30000  1.50804e-14    0.0188957
       256.40000  1.50804e-14    0.0193481
       256.50000  1.50804e-14    0.0198005
       256.60000  8.45781e-15    0.0114857
       256.70000  8.45781e-15    0.0118409
       256.80000  8.45781e-15    0.0121623
       256.90000  8.45781e-15    0.0124668
       257.00000  8.45781e-15    0.0127459
       257.10000  8.45781e-15    0.0129912
       257.20000  8.45781e-15    0.0132196
       257.30000  8.45781e-15    0.0134141
       257.40000  8.45781e-15    0.0135832
       257.50000  8.45781e-15    0.0137270
       257.60000  3.31845e-15   0.00542899
       257.70000  3.31845e-15   0.00546217
       257.80000  3.31845e-15   0.00548540
       257.90000  3.31845e-15   0.00549868
       258.00000  3.31845e-15   0.00550531
       258.10000  3.31845e-15   0.00550199
       258.20000  3.31845e-15   0.00548872
       258.30000  3.31845e-15   0.00546549
       258.40000  3.31845e-15   0.00543563
       258.50000  3.31845e-15   0.00539580
       258.60000  9.21798e-15    0.0147303
       258.70000  9.21798e-15    0.0144722
       258.80000  9.31187e-15    0.0143589
       258.90000  9.31187e-15    0.0140982
       259.00000  9.31187e-15    0.0138467
       259.10000  9.31187e-15    0.0136046
       259.20000  9.31187e-15    0.0133532
       259.30000  9.31187e-15    0.0131111
       259.40000  9.31187e-15    0.0128690
       259.50000  9.31187e-15    0.0126362
       259.60000  1.82531e-15   0.00243132
       259.70000  1.82531e-15   0.00238569
       259.80000  1.82531e-15   0.00234005
       259.90000  1.82531e-15   0.00229624
       260.00000  1.82531e-15   0.00225244
       260.10000  1.82531e-15   0.00221046
       260.20000  1.82531e-15   0.00216847
       260.30000  1.82531e-15   0.00212649
       260.40000  1.82531e-15   0.00208451
       260.50000  1.82531e-15   0.00204435
       260.60000  1.04163e-14    0.0116663
       260.70000  1.04163e-14    0.0116871
       260.80000  1.04163e-14    0.0117184
       260.90000  1.04163e-14    0.0117600
       261.00000  1.04163e-14    0.0118225
       261.10000  1.04163e-14    0.0118850
       261.20000  1.04163e-14    0.0119684
       261.30000  1.05146e-14    0.0121759
       261.40000  1.05146e-14    0.0122915
       261.50000  1.05146e-14    0.0124177
       261.60000  7.98727e-15   0.00934510
       261.70000  7.98727e-15   0.00932114
       261.80000  7.98727e-15   0.00933711
       261.90000  7.98727e-15   0.00940900
       262.00000  7.98727e-15   0.00953680
       262.10000  7.98727e-15   0.00971252
       262.20000  7.98727e-15   0.00993616
       262.30000  7.98727e-15    0.0102157
       262.40000  7.98727e-15    0.0105432
       262.50000  7.98727e-15    0.0109186
       262.60000  5.87860e-15   0.00835349
       262.70000  5.87860e-15   0.00871209
       262.80000  5.87860e-15   0.00910595
       262.90000  5.87860e-15   0.00953509
       263.00000  5.87860e-15    0.0100054
       263.10000  5.87860e-15    0.0105109
       263.20000  5.87860e-15    0.0110518
       263.30000  5.87860e-15    0.0116338
       263.40000  5.87860e-15    0.0122569
       263.50000  5.87860e-15    0.0129153
       263.60000  3.12111e-14    0.0735647
       263.70000  3.12111e-14    0.0782463
       263.80000  3.14623e-14    0.0832494
       263.90000  3.14623e-14    0.0873080
       264.00000  3.14623e-14    0.0910206
       264.10000  3.14623e-14    0.0943870
       264.20000  3.14623e-14    0.0974074
       264.30000  3.14623e-14     0.100113
       264.40000  3.14623e-14     0.102473
       264.50000  3.14623e-14     0.104486
       264.60000  5.90733e-21  1.96714e-08
       264.70000  5.90733e-21  1.97187e-08
       264.80000  5.90733e-21  1.97600e-08
       264.90000  5.90733e-21  1.98014e-08
       265.00000  5.90733e-21  1.98368e-08
       265.10000  5.90733e-21  1.98605e-08
       265.20000  5.90733e-21  1.98841e-08
       265.30000  5.90733e-21  1.99077e-08
       265.40000  5.90733e-21  1.99195e-08
       265.50000  5.90733e-21  1.99254e-08
       265.60000  4.25608e-14     0.143600
       265.70000  4.25608e-14     0.143600
       265.80000  4.25608e-14     0.143558
       265.90000  4.25608e-14     0.143473
       266.00000  4.25608e-14     0.143345
       266.10000  4.25608e-14     0.143175
       266.20000  4.25608e-14     0.143004
       266.30000  4.28771e-14     0.143853
       266.40000  4.28771e-14     0.143595
       266.50000  4.28771e-14     0.143295
       266.60000  9.15580e-15    0.0306719
       266.70000  9.15580e-15    0.0307360
       266.80000  9.15580e-15    0.0307910
       266.90000  9.15580e-15    0.0308367
       267.00000  9.15580e-15    0.0308734
       267.10000  9.15580e-15    0.0308917
       267.20000  9.15580e-15    0.0309100
       267.30000  9.15580e-15    0.0309100
       267.40000  9.15580e-15    0.0309008
       267.50000  9.15580e-15    0.0308825
       267.60000  3.52244e-19  1.18495e-06
       267.70000  3.52244e-19  1.18178e-06
       267.80000  3.52244e-19  1.17861e-06
       267.90000  3.52244e-19  1.17544e-06
       268.00000  3.52244e-19  1.17262e-06
       268.10000  3.52244e-19  1.16980e-06
       268.20000  3.52244e-19  1.16699e-06
       268.30000  3.52244e-19  1.16417e-06
       268.40000  3.52244e-19  1.16170e-06
       268.50000  3.52244e-19  1.15924e-06
       268.60000  1.60713e-14    0.0524890
       268.70000  1.60713e-14    0.0521354
       268.80000  1.61281e-14    0.0520614
       268.90000  1.61281e-14    0.0518517
       269.00000  1.61281e-14    0.0517388
       269.10000  1.61281e-14    0.0516743
       269.20000  1.61281e-14    0.0517066
       269.30000  1.61281e-14    0.0518033
       269.40000  1.61281e-14    0.0519646
       269.50000  1.61281e-14    0.0522065
       269.60000  3.25361e-16   0.00108052
       269.70000  3.25361e-16   0.00110427
       269.80000  3.25361e-16   0.00112510
       269.90000  3.25361e-16   0.00114299
       270.00000  3.25361e-16   0.00115763
       270.10000  3.25361e-16   0.00116902
       270.20000  3.25361e-16   0.00117716
       270.30000  3.25361e-16   0.00118204
       270.40000  3.25361e-16   0.00118399
       270.50000  3.25361e-16   0.00118269
       270.60000  2.84830e-15    0.0103165
       270.70000  2.84830e-15    0.0102510
       270.80000  2.84830e-15    0.0101570
       270.90000  2.84830e-15    0.0100345
       271.00000  2.84830e-15   0.00988643
       271.10000  2.84830e-15   0.00970984
       271.20000  2.84830e-15   0.00950476
       271.30000  2.85794e-15   0.00930260
       271.40000  2.85794e-15   0.00904253
       271.50000  2.85794e-15   0.00875388
       271.60000  4.38298e-14     0.131972
       271.70000  4.38298e-14     0.129868
       271.80000  4.38298e-14     0.127895
       271.90000  4.38298e-14     0.126098
       272.00000  4.38298e-14     0.124433
       272.10000  4.38298e-14     0.122943
       272.20000  4.38298e-14     0.121628
       272.30000  4.38298e-14     0.120444
       272.40000  4.38298e-14     0.119392
       272.50000  4.38298e-14     0.118560
       272.60000  1.80717e-14    0.0495707
       272.70000  1.80717e-14    0.0501309
       272.80000  1.80717e-14    0.0505104
       272.90000  1.80717e-14    0.0507453
       273.00000  1.80717e-14    0.0508176
       273.10000  1.80717e-14    0.0507273
       273.20000  1.80717e-14    0.0504923
       273.30000  1.80717e-14    0.0500948
       273.40000  1.80717e-14    0.0495345
       273.50000  1.80717e-14    0.0488297
       273.60000  2.82899e-14    0.0750813
       273.70000  2.82899e-14    0.0734688
       273.80000  2.83357e-14    0.0717460
       273.90000  2.83357e-14    0.0696492
       274.00000  2.83357e-14    0.0672973
       274.10000  2.83357e-14    0.0646904
       274.20000  2.83357e-14    0.0618569
       274.30000  2.83357e-14    0.0587683
       274.40000  2.83357e-14    0.0554246
       274.50000  2.83357e-14    0.0518543
       274.60000  2.10994e-14    0.0395403
       274.70000  2.10994e-14    0.0405320
       274.80000  2.10994e-14    0.0415869
       274.90000  2.10994e-14    0.0427474
       275.00000  2.10994e-14    0.0439501
       275.10000  2.10994e-14    0.0452582
       275.20000  2.10994e-14    0.0466297
       275.30000  2.10994e-14    0.0480645
       275.40000  2.10994e-14    0.0495836
       275.50000  3.32940e-14    0.0807380
       275.60000  3.32940e-14    0.0854991
       275.70000  3.32940e-14    0.0899272
       275.80000  3.32940e-14    0.0939558
       275.90000  3.32940e-14    0.0976514
       276.00000  3.32940e-14     0.100981
       276.10000  3.32940e-14     0.103977
       276.20000  3.32940e-14     0.106608
       276.30000  3.34763e-14     0.109468
       276.40000  3.34763e-14     0.111409
       276.50000  1.75735e-14    0.0593104
       276.60000  1.75735e-14    0.0599607
       276.70000  1.75735e-14    0.0604176
       276.80000  1.75735e-14    0.0606812
       276.90000  1.75735e-14    0.0607690
       277.00000  1.75735e-14    0.0606636
       277.10000  1.75735e-14    0.0603648
       277.20000  1.75735e-14    0.0598904
       277.30000  1.75735e-14    0.0592226
       277.40000  1.75735e-14    0.0583615
       277.50000  6.44959e-15    0.0210386
       277.60000  6.44959e-15    0.0203743
       277.70000  6.44959e-15    0.0197100
       277.80000  6.44959e-15    0.0190392
       277.90000  6.44959e-15    0.0183749
       278.00000  6.44959e-15    0.0177106
       278.10000  6.44959e-15    0.0170463
       278.20000  6.44959e-15    0.0163820
       278.30000  6.44959e-15    0.0157177
       278.40000  6.44959e-15    0.0150533
       278.50000  9.61452e-15    0.0214500
       278.60000  9.61452e-15    0.0199597
       278.70000  9.61452e-15    0.0185753
       278.80000  9.67051e-15    0.0174069
       278.90000  9.67051e-15    0.0162465
       279.00000  9.67051e-15    0.0151924
       279.10000  9.67051e-15    0.0142543
       279.20000  9.67051e-15    0.0134323
       279.30000  9.67051e-15    0.0127167
       279.40000  9.67051e-15    0.0121172
       279.50000  4.30355e-15   0.00517287
       279.60000  4.30355e-15   0.00494478
       279.70000  4.30355e-15   0.00477694
       279.80000  4.30355e-15   0.00467366
       279.90000  4.30355e-15   0.00463493
       280.00000  4.30355e-15   0.00466075
       280.10000  4.30355e-15   0.00475112
       280.20000  4.30355e-15   0.00490175
       280.30000  4.30355e-15   0.00512123
       280.40000  4.30355e-15   0.00540096
       280.50000  5.36248e-16  0.000715891
       280.60000  5.36248e-16  0.000811343
       280.70000  5.36248e-16  0.000905186
       280.80000  5.36248e-16  0.000996884
       280.90000  5.36248e-16   0.00108644
       281.00000  5.36248e-16   0.00117385
       281.10000  5.36248e-16   0.00125965
       281.20000  5.36248e-16   0.00134276
       281.30000  5.38390e-16   0.00142996
       281.40000  5.38390e-16   0.00150965
       281.50000  2.02701e-14    0.0597563
       281.60000  2.02701e-14    0.0625941
       281.70000  2.02701e-14    0.0653711
       281.80000  2.02701e-14    0.0680467
       281.90000  2.02701e-14    0.0706616
       282.00000  2.02701e-14    0.0731954
       282.10000  2.02701e-14    0.0756480
       282.20000  2.02701e-14    0.0780196
       282.30000  2.02701e-14    0.0803102
       282.40000  2.02701e-14    0.0825399
       282.50000  1.98764e-14    0.0830235
       282.60000  1.98764e-14    0.0848521
       282.70000  1.98764e-14    0.0864025
       282.80000  1.98764e-14    0.0876746
       282.90000  1.98764e-14    0.0886684
       283.00000  1.98764e-14    0.0893840
       283.10000  1.98764e-14    0.0898212
       283.20000  1.98764e-14    0.0900001
       283.30000  1.98764e-14    0.0898809
       283.40000  1.98764e-14    0.0894833
       283.50000  1.46654e-15   0.00655398
       283.60000  1.46654e-15   0.00638680
       283.70000  1.46654e-15   0.00622108
       283.80000  1.46967e-15   0.00606974
       283.90000  1.46967e-15   0.00590514
       284.00000  1.46967e-15   0.00574200
       284.10000  1.46967e-15   0.00558181
       284.20000  1.46967e-15   0.00542014
       284.30000  1.46967e-15   0.00526142
       284.40000  1.46967e-15   0.00510417
       284.50000  2.32580e-14    0.0782865
       284.60000  2.32580e-14    0.0758212
       284.70000  2.32580e-14    0.0733791
       284.80000  2.32580e-14    0.0709370
       284.90000  2.32580e-14    0.0685414
       285.00000  2.32580e-14    0.0661458
       285.10000  2.32580e-14    0.0637735
       285.20000  2.32580e-14    0.0614012
       285.30000  2.32580e-14    0.0590754
       285.40000  2.32580e-14    0.0567496
       285.50000  1.47450e-14    0.0345180
       285.60000  1.47450e-14    0.0393101
       285.70000  1.47450e-14    0.0437926
       285.80000  1.47450e-14    0.0479654
       285.90000  1.47450e-14    0.0518286
       286.00000  1.47450e-14    0.0553969
       286.10000  1.47450e-14    0.0586408
       286.20000  1.47450e-14    0.0615751
       286.30000  1.47685e-14    0.0643169
       286.40000  1.47685e-14    0.0666355
       286.50000  1.55220e-14    0.0721461
       286.60000  1.55220e-14    0.0727670
       286.70000  1.55220e-14    0.0733103
       286.80000  1.55220e-14    0.0737914
       286.90000  1.55220e-14    0.0742261
       287.00000  1.55220e-14    0.0745831
       287.10000  1.55220e-14    0.0748780
       287.20000  1.55220e-14    0.0751263
       287.30000  1.55220e-14    0.0752971
       287.40000  1.55220e-14    0.0754057
       287.50000  2.64114e-14     0.128386
       287.60000  2.64114e-14     0.128386
       287.70000  2.64114e-14     0.128254
       287.80000  2.64114e-14     0.128016
       287.90000  2.64114e-14     0.127673
       288.00000  2.64114e-14     0.127250
       288.10000  2.64114e-14     0.126696
       288.20000  2.64114e-14     0.126035
       288.30000  2.64114e-14     0.125269
       288.40000  2.64114e-14     0.124398
       288.50000  8.40194e-16   0.00392707
       288.60000  8.40194e-16   0.00412367
       288.70000  8.40194e-16   0.00431776
       288.80000  8.40567e-16   0.00451216
       288.90000  8.40567e-16   0.00470129
       289.00000  8.40567e-16   0.00488790
       289.10000  8.40567e-16   0.00507198
       289.20000  8.40567e-16   0.00525354
       289.30000  8.40567e-16   0.00543343
       289.40000  8.40567e-16   0.00560994
       289.50000  9.10971e-15    0.0626748
       289.60000  9.10971e-15    0.0652984
       289.70000  9.10971e-15    0.0677307
       289.80000  9.10971e-15    0.0699535
       289.90000  9.10971e-15    0.0719849
       290.00000  9.10971e-15    0.0738160
       290.10000  9.10971e-15    0.0754466
       290.20000  9.10971e-15    0.0768859
       290.30000  9.10971e-15    0.0781249
       290.40000  9.10971e-15    0.0791634
       290.50000  7.26299e-20  6.37909e-07
       290.60000  7.26299e-20  6.42993e-07
       290.70000  7.26299e-20  6.46552e-07
       290.80000  7.26299e-20  6.48585e-07
       290.90000  7.26299e-20  6.48949e-07
       291.00000  7.26299e-20  6.47786e-07
       291.10000  7.26299e-20  6.45027e-07
       291.20000  7.26299e-20  6.40741e-07
       291.30000  7.27180e-20  6.35555e-07
       291.40000  7.27180e-20  6.28065e-07
       291.50000  1.90804e-14     0.162412
       291.60000  1.90804e-14     0.159913
       291.70000  1.90804e-14     0.157604
       291.80000  1.90804e-14     0.155505
       291.90000  1.90804e-14     0.153597
       292.00000  1.90804e-14     0.151899
       292.10000  1.90804e-14     0.150411
       292.20000  1.90804e-14     0.149113
       292.30000  1.90804e-14     0.148026
       292.40000  1.90804e-14     0.147129
       292.50000  9.62147e-15    0.0738448
       292.60000  9.62147e-15    0.0743258
       292.70000  9.62147e-15    0.0747395
       292.80000  9.62147e-15    0.0751052
       292.90000  9.62147e-15    0.0754130
       293.00000  9.62147e-15    0.0756536
       293.10000  9.62147e-15    0.0758460
       293.20000  9.62147e-15    0.0759807
       293.30000  9.62147e-15    0.0760577
       293.40000  9.62147e-15    0.0760673
       293.50000  5.44382e-15    0.0430171
       293.60000  5.44382e-15    0.0429626
       293.70000  5.44382e-15    0.0428755
       293.80000  5.43989e-15    0.0427249
       293.90000  5.43989e-15    0.0425726
       294.00000  5.43989e-15    0.0423931
       294.10000  5.43989e-15    0.0421755
       294.20000  5.43989e-15    0.0419252
       294.30000  5.43989e-15    0.0416424
       294.40000  5.43989e-15    0.0413323
       294.50000  1.94383e-15    0.0146448
       294.60000  1.94383e-15    0.0148917
       294.70000  1.94383e-15    0.0151152
       294.80000  1.94383e-15    0.0153115
       294.90000  1.94383e-15    0.0154826
       295.00000  1.94383e-15    0.0156284
       295.10000  1.94383e-15    0.0157489
       295.20000  1.94383e-15    0.0158442
       295.30000  1.94383e-15    0.0159141
       295.40000  1.94383e-15    0.0159569
       295.50000  1.51322e-15    0.0124371
       295.60000  1.51322e-15    0.0123010
       295.70000  1.51322e-15    0.0121754
       295.80000  1.51322e-15    0.0120573
       295.90000  1.51322e-15    0.0119499
       296.00000  1.51322e-15    0.0118500
       296.10000  1.51322e-15    0.0117607
       296.20000  1.51322e-15    0.0116805
       296.30000  1.51125e-15    0.0115943
       296.40000  1.51125e-15    0.0115339
       296.50000  3.07193e-15    0.0233374
       296.60000  3.07193e-15    0.0232514
       296.70000  3.07193e-15    0.0231808
       296.80000  3.07193e-15    0.0231316
       296.90000  3.07193e-15    0.0231009
       297.00000  3.07193e-15    0.0230886
       297.10000  3.07193e-15    0.0230947
       297.20000  3.07193e-15    0.0231193
       297.30000  3.07193e-15    0.0231654
       297.40000  3.07193e-15    0.0232268
       297.50000  7.89902e-15    0.0599377
       297.60000  7.89902e-15    0.0591399
       297.70000  7.89902e-15    0.0584211
       297.80000  7.89902e-15    0.0577655
       297.90000  7.89902e-15    0.0571810
       298.00000  7.89902e-15    0.0566675
       298.10000  7.89902e-15    0.0562331
       298.20000  7.89902e-15    0.0558618
       298.30000  7.89902e-15    0.0555617
       298.40000  7.89902e-15    0.0553405
       298.50000  7.64036e-15    0.0533756
       298.60000  7.64036e-15    0.0540403
       298.70000  7.64036e-15    0.0545980
       298.80000  7.59699e-15    0.0547591
       298.90000  7.59699e-15    0.0551314
       299.00000  7.59699e-15    0.0554049
       299.10000  7.59699e-15    0.0555872
       299.20000  7.59699e-15    0.0556708
       299.30000  7.59699e-15    0.0556632
       299.40000  7.59699e-15    0.0555644
       299.50000  5.26894e-15    0.0384000
       299.60000  5.26894e-15    0.0381998
       299.70000  5.26894e-15    0.0379311
       299.80000  5.26894e-15    0.0375991
       299.90000  5.26894e-15    0.0372040
       300.00000  5.26894e-15    0.0367403
       300.10000  5.26894e-15    0.0362081
       300.20000  5.26894e-15    0.0356127
       300.30000  5.26894e-15    0.0349541
       300.40000  5.26894e-15    0.0342270
       300.50000  1.35754e-14    0.0861494
       300.60000  1.35754e-14    0.0869232
       300.70000  1.35754e-14    0.0876970
       300.80000  1.35754e-14    0.0884572
       300.90000  1.35754e-14    0.0892310
       301.00000  1.35754e-14    0.0899912
       301.10000  1.35754e-14    0.0907515
       301.20000  1.35754e-14    0.0914981
       301.30000  1.35520e-14    0.0920859
       301.40000  1.35520e-14    0.0928313
       301.50000  1.22005e-14    0.0842447
       301.60000  1.22005e-14    0.0840739
       301.70000  1.22005e-14    0.0840739
       301.80000  1.22005e-14    0.0842691
       301.90000  1.22005e-14    0.0846474
       302.00000  1.22005e-14    0.0852086
       302.10000  1.22005e-14    0.0859406
       302.20000  1.22005e-14    0.0868679
       302.30000  1.22005e-14    0.0879781
       302.40000  1.22005e-14    0.0892714
       302.50000  3.22779e-15    0.0240051
       302.60000  3.22779e-15    0.0249928
       302.70000  3.22779e-15    0.0259063
       302.80000  3.22779e-15    0.0267487
       302.90000  3.22779e-15    0.0275137
       303.00000  3.22779e-15    0.0282077
       303.10000  3.22779e-15    0.0288274
       303.20000  3.22779e-15    0.0293729
       303.30000  3.22779e-15    0.0298442
       303.40000  3.22779e-15    0.0302412
       303.50000  2.92040e-14     0.276562
       303.60000  2.92040e-14     0.275627
       303.70000  2.92040e-14     0.274751
       303.80000  2.92348e-14     0.274223
       303.90000  2.92348e-14     0.273434
       304.00000  2.92348e-14     0.272673
       304.10000  2.92348e-14     0.272001
       304.20000  2.92348e-14     0.271329
       304.30000  2.92348e-14     0.270744
       304.40000  2.92348e-14     0.270188
       304.50000  5.42850e-16   0.00500725
       304.60000  5.42850e-16   0.00499857
       304.70000  5.42850e-16   0.00499097
       304.80000  5.42850e-16   0.00498391
       304.90000  5.42850e-16   0.00497794
       305.00000  5.42850e-16   0.00497251
       305.10000  5.42850e-16   0.00496817
       305.20000  5.42850e-16   0.00496491
       305.30000  5.42850e-16   0.00496220
       305.40000  5.42850e-16   0.00496057
       305.50000  5.08512e-14     0.464576
       305.60000  5.08512e-14     0.458220
       305.70000  5.08512e-14     0.452575
       305.80000  5.08512e-14     0.447744
       305.90000  5.08512e-14     0.443676
       306.00000  5.08512e-14     0.440371
       306.10000  5.08512e-14     0.437879
       306.20000  5.08512e-14     0.436100
       306.30000  5.07308e-14     0.434104
       306.40000  5.07308e-14     0.433901
       306.50000  6.65575e-15    0.0569998
       306.60000  6.65575e-15    0.0579183
       306.70000  6.65575e-15    0.0587703
       306.80000  6.65575e-15    0.0595623
       306.90000  6.65575e-15    0.0602878
       307.00000  6.65575e-15    0.0609467
       307.10000  6.65575e-15    0.0615457
       307.20000  6.65575e-15    0.0620782
       307.30000  6.65575e-15    0.0625441
       307.40000  6.65575e-15    0.0629501
       307.50000  7.13558e-15    0.0678451
       307.60000  7.13558e-15    0.0681448
       307.70000  7.13558e-15    0.0683660
       307.80000  7.13558e-15    0.0685230
       307.90000  7.13558e-15    0.0686086
       308.00000  7.13558e-15    0.0686229
       308.10000  7.13558e-15    0.0685729
       308.20000  7.13558e-15    0.0684516
       308.30000  7.13558e-15    0.0682589
       308.40000  7.13558e-15    0.0680021
       308.50000  4.47377e-14     0.424247
       308.60000  4.47377e-14     0.408858
       308.70000  4.47377e-14     0.395123
       308.80000  4.45928e-14     0.381848
       308.90000  4.45928e-14     0.371503
       309.00000  4.45928e-14     0.362807
       309.10000  4.45928e-14     0.355806
       309.20000  4.45928e-14     0.350499
       309.30000  4.45928e-14     0.346843
       309.40000  4.45928e-14     0.344836
       309.50000  2.75507e-14     0.212857
       309.60000  2.75507e-14     0.218698
       309.70000  2.75507e-14     0.224456
       309.80000  2.75507e-14     0.230131
       309.90000  2.75507e-14     0.235752
       310.00000  2.75507e-14     0.241262
       310.10000  2.75507e-14     0.246717
       310.20000  2.75507e-14     0.252089
       310.30000  2.75507e-14     0.257352
       310.40000  2.75507e-14     0.262586
       310.50000  2.05135e-14     0.199329
       310.60000  2.05135e-14     0.203083
       310.70000  2.05135e-14     0.206776
       310.80000  2.05135e-14     0.210468
       310.90000  2.05135e-14     0.213955
       311.00000  2.05135e-14     0.217443
       311.10000  2.05135e-14     0.220930
       311.20000  2.05135e-14     0.224417
       311.30000  2.04572e-14     0.227075
       311.40000  2.04572e-14     0.230348
       311.50000  7.28891e-14     0.832393
       311.60000  7.28891e-14     0.818544
       311.70000  7.28891e-14     0.805424
       311.80000  7.28891e-14     0.793762
       311.90000  7.28891e-14     0.783558
       312.00000  7.28891e-14     0.774811
       312.10000  7.28891e-14     0.767522
       312.20000  7.28891e-14     0.761691
       312.30000  7.28891e-14     0.756589
       312.40000  7.28891e-14     0.752944
       312.50000  8.98209e-15    0.0926053
       312.60000  8.98209e-15    0.0937730
       312.70000  8.98209e-15    0.0947610
       312.80000  8.98209e-15    0.0957490
       312.90000  8.98209e-15    0.0965574
       313.00000  8.98209e-15    0.0972760
       313.10000  8.98209e-15    0.0978149
       313.20000  8.98209e-15    0.0983538
       313.30000  8.98209e-15    0.0987131
       313.40000  8.98209e-15    0.0989826
       313.50000  6.06725e-15    0.0669218
       313.60000  6.06725e-15    0.0669218
       313.70000  6.06725e-15    0.0668611
       313.80000  6.06102e-15    0.0666712
       313.90000  6.06102e-15    0.0664894
       314.00000  6.06102e-15    0.0661863
       314.10000  6.06102e-15    0.0658227
       314.20000  6.06102e-15    0.0653378
       314.30000  6.06102e-15    0.0647923
       314.40000  6.06102e-15    0.0641862
       314.50000  1.81675e-15    0.0190396
       314.60000  1.81675e-15    0.0189306
       314.70000  1.81675e-15    0.0188215
       314.80000  1.81675e-15    0.0187125
       314.90000  1.81675e-15    0.0186217
       315.00000  1.81675e-15    0.0185309
       315.10000  1.81675e-15    0.0184582
       315.20000  1.81675e-15    0.0183855
       315.30000  1.81675e-15    0.0183310
       315.40000  1.81675e-15    0.0182765
       315.50000  1.52357e-15    0.0152966
       315.60000  1.52357e-15    0.0151504
       315.70000  1.52357e-15    0.0150361
       315.80000  1.52357e-15    0.0149553
       315.90000  1.52357e-15    0.0149096
       316.00000  1.52357e-15    0.0148974
       316.10000  1.52357e-15    0.0149203
       316.20000  1.52357e-15    0.0149767
       316.30000  1.52557e-15    0.0150879
       316.40000  1.52557e-15    0.0152130
       316.50000  9.46119e-15    0.0953688
       316.60000  9.46119e-15    0.0965042
       316.70000  9.46119e-15    0.0979234
       316.80000  9.46119e-15    0.0995318
       316.90000  9.46119e-15     0.101424
       317.00000  9.46119e-15     0.103411
       317.10000  9.46119e-15     0.105682
       317.20000  9.46119e-15     0.108236
       317.30000  9.46119e-15     0.110885
       317.40000  9.46119e-15     0.113818
       317.50000  2.23558e-14     0.276094
       317.60000  2.23558e-14     0.269834
       317.70000  2.23558e-14     0.264245
       317.80000  2.23558e-14     0.258880
       317.90000  2.23558e-14     0.254185
       318.00000  2.23558e-14     0.250161
       318.10000  2.23558e-14     0.246584
       318.20000  2.23558e-14     0.243678
       318.30000  2.23558e-14     0.241219
       318.40000  2.23558e-14     0.239430
       318.50000  4.56468e-15    0.0486138
       318.60000  4.56468e-15    0.0487964
       318.70000  4.56468e-15    0.0490246
       318.80000  4.56448e-15    0.0492508
       318.90000  4.56448e-15    0.0495703
       319.00000  4.56448e-15    0.0498898
       319.10000  4.56448e-15    0.0502549
       319.20000  4.56448e-15    0.0506657
       319.30000  4.56448e-15    0.0511222
       319.40000  4.56448e-15    0.0515786
       319.50000  5.96597e-15    0.0680717
       319.60000  5.96597e-15    0.0687877
       319.70000  5.96597e-15    0.0695632
       319.80000  5.96597e-15    0.0703985
       319.90000  5.96597e-15    0.0712337
       320.00000  5.96597e-15    0.0721286
       320.10000  5.96597e-15    0.0730832
       320.20000  5.96597e-15    0.0740974
       320.30000  5.96597e-15    0.0751712
       320.40000  5.96597e-15    0.0762451
       320.50000  2.33352e-14     0.302658
       320.60000  2.33352e-14     0.297291
       320.70000  2.33352e-14     0.292157
       320.80000  2.33352e-14     0.287257
       320.90000  2.33352e-14     0.282823
       321.00000  2.33352e-14     0.278856
       321.10000  2.33352e-14     0.275122
       321.20000  2.33352e-14     0.271856
       321.30000  2.33240e-14     0.268692
       321.40000  2.33240e-14     0.266127
       321.50000  3.29370e-15    0.0372518
       321.60000  3.29370e-15    0.0372518
       321.70000  3.29370e-15    0.0372189
       321.80000  3.29370e-15    0.0371859
       321.90000  3.29370e-15    0.0371530
       322.00000  3.29370e-15    0.0371200
       322.10000  3.29370e-15    0.0370542
       322.20000  3.29370e-15    0.0370212
       322.30000  3.29370e-15    0.0369554
       322.40000  3.29370e-15    0.0368566
       322.50000  7.91848e-15    0.0884494
       322.60000  7.91848e-15    0.0882118
       322.70000  7.91848e-15    0.0879743
       322.80000  7.91848e-15    0.0876575
       322.90000  7.91848e-15    0.0873408
       323.00000  7.91848e-15    0.0870240
       323.10000  7.91848e-15    0.0867073
       323.20000  7.91848e-15    0.0863906
       323.30000  7.91848e-15    0.0859946
       323.40000  7.91848e-15    0.0855987
       323.50000  2.06654e-15    0.0222360
       323.60000  2.06654e-15    0.0225460
       323.70000  2.06654e-15    0.0228766
       323.80000  2.07023e-15    0.0232487
       323.90000  2.07023e-15    0.0235799
       324.00000  2.07023e-15    0.0239112
       324.10000  2.07023e-15    0.0242631
       324.20000  2.07023e-15    0.0246151
       324.30000  2.07023e-15    0.0249670
       324.40000  2.07023e-15    0.0253396
       324.50000  5.64424e-14     0.700450
       324.60000  5.64424e-14     0.711739
       324.70000  5.64424e-14     0.723027
       324.80000  5.64424e-14     0.734316
       324.90000  5.64424e-14     0.745040
       325.00000  5.64424e-14     0.755764
       325.10000  5.64424e-14     0.767052
       325.20000  5.64424e-14     0.777776
       325.30000  5.64424e-14     0.787936
       325.40000  5.64424e-14     0.798660
       325.50000  1.21122e-15    0.0173568
       325.60000  1.21122e-15    0.0176838
       325.70000  1.21122e-15    0.0179866
       325.80000  1.21122e-15    0.0182652
       325.90000  1.21122e-15    0.0185196
       326.00000  1.21122e-15    0.0187376
       326.10000  1.21122e-15    0.0189435
       326.20000  1.21122e-15    0.0191131
       326.30000  1.21652e-15    0.0193426
       326.40000  1.21652e-15    0.0194643
       326.50000  4.54322e-15    0.0730549
       326.60000  4.54322e-15    0.0729186
       326.70000  4.54322e-15    0.0727369
       326.80000  4.54322e-15    0.0726006
       326.90000  4.54322e-15    0.0724189
       327.00000  4.54322e-15    0.0722371
       327.10000  4.54322e-15    0.0720554
       327.20000  4.54322e-15    0.0718737
       327.30000  4.54322e-15    0.0716919
       327.40000  4.54322e-15    0.0714648
       327.50000  6.45888e-14      1.01340
       327.60000  6.45888e-14      1.01017
       327.70000  6.45888e-14      1.00694
       327.80000  6.45888e-14      1.00371
       327.90000  6.45888e-14      1.00048
       328.00000  6.45888e-14     0.997251
       328.10000  6.45888e-14     0.994022
       328.20000  6.45888e-14     0.990146
       328.30000  6.45888e-14     0.986271
       328.40000  6.45888e-14     0.983042
       328.50000  2.49078e-14     0.377602
       328.60000  2.49078e-14     0.387067
       328.70000  2.49078e-14     0.395784
       328.80000  2.49619e-14     0.404633
       328.90000  2.49619e-14     0.411872
       329.00000  2.49619e-14     0.418362
       329.10000  2.49619e-14     0.423853
       329.20000  2.49619e-14     0.428846
       329.30000  2.49619e-14     0.432840
       329.40000  2.49619e-14     0.436334
       329.50000  1.23795e-14     0.217632
       329.60000  1.23795e-14     0.216766
       329.70000  1.23795e-14     0.216023
       329.80000  1.23795e-14     0.215156
       329.90000  1.23795e-14     0.214290
       330.00000  1.23795e-14     0.213423
       330.10000  1.23795e-14     0.212557
       330.20000  1.23795e-14     0.211690
       330.30000  1.23795e-14     0.210823
       330.40000  1.23795e-14     0.209957
       330.50000  1.69337e-14     0.285841
       330.60000  1.69337e-14     0.284655
       330.70000  1.69337e-14     0.283301
       330.80000  1.69337e-14     0.282115
       330.90000  1.69337e-14     0.280761
       331.00000  1.69337e-14     0.279406
       331.10000  1.69337e-14     0.278051
       331.20000  1.69337e-14     0.276697
       331.30000  1.69351e-14     0.275364
       331.40000  1.69351e-14     0.274009
       331.50000  1.76289e-14     0.283826
       331.60000  1.76289e-14     0.283826
       331.70000  1.76289e-14     0.283826
       331.80000  1.76289e-14     0.283826
       331.90000  1.76289e-14     0.283650
       332.00000  1.76289e-14     0.283473
       332.10000  1.76289e-14     0.283121
       332.20000  1.76289e-14     0.282768
       332.30000  1.76289e-14     0.282416
       332.40000  1.76289e-14     0.281887
       332.50000  4.42838e-15    0.0706769
       332.60000  4.42838e-15    0.0702341
       332.70000  4.42838e-15    0.0698355
       332.80000  4.42838e-15    0.0694812
       332.90000  4.42838e-15    0.0691712
       333.00000  4.42838e-15    0.0689055
       333.10000  4.42838e-15    0.0687284
       333.20000  4.42838e-15    0.0685513
       333.30000  4.42838e-15    0.0684627
       333.40000  4.42838e-15    0.0684184
       333.50000  2.47161e-14     0.381863
       333.60000  2.47161e-14     0.382357
       333.70000  2.47161e-14     0.382852
       333.80000  2.46846e-14     0.383352
       333.90000  2.46846e-14     0.384587
       334.00000  2.46846e-14     0.386068
       334.10000  2.46846e-14     0.388042
       334.20000  2.46846e-14     0.390017
       334.30000  2.46846e-14     0.392486
       334.40000  2.46846e-14     0.395201
       334.50000  2.30702e-15    0.0372122
       334.60000  2.30702e-15    0.0373737
       334.70000  2.30702e-15    0.0374660
       334.80000  2.30702e-15    0.0375352
       334.90000  2.30702e-15    0.0375583
       335.00000  2.30702e-15    0.0375352
       335.10000  2.30702e-15    0.0374660
       335.20000  2.30702e-15    0.0373506
       335.30000  2.30702e-15    0.0371892
       335.40000  2.30702e-15    0.0369815
       335.50000  3.83798e-14     0.610623
       335.60000  3.83798e-14     0.597574
       335.70000  3.83798e-14     0.585292
       335.80000  3.83798e-14     0.573778
       335.90000  3.83798e-14     0.563800
       336.00000  3.83798e-14     0.554588
       336.10000  3.83798e-14     0.546912
       336.20000  3.83798e-14     0.540004
       336.30000  3.84358e-14     0.535026
       336.40000  3.84358e-14     0.530030
       336.50000  3.33768e-14     0.457262
       336.60000  3.33768e-14     0.454926
       336.70000  3.33768e-14     0.453591
       336.80000  3.33768e-14     0.453257
       336.90000  3.33768e-14     0.453591
       337.00000  3.33768e-14     0.455260
       337.10000  3.33768e-14     0.457596
       337.20000  3.33768e-14     0.460934
       337.30000  3.33768e-14     0.465273
       337.40000  3.33768e-14     0.470613
       337.50000  3.01762e-14     0.431218
       337.60000  3.01762e-14     0.436348
       337.70000  3.01762e-14     0.441177
       337.80000  3.01762e-14     0.446005
       337.90000  3.01762e-14     0.450531
       338.00000  3.01762e-14     0.454756
       338.10000  3.01762e-14     0.458980
       338.20000  3.01762e-14     0.462903
       338.30000  3.01762e-14     0.466525
       338.40000  3.01762e-14     0.470146
       338.50000  5.92659e-15    0.0929289
       338.60000  5.92659e-15    0.0932845
       338.70000  5.92659e-15    0.0936401
       338.80000  5.93086e-15    0.0940635
       338.90000  5.93086e-15    0.0944786
       339.00000  5.93086e-15    0.0948345
       339.10000  5.93086e-15    0.0952497
       339.20000  5.93086e-15    0.0956648
       339.30000  5.93086e-15    0.0960800
       339.40000  5.93086e-15    0.0965544
       339.50000  6.31245e-14      1.03209
       339.60000  6.31245e-14      1.03714
       339.70000  6.31245e-14      1.04219
       339.80000  6.31245e-14      1.04787
       339.90000  6.31245e-14      1.05292
       340.00000  6.31245e-14      1.05860
       340.10000  6.31245e-14      1.06428
       340.20000  6.31245e-14      1.06996
       340.30000  6.31245e-14      1.07627
       340.40000  6.31245e-14      1.08195
       340.50000  3.69702e-14     0.637366
       340.60000  3.69702e-14     0.627754
       340.70000  3.69702e-14     0.619621
       340.80000  3.69702e-14     0.611857
       340.90000  3.69702e-14     0.605202
       341.00000  3.69702e-14     0.599657
       341.10000  3.69702e-14     0.595220
       341.20000  3.69702e-14     0.591523
       341.30000  3.70445e-14     0.590119
       341.40000  3.70445e-14     0.588267
       341.50000  5.21793e-14     0.827564
       341.60000  5.21793e-14     0.838522
       341.70000  5.21793e-14     0.848436
       341.80000  5.21793e-14     0.857828
       341.90000  5.21793e-14     0.865655
       342.00000  5.21793e-14     0.872439
       342.10000  5.21793e-14     0.878700
       342.20000  5.21793e-14     0.883396
       342.30000  5.21793e-14     0.887571
       342.40000  5.21793e-14     0.890180
       342.50000  1.96389e-14     0.335825
       342.60000  1.96389e-14     0.336217
       342.70000  1.96389e-14     0.336217
       342.80000  1.96389e-14     0.335825
       342.90000  1.96389e-14     0.335039
       343.00000  1.96389e-14     0.333861
       343.10000  1.96389e-14     0.332290
       343.20000  1.96389e-14     0.330326
       343.30000  1.96389e-14     0.328165
       343.40000  1.96389e-14     0.325416
       343.50000  4.49893e-14     0.738725
       343.60000  4.49893e-14     0.716230
       343.70000  4.49893e-14     0.696435
       343.80000  4.50387e-14     0.679183
       343.90000  4.50387e-14     0.663870
       344.00000  4.50387e-14     0.650809
       344.10000  4.50387e-14     0.640450
       344.20000  4.50387e-14     0.631893
       344.30000  4.50387e-14     0.626038
       344.40000  4.50387e-14     0.621984
       344.50000  4.96051e-14     0.683558
       344.60000  4.96051e-14     0.702408
       344.70000  4.96051e-14     0.719770
       344.80000  4.96051e-14     0.735644
       344.90000  4.96051e-14     0.750029
       345.00000  4.96051e-14     0.763422
       345.10000  4.96051e-14     0.775328
       345.20000  4.96051e-14     0.785745
       345.30000  4.96051e-14     0.795170
       345.40000  4.96051e-14     0.802610
       345.50000  1.17374e-13      1.91555
       345.60000  1.17374e-13      1.92729
       345.70000  1.17374e-13      1.93668
       345.80000  1.17374e-13      1.94255
       345.90000  1.17374e-13      1.94489
       346.00000  1.17374e-13      1.94489
       346.10000  1.17374e-13      1.94020
       346.20000  1.17374e-13      1.93433
       346.30000  1.17456e-13      1.92511
       346.40000  1.17456e-13      1.91219
       346.50000  1.77472e-13      2.86439
       346.60000  1.77472e-13      2.85374
       346.70000  1.77472e-13      2.84487
       346.80000  1.77472e-13      2.83777
       346.90000  1.77472e-13      2.82890
       347.00000  1.77472e-13      2.82180
       347.10000  1.77472e-13      2.81647
       347.20000  1.77472e-13      2.80938
       347.30000  1.77472e-13      2.80405
       347.40000  1.77472e-13      2.80050
       347.50000  7.18673e-14      1.13191
       347.60000  7.18673e-14      1.13191
       347.70000  7.18673e-14      1.13191
       347.80000  7.18673e-14      1.13191
       347.90000  7.18673e-14      1.13191
       348.00000  7.18673e-14      1.13119
       348.10000  7.18673e-14      1.13119
       348.20000  7.18673e-14      1.13119
       348.30000  7.18673e-14      1.13047
       348.40000  7.18673e-14      1.13047
       348.50000  2.08488e-13      3.27744
       348.60000  2.08488e-13      3.24825
       348.70000  2.08488e-13      3.22531
       348.80000  2.08442e-13      3.20792
       348.90000  2.08442e-13      3.19541
       349.00000  2.08442e-13      3.19125
       349.10000  2.08442e-13      3.19333
       349.20000  2.08442e-13      3.19958
       349.30000  2.08442e-13      3.21417
       349.40000  2.08442e-13      3.23293
       349.50000  2.90118e-13      4.53744
       349.60000  2.90118e-13      4.67380
       349.70000  2.90118e-13      4.79565
       349.80000  2.90118e-13      4.90879
       349.90000  2.90118e-13      5.01033
       350.00000  2.90118e-13      5.10027
       350.10000  2.90118e-13      5.17570
       350.20000  2.90118e-13      5.24243
       350.30000  2.90118e-13      5.29755
       350.40000  2.90118e-13      5.33817
       350.50000  2.56411e-13      4.74361
       350.60000  2.56411e-13      4.76156
       350.70000  2.56411e-13      4.76669
       350.80000  2.56411e-13      4.76156
       350.90000  2.56411e-13      4.74618
       351.00000  2.56411e-13      4.72310
       351.10000  2.56411e-13      4.68720
       351.20000  2.56411e-13      4.64105
       351.30000  2.56763e-13      4.58836
       351.40000  2.56763e-13      4.52160
       351.50000  3.30708e-13      5.72456
       351.60000  3.30708e-13      5.63196
       351.70000  3.30708e-13      5.55259
       351.80000  3.30708e-13      5.48314
       351.90000  3.30708e-13      5.42362
       352.00000  3.30708e-13      5.37732
       352.10000  3.30708e-13      5.34425
       352.20000  3.30708e-13      5.32110
       352.30000  3.30708e-13      5.31118
       352.40000  3.30708e-13      5.31118
       352.50000  2.75595e-13      4.43432
       352.60000  2.75595e-13      4.50873
       352.70000  2.75595e-13      4.57763
       352.80000  2.75595e-13      4.64653
       352.90000  2.75595e-13      4.71267
       353.00000  2.75595e-13      4.77606
       353.10000  2.75595e-13      4.83669
       353.20000  2.75595e-13      4.89732
       353.30000  2.75595e-13      4.95244
       353.40000  2.75595e-13      5.00756
       353.50000  4.15846e-13      7.63493
       353.60000  4.15846e-13      7.70978
       353.70000  4.15846e-13      7.78048
       353.80000  4.16336e-13      7.86043
       353.90000  4.16336e-13      7.92704
       354.00000  4.16336e-13      7.98533
       354.10000  4.16336e-13      8.04362
       354.20000  4.16336e-13      8.10190
       354.30000  4.16336e-13      8.15186
       354.40000  4.16336e-13      8.20182
       354.50000  5.57927e-13      11.0470
       354.60000  5.57927e-13      11.0135
       354.70000  5.57927e-13      10.9744
       354.80000  5.57927e-13      10.9298
       354.90000  5.57927e-13      10.8796
       355.00000  5.57927e-13      10.8182
       355.10000  5.57927e-13      10.7513
       355.20000  5.57927e-13      10.6787
       355.30000  5.57927e-13      10.6006
       355.40000  5.57927e-13      10.5169
       355.50000  6.45261e-14      1.20535
       355.60000  6.45261e-14      1.18922
       355.70000  6.45261e-14      1.17373
       355.80000  6.45261e-14      1.15824
       355.90000  6.45261e-14      1.14276
       356.00000  6.45261e-14      1.12792
       356.10000  6.45261e-14      1.11308
       356.20000  6.45261e-14      1.09823
       356.30000  6.47341e-14      1.08689
       356.40000  6.47341e-14      1.07264
       356.50000  6.26312e-13      10.2402
       356.60000  6.26312e-13      10.1024
       356.70000  6.26312e-13      9.97089
       356.80000  6.26312e-13      9.83937
       356.90000  6.26312e-13      9.70784
       357.00000  6.26312e-13      9.57632
       357.10000  6.26312e-13      9.45105
       357.20000  6.26312e-13      9.32579
       357.30000  6.26312e-13      9.20053
       357.40000  6.26312e-13      9.08153
       357.50000  2.92666e-13      4.18805
       357.60000  2.92666e-13      4.03879
       357.70000  2.92666e-13      3.91294
       357.80000  2.92666e-13      3.80758
       357.90000  2.92666e-13      3.72271
       358.00000  2.92666e-13      3.65832
       358.10000  2.92666e-13      3.61735
       358.20000  2.92666e-13      3.59686
       358.30000  2.92666e-13      3.59686
       358.40000  2.92666e-13      3.61735
       358.50000  8.53100e-14      1.06638
       358.60000  8.53100e-14      1.13462
       358.70000  8.53100e-14      1.19775
       358.80000  8.53781e-14      1.25762
       358.90000  8.53781e-14      1.31055
       359.00000  8.53781e-14      1.35922
       359.10000  8.53781e-14      1.40362
       359.20000  8.53781e-14      1.44204
       359.30000  8.53781e-14      1.47619
       359.40000  8.53781e-14      1.50522
       359.50000  5.11485e-13      9.16069
       359.60000  5.11485e-13      9.17603
       359.70000  5.11485e-13      9.18626
       359.80000  5.11485e-13      9.18626
       359.90000  5.11485e-13      9.17603
       360.00000  5.11485e-13      9.16580
       360.10000  5.11485e-13      9.14534
       360.20000  5.11485e-13      9.11977
       360.30000  5.11485e-13      9.08908
       360.40000  5.11485e-13      9.04816
       360.50000  5.52564e-13      9.72513
       360.60000  5.52564e-13      9.53726
       360.70000  5.52564e-13      9.37149
       360.80000  5.52564e-13      9.22783
       360.90000  5.52564e-13      9.10626
       361.00000  5.52564e-13      9.00680
       361.10000  5.52564e-13      8.92391
       361.20000  5.52564e-13      8.86866
       361.30000  5.53932e-13      8.85184
       361.40000  5.53932e-13      8.83522
       361.50000  4.19437e-13      6.69422
       361.60000  4.19437e-13      6.71519
       361.70000  4.19437e-13      6.75294
       361.80000  4.19437e-13      6.80327
       361.90000  4.19437e-13      6.87458
       362.00000  4.19437e-13      6.95847
       362.10000  4.19437e-13      7.05913
       362.20000  4.19437e-13      7.17657
       362.30000  4.19437e-13      7.31079
       362.40000  4.19437e-13      7.46179
       362.50000  1.52749e-13      2.77850
       362.60000  1.52749e-13      2.77697
       362.70000  1.52749e-13      2.77544
       362.80000  1.52749e-13      2.77391
       362.90000  1.52749e-13      2.77391
       363.00000  1.52749e-13      2.77391
       363.10000  1.52749e-13      2.77544
       363.20000  1.52749e-13      2.77697
       363.30000  1.52749e-13      2.77850
       363.40000  1.52749e-13      2.78002
       363.50000  1.16724e-12      21.2670
       363.60000  1.16724e-12      21.1853
       363.70000  1.16724e-12      21.1386
       363.80000  1.16715e-12      21.1137
       363.90000  1.16715e-12      21.1137
       364.00000  1.16715e-12      21.1370
       364.10000  1.16715e-12      21.1954
       364.20000  1.16715e-12      21.2654
       364.30000  1.16715e-12      21.3821
       364.40000  1.16715e-12      21.5105
       364.50000  1.51011e-12      28.0428
       364.60000  1.51011e-12      28.2694
       364.70000  1.51011e-12      28.5563
       364.80000  1.51011e-12      28.8583
       364.90000  1.51011e-12      29.2056
       365.00000  1.51011e-12      29.5832
       365.10000  1.51011e-12      29.9909
       365.20000  1.51011e-12      30.4288
       365.30000  1.51011e-12      30.9121
       365.40000  1.51011e-12      31.4255
       365.50000  7.01791e-13      14.8569
       365.60000  7.01791e-13      15.0464
       365.70000  7.01791e-13      15.2148
       365.80000  7.01791e-13      15.3622
       365.90000  7.01791e-13      15.5026
       366.00000  7.01791e-13      15.6148
       366.10000  7.01791e-13      15.7201
       366.20000  7.01791e-13      15.7973
       366.30000  7.03934e-13      15.9159
       366.40000  7.03934e-13      15.9652
       366.50000  1.84899e-14     0.420091
       366.60000  1.84899e-14     0.418797
       366.70000  1.84899e-14     0.417503
       366.80000  1.84899e-14     0.416023
       366.90000  1.84899e-14     0.414359
       367.00000  1.84899e-14     0.412695
       367.10000  1.84899e-14     0.411031
       367.20000  1.84899e-14     0.409182
       367.30000  1.84899e-14     0.407333
       367.40000  1.84899e-14     0.405299
       367.50000  2.83976e-12      61.9068
       367.60000  2.83976e-12      61.5661
       367.70000  2.83976e-12      61.2253
       367.80000  2.83976e-12      60.8561
       367.90000  2.83976e-12      60.4869
       368.00000  2.83976e-12      60.0894
       368.10000  2.83976e-12      59.6918
       368.20000  2.83976e-12      59.2659
       368.30000  2.83976e-12      58.8399
       368.40000  2.83976e-12      58.3855
       368.50000  9.80188e-13      19.9958
       368.60000  9.80188e-13      20.3977
       368.70000  9.80188e-13      20.7702
       368.80000  9.82337e-13      21.1497
       368.90000  9.82337e-13      21.4346
       369.00000  9.82337e-13      21.6900
       369.10000  9.82337e-13      21.9061
       369.20000  9.82337e-13      22.0829
       369.30000  9.82337e-13      22.2205
       369.40000  9.82337e-13      22.3187
       369.50000  1.89173e-12      43.0937
       369.60000  1.89173e-12      42.6018
       369.70000  1.89173e-12      42.1478
       369.80000  1.89173e-12      41.7505
       369.90000  1.89173e-12      41.3911
       370.00000  1.89173e-12      41.0695
       370.10000  1.89173e-12      40.8047
       370.20000  1.89173e-12      40.5777
       370.30000  1.89173e-12      40.3885
       370.40000  1.89173e-12      40.2372
       370.50000  1.64506e-12      34.9083
       370.60000  1.64506e-12      35.2373
       370.70000  1.64506e-12      35.5334
       370.80000  1.64506e-12      35.7637
       370.90000  1.64506e-12      35.9611
       371.00000  1.64506e-12      36.1092
       371.10000  1.64506e-12      36.2079
       371.20000  1.64506e-12      36.2572
       371.30000  1.64780e-12      36.3176
       371.40000  1.64780e-12      36.2682
       371.50000  8.09132e-12      177.604
       371.60000  8.09132e-12      175.905
       371.70000  8.09132e-12      174.206
       371.80000  8.09132e-12      172.426
       371.90000  8.09132e-12      170.646
       372.00000  8.09132e-12      168.947
       372.10000  8.09132e-12      167.086
       372.20000  8.09132e-12      165.306
       372.30000  8.09132e-12      163.445
       372.40000  8.09132e-12      161.584
       372.50000  3.44844e-12      68.0723
       372.60000  3.44844e-12      67.2791
       372.70000  3.44844e-12      66.4515
       372.80000  3.44844e-12      65.6238
       372.90000  3.44844e-12      64.7962
       373.00000  3.44844e-12      63.9341
       373.10000  3.44844e-12      63.0720
       373.20000  3.44844e-12      62.2444
       373.30000  3.44844e-12      61.3478
       373.40000  3.44844e-12      60.4857
       373.50000  1.56018e-12      26.9599
       373.60000  1.56018e-12      26.6634
       373.70000  1.56018e-12      26.4294
       373.80000  1.56190e-12      26.2711
       373.90000  1.56190e-12      26.1461
       374.00000  1.56190e-12      26.0680
       374.10000  1.56190e-12      26.0368
       374.20000  1.56190e-12      26.0680
       374.30000  1.56190e-12      26.1617
       374.40000  1.56190e-12      26.2867
       374.50000  7.18154e-12      121.727
       374.60000  7.18154e-12      124.815
       374.70000  7.18154e-12      127.688
       374.80000  7.18154e-12      130.417
       374.90000  7.18154e-12      132.930
       375.00000  7.18154e-12      135.228
       375.10000  7.18154e-12      137.311
       375.20000  7.18154e-12      139.250
       375.30000  7.18154e-12      141.046
       375.40000  7.18154e-12      142.625
       375.50000  1.83478e-11      367.874
       375.60000  1.83478e-11      370.993
       375.70000  1.83478e-11      373.562
       375.80000  1.83478e-11      375.580
       375.90000  1.83478e-11      377.232
       376.00000  1.83478e-11      378.333
       376.10000  1.83478e-11      379.066
       376.20000  1.83478e-11      379.250
       376.30000  1.83437e-11      378.798
       376.40000  1.83437e-11      378.064
       376.50000  3.56770e-12      73.2806
       376.60000  3.56770e-12      75.1001
       376.70000  3.56770e-12      76.8126
       376.80000  3.56770e-12      78.4181
       376.90000  3.56770e-12      79.9165
       377.00000  3.56770e-12      81.3436
       377.10000  3.56770e-12      82.6280
       377.20000  3.56770e-12      83.8410
       377.30000  3.56770e-12      84.9113
       377.40000  3.56770e-12      85.9103
       377.50000  1.40010e-16   0.00340644
       377.60000  1.40010e-16   0.00345684
       377.70000  1.40010e-16   0.00349744
       377.80000  1.40010e-16   0.00353105
       377.90000  1.40010e-16   0.00355625
       378.00000  1.40010e-16   0.00357305
       378.10000  1.40010e-16   0.00358285
       378.20000  1.40010e-16   0.00358285
       378.30000  1.40010e-16   0.00357585
       378.40000  1.40010e-16   0.00355905
       378.50000  5.19329e-12      131.131
       378.60000  5.19329e-12      129.988
       378.70000  5.19329e-12      128.482
       378.80000  5.18520e-12      126.467
       378.90000  5.18520e-12      124.393
       379.00000  5.18520e-12      122.008
       379.10000  5.18520e-12      119.312
       379.20000  5.18520e-12      116.304
       379.30000  5.18520e-12      112.986
       379.40000  5.18520e-12      109.356
       379.50000  6.07683e-11      1236.03
       379.60000  6.07683e-11      1265.80
       379.70000  6.07683e-11      1291.93
       379.80000  6.07683e-11      1315.63
       379.90000  6.07683e-11      1336.30
       380.00000  6.07683e-11      1353.92
       380.10000  6.07683e-11      1368.50
       380.20000  6.07683e-11      1380.05
       380.30000  6.07683e-11      1389.16
       380.40000  6.07683e-11      1394.63
       380.50000  8.80903e-12      202.608
       380.60000  8.80903e-12      201.903
       380.70000  8.80903e-12      200.934
       380.80000  8.80903e-12      199.701
       380.90000  8.80903e-12      198.115
       381.00000  8.80903e-12      196.353
       381.10000  8.80903e-12      194.239
       381.20000  8.80903e-12      191.773
       381.30000  8.81347e-12      189.225
       381.40000  8.81347e-12      186.229
       381.50000  6.49383e-11      1347.47
       381.60000  6.49383e-11      1321.49
       381.70000  6.49383e-11      1292.92
       381.80000  6.49383e-11      1262.40
       381.90000  6.49383e-11      1229.28
       382.00000  6.49383e-11      1194.86
       382.10000  6.49383e-11      1157.85
       382.20000  6.49383e-11      1118.24
       382.30000  6.49383e-11      1077.33
       382.40000  6.49383e-11      1033.82
       382.50000  1.58984e-10      2419.74
       382.60000  1.58984e-10      2333.89
       382.70000  1.58984e-10      2260.76
       382.80000  1.58984e-10      2198.76
       382.90000  1.58984e-10      2149.47
       383.00000  1.58984e-10      2111.31
       383.10000  1.58984e-10      2085.88
       383.20000  1.58984e-10      2069.98
       383.30000  1.58984e-10      2068.39
       383.40000  1.58984e-10      2076.34
       383.50000  1.29460e-11      170.758
       383.60000  1.29460e-11      180.208
       383.70000  1.29460e-11      189.141
       383.80000  1.29556e-11      197.703
       383.90000  1.29556e-11      205.476
       384.00000  1.29556e-11      212.732
       384.10000  1.29556e-11      219.339
       384.20000  1.29556e-11      225.428
       384.30000  1.29556e-11      230.999
       384.40000  1.29556e-11      235.922
       384.50000  9.68274e-12      179.615
       384.60000  9.68274e-12      182.520
       384.70000  9.68274e-12      184.940
       384.80000  9.68274e-12      186.974
       384.90000  9.68274e-12      188.523
       385.00000  9.68274e-12      189.685
       385.10000  9.68274e-12      190.459
       385.20000  9.68274e-12      190.750
       385.30000  9.68274e-12      190.653
       385.40000  9.68274e-12      190.169
       385.50000  3.76472e-10      7356.25
       385.60000  3.76472e-10      7356.25
       385.70000  3.76472e-10      7360.02
       385.80000  3.76472e-10      7360.02
       385.90000  3.76472e-10      7363.78
       386.00000  3.76472e-10      7363.78
       386.10000  3.76472e-10      7363.78
       386.20000  3.76472e-10      7363.78
       386.30000  3.77044e-10      7378.75
       386.40000  3.77044e-10      7378.75
       386.50000  8.26141e-10      16167.6
       386.60000  8.26141e-10      16175.8
       386.70000  8.26141e-10      16184.1
       386.80000  8.26141e-10      16192.4
       386.90000  8.26141e-10      16192.4
       387.00000  8.26141e-10      16200.6
       387.10000  8.26141e-10      16192.4
       387.20000  8.26141e-10      16192.4
       387.30000  8.26141e-10      16184.1
       387.40000  8.26141e-10      16175.8
       387.50000  2.13292e-10      4171.99
       387.60000  2.13292e-10      4167.73
       387.70000  2.13292e-10      4163.46
       387.80000  2.13292e-10      4159.19
       387.90000  2.13292e-10      4152.80
       388.00000  2.13292e-10      4144.26
       388.10000  2.13292e-10      4137.87
       388.20000  2.13292e-10      4129.33
       388.30000  2.13292e-10      4120.80
       388.40000  2.13292e-10      4112.27
       388.50000  9.67756e-10      18609.9
       388.60000  9.67756e-10      19074.5
       388.70000  9.67756e-10      19510.0
       388.80000  9.70306e-10      19978.6
       388.90000  9.70306e-10      20386.1
       389.00000  9.70306e-10      20754.8
       389.10000  9.70306e-10      21113.9
       389.20000  9.70306e-10      21443.8
       389.30000  9.70306e-10      21754.3
       389.40000  9.70306e-10      22045.4
       389.50000  9.31077e-11      2140.55
       389.60000  9.31077e-11      2152.65
       389.70000  9.31077e-11      2164.75
       389.80000  9.31077e-11      2177.79
       389.90000  9.31077e-11      2191.76
       390.00000  9.31077e-11      2204.79
       390.10000  9.31077e-11      2218.76
       390.20000  9.31077e-11      2233.65
       390.30000  9.31077e-11      2248.55
       390.40000  9.31077e-11      2263.45
       390.50000  4.82506e-09      118117.
       390.60000  4.82506e-09      118986.
       390.70000  4.82506e-09      119854.
       390.80000  4.82506e-09      120723.
       390.90000  4.82506e-09      121591.
       391.00000  4.82506e-09      122556.
       391.10000  4.82506e-09      123473.
       391.20000  4.82506e-09      124438.
       391.30000  4.83776e-09      125733.
       391.40000  4.83776e-09      126749.
       391.50000  5.78168e-09      152752.
       391.60000  5.78168e-09      149688.
       391.70000  5.78168e-09      146508.
       391.80000  5.78168e-09      143154.
       391.90000  5.78168e-09      139743.
       392.00000  5.78168e-09      136158.
       392.10000  5.78168e-09      132458.
       392.20000  5.78168e-09      128584.
       392.30000  5.78168e-09      124595.
       392.40000  5.78168e-09      120490.
       392.50000  8.59426e-10      17283.1
       392.60000  8.59426e-10      15873.6
       392.70000  8.59426e-10      14610.2
       392.80000  8.59426e-10      13493.0
       392.90000  8.59426e-10      12530.4
       393.00000  8.59426e-10      11722.6
       393.10000  8.59426e-10      11060.8
       393.20000  8.59426e-10      10545.2
       393.30000  8.59426e-10      10184.2
       393.40000  8.59426e-10      9969.34
       393.50000  7.24207e-09      83428.6
       393.60000  7.24207e-09      90815.6
       393.70000  7.24207e-09      97985.2
       393.80000  7.25420e-09      105113.
       393.90000  7.25420e-09      111860.
       394.00000  7.25420e-09      118389.
       394.10000  7.25420e-09      124700.
       394.20000  7.25420e-09      130721.
       394.30000  7.25420e-09      136597.
       394.40000  7.25420e-09      142255.
       394.50000  2.94590e-08      599491.
       394.60000  2.94590e-08      636314.
       394.70000  2.94590e-08      668719.
       394.80000  2.94590e-08      696705.
       394.90000  2.94590e-08      720272.
       395.00000  2.94590e-08      739421.
       395.10000  2.94590e-08      754150.
       395.20000  2.94590e-08      764756.
       395.30000  2.94590e-08      770647.
       395.40000  2.94590e-08      772415.
       395.50000  2.27664e-08      594887.
       395.60000  2.27664e-08      589423.
       395.70000  2.27664e-08      580544.
       395.80000  2.27664e-08      568250.
       395.90000  2.27664e-08      552769.
       396.00000  2.27664e-08      533645.
       396.10000  2.27664e-08      511334.
       396.20000  2.27664e-08      485380.
       396.30000  2.28113e-08      457139.
       396.40000  2.28113e-08      424519.
       396.50000  1.78064e-08      303422.
       396.60000  1.78064e-08      297724.
       396.70000  1.78064e-08      293984.
       396.80000  1.78064e-08      292026.
       396.90000  1.78064e-08      292026.
       397.00000  1.78064e-08      293806.
       397.10000  1.78064e-08      297368.
       397.20000  1.78064e-08      302888.
       397.30000  1.78064e-08      310366.
       397.40000  1.78064e-08      319448.
       397.50000  1.45869e-08      270733.
       397.60000  1.45869e-08      294072.
       397.70000  1.45869e-08      316098.
       397.80000  1.45869e-08      336811.
       397.90000  1.45869e-08      356212.
       398.00000  1.45869e-08      374300.
       398.10000  1.45869e-08      390929.
       398.20000  1.45869e-08      406391.
       398.30000  1.45869e-08      420540.
       398.40000  1.45869e-08      433377.
       398.50000  3.22084e-08      982033.
       398.60000  3.22084e-08  1.00458e+06
       398.70000  3.22084e-08  1.02423e+06
       398.80000  3.22256e-08  1.04153e+06
       398.90000  3.22256e-08  1.05507e+06
       399.00000  3.22256e-08  1.06602e+06
       399.10000  3.22256e-08  1.07376e+06
       399.20000  3.22256e-08  1.07891e+06
       399.30000  3.22256e-08  1.08085e+06
       399.40000  3.22256e-08  1.08020e+06
       399.50000  2.15416e-08      719489.
       399.60000  2.15416e-08      719704.
       399.70000  2.15416e-08      719919.
       399.80000  2.15416e-08      720566.
       399.90000  2.15416e-08      721212.
       400.00000  2.15416e-08      722074.
       400.10000  2.15416e-08      723151.
       400.20000  2.15416e-08      724443.
       400.30000  2.15416e-08      725951.
       400.40000  2.15416e-08      727674.
       400.50000  2.69439e-08      912589.
       400.60000  2.69439e-08      917439.
       400.70000  2.69439e-08      922289.
       400.80000  2.69439e-08      926600.
       400.90000  2.69439e-08      930642.
       401.00000  2.69439e-08      934683.
       401.10000  2.69439e-08      938186.
       401.20000  2.69439e-08      941419.
       401.30000  2.69673e-08      945203.
       401.40000  2.69673e-08      948169.
       401.50000  1.48603e-08      523827.
       401.60000  1.48603e-08      525016.
       401.70000  1.48603e-08      526056.
       401.80000  1.48603e-08      526948.
       401.90000  1.48603e-08      527691.
       402.00000  1.48603e-08      528285.
       402.10000  1.48603e-08      528731.
       402.20000  1.48603e-08      529028.
       402.30000  1.48603e-08      529177.
       402.40000  1.48603e-08      529177.
       402.50000  2.30138e-08      819290.
       402.60000  2.30138e-08      814458.
       402.70000  2.30138e-08      810315.
       402.80000  2.30138e-08      806173.
       402.90000  2.30138e-08      802490.
       403.00000  2.30138e-08      799038.
       403.10000  2.30138e-08      795816.
       403.20000  2.30138e-08      793055.
       403.30000  2.30138e-08      790523.
       403.40000  2.30138e-08      788222.
       403.50000  1.35978e-09      46450.2
       403.60000  1.35978e-09      46436.6
       403.70000  1.35978e-09      46423.0
       403.80000  1.36049e-09      46419.9
       403.90000  1.36049e-09      46406.3
       404.00000  1.36049e-09      46392.7
       404.10000  1.36049e-09      46379.1
       404.20000  1.36049e-09      46365.5
       404.30000  1.36049e-09      46338.3
       404.40000  1.36049e-09      46338.3
       404.50000  2.05359e-08      699248.
       404.60000  2.05359e-08      699042.
       404.70000  2.05359e-08      698837.
       404.80000  2.05359e-08      698632.
       404.90000  2.05359e-08      698632.
       405.00000  2.05359e-08      698426.
       405.10000  2.05359e-08      698221.
       405.20000  2.05359e-08      698221.
       405.30000  2.05359e-08      698015.
       405.40000  2.05359e-08      698015.
       405.50000  1.92624e-08      654729.
       405.60000  1.92624e-08      649721.
       405.70000  1.92624e-08      645098.
       405.80000  1.92624e-08      641053.
       405.90000  1.92624e-08      637586.
       406.00000  1.92624e-08      634311.
       406.10000  1.92624e-08      631615.
       406.20000  1.92624e-08      629496.
       406.30000  1.92860e-08      628532.
       406.40000  1.92860e-08      627182.
       406.50000  2.07421e-08      673703.
       406.60000  2.07421e-08      674118.
       406.70000  2.07421e-08      674948.
       406.80000  2.07421e-08      675985.
       406.90000  2.07421e-08      677437.
       407.00000  2.07421e-08      679096.
       407.10000  2.07421e-08      681170.
       407.20000  2.07421e-08      683452.
       407.30000  2.07421e-08      685941.
       407.40000  2.07421e-08      688845.
       407.50000  2.58414e-13      8.62069
       407.60000  2.58414e-13      8.66204
       407.70000  2.58414e-13      8.70855
       407.80000  2.58414e-13      8.75765
       407.90000  2.58414e-13      8.81192
       408.00000  2.58414e-13      8.86877
       408.10000  2.58414e-13      8.93079
       408.20000  2.58414e-13      8.99281
       408.30000  2.58414e-13      9.06258
       408.40000  2.58414e-13      9.13235
       408.50000  6.94479e-09      247443.
       408.60000  6.94479e-09      248276.
       408.70000  6.94479e-09      248901.
       408.80000  6.94519e-09      249263.
       408.90000  6.94519e-09      249402.
       409.00000  6.94519e-09      249263.
       409.10000  6.94519e-09      248915.
       409.20000  6.94519e-09      248360.
       409.30000  6.94519e-09      247596.
       409.40000  6.94519e-09      246485.
       409.50000  7.95766e-08  2.80985e+06
       409.60000  7.95766e-08  2.74619e+06
       409.70000  7.95766e-08  2.68969e+06
       409.80000  7.95766e-08  2.64115e+06
       409.90000  7.95766e-08  2.59977e+06
       410.00000  7.95766e-08  2.56714e+06
       410.10000  7.95766e-08  2.54168e+06
       410.20000  7.95766e-08  2.52338e+06
       410.30000  7.95766e-08  2.51383e+06
       410.40000  7.95766e-08  2.51064e+06
       410.50000  1.26371e-08      399584.
       410.60000  1.26371e-08      401606.
       410.70000  1.26371e-08      404892.
       410.80000  1.26371e-08      409441.
       410.90000  1.26371e-08      415128.
       411.00000  1.26371e-08      422078.
       411.10000  1.26371e-08      430166.
       411.20000  1.26371e-08      439644.
       411.30000  1.26330e-08      450114.
       411.40000  1.26330e-08      461863.
       411.50000  2.39394e-08      899882.
       411.60000  2.39394e-08      898925.
       411.70000  2.39394e-08      897728.
       411.80000  2.39394e-08      896770.
       411.90000  2.39394e-08      895573.
       412.00000  2.39394e-08      894376.
       412.10000  2.39394e-08      893179.
       412.20000  2.39394e-08      891982.
       412.30000  2.39394e-08      890785.
       412.40000  2.39394e-08      889588.
       412.50000  5.63757e-09      209154.
       412.60000  5.63757e-09      208759.
       412.70000  5.63757e-09      208365.
       412.80000  5.63757e-09      207970.
       412.90000  5.63757e-09      207632.
       413.00000  5.63757e-09      207294.
       413.10000  5.63757e-09      206955.
       413.20000  5.63757e-09      206673.
       413.30000  5.63757e-09      206335.
       413.40000  5.63757e-09      206053.
       413.50000  5.90007e-08  2.15412e+06
       413.60000  5.90007e-08  2.15117e+06
       413.70000  5.90007e-08  2.14881e+06
       413.80000  5.90237e-08  2.14787e+06
       413.90000  5.90237e-08  2.14551e+06
       414.00000  5.90237e-08  2.14374e+06
       414.10000  5.90237e-08  2.14197e+06
       414.20000  5.90237e-08  2.14020e+06
       414.30000  5.90237e-08  2.13902e+06
       414.40000  5.90237e-08  2.13784e+06
       414.50000  6.99075e-09      253065.
       414.60000  6.99075e-09      252366.
       414.70000  6.99075e-09      251807.
       414.80000  6.99075e-09      251387.
       414.90000  6.99075e-09      251178.
       415.00000  6.99075e-09      251108.
       415.10000  6.99075e-09      251248.
       415.20000  6.99075e-09      251457.
       415.30000  6.99075e-09      251877.
       415.40000  6.99075e-09      252506.
       415.50000  2.05186e-08      743184.
       415.60000  2.05186e-08      753648.
       415.70000  2.05186e-08      762676.
       415.80000  2.05186e-08      770678.
       415.90000  2.05186e-08      777244.
       416.00000  2.05186e-08      782784.
       416.10000  2.05186e-08      786888.
       416.20000  2.05186e-08      789966.
       416.30000  2.05138e-08      791422.
       416.40000  2.05138e-08      792037.
       416.50000  3.01807e-08  1.16407e+06
       416.60000  3.01807e-08  1.14777e+06
       416.70000  3.01807e-08  1.13238e+06
       416.80000  3.01807e-08  1.11850e+06
       416.90000  3.01807e-08  1.10552e+06
       417.00000  3.01807e-08  1.09405e+06
       417.10000  3.01807e-08  1.08379e+06
       417.20000  3.01807e-08  1.07473e+06
       417.30000  3.01807e-08  1.06689e+06
       417.40000  3.01807e-08  1.06025e+06
       417.50000  6.23068e-08  2.17762e+06
       417.60000  6.23068e-08  2.18074e+06
       417.70000  6.23068e-08  2.18385e+06
       417.80000  6.23068e-08  2.18697e+06
       417.90000  6.23068e-08  2.19008e+06
       418.00000  6.23068e-08  2.19320e+06
       418.10000  6.23068e-08  2.19631e+06
       418.20000  6.23068e-08  2.19881e+06
       418.30000  6.23068e-08  2.20192e+06
       418.40000  6.23068e-08  2.20504e+06
       418.50000  1.83433e-08      649902.
       418.60000  1.83433e-08      650820.
       418.70000  1.83433e-08      651737.
       418.80000  1.84430e-08      656016.
       418.90000  1.84430e-08      656938.
       419.00000  1.84430e-08      657676.
       419.10000  1.84430e-08      658598.
       419.20000  1.84430e-08      659336.
       419.30000  1.84430e-08      660073.
       419.40000  1.84430e-08      660995.
       419.50000  2.15467e-08      773097.
       419.60000  2.15467e-08      776113.
       419.70000  2.15467e-08      779130.
       419.80000  2.15467e-08      781931.
       419.90000  2.15467e-08      784947.
       420.00000  2.15467e-08      787533.
       420.10000  2.15467e-08      790334.
       420.20000  2.15467e-08      792920.
       420.30000  2.15467e-08      795505.
       420.40000  2.15467e-08      798091.
       420.50000  9.30931e-08  3.45841e+06
       420.60000  9.30931e-08  3.48913e+06
       420.70000  9.30931e-08  3.51613e+06
       420.80000  9.30931e-08  3.53754e+06
       420.90000  9.30931e-08  3.55337e+06
       421.00000  9.30931e-08  3.56454e+06
       421.10000  9.30931e-08  3.57105e+06
       421.20000  9.30931e-08  3.57198e+06
       421.30000  9.35755e-08  3.58675e+06
       421.40000  9.35755e-08  3.57739e+06
       421.50000  3.34352e-08  1.27321e+06
       421.60000  3.34352e-08  1.26652e+06
       421.70000  3.34352e-08  1.25783e+06
       421.80000  3.34352e-08  1.24747e+06
       421.90000  3.34352e-08  1.23509e+06
       422.00000  3.34352e-08  1.22105e+06
       422.10000  3.34352e-08  1.20534e+06
       422.20000  3.34352e-08  1.18762e+06
       422.30000  3.34352e-08  1.16789e+06
       422.40000  3.34352e-08  1.14683e+06
       422.50000  3.00788e-08  1.01095e+06
       422.60000  3.00788e-08  1.02148e+06
       422.70000  3.00788e-08  1.03170e+06
       422.80000  3.00788e-08  1.04133e+06
       422.90000  3.00788e-08  1.05035e+06
       423.00000  3.00788e-08  1.05908e+06
       423.10000  3.00788e-08  1.06750e+06
       423.20000  3.00788e-08  1.07532e+06
       423.30000  3.00788e-08  1.08254e+06
       423.40000  3.00788e-08  1.08946e+06
       423.50000  2.83920e-08  1.03432e+06
       423.60000  2.83920e-08  1.04142e+06
       423.70000  2.83920e-08  1.04795e+06
       423.80000  2.85637e-08  1.05972e+06
       423.90000  2.85637e-08  1.06457e+06
       424.00000  2.85637e-08  1.06886e+06
       424.10000  2.85637e-08  1.07200e+06
       424.20000  2.85637e-08  1.07457e+06
       424.30000  2.85637e-08  1.07628e+06
       424.40000  2.85637e-08  1.07714e+06
       424.50000  6.44117e-08  2.42897e+06
       424.60000  6.44117e-08  2.42768e+06
       424.70000  6.44117e-08  2.42446e+06
       424.80000  6.44117e-08  2.41995e+06
       424.90000  6.44117e-08  2.41286e+06
       425.00000  6.44117e-08  2.40449e+06
       425.10000  6.44117e-08  2.39418e+06
       425.20000  6.44117e-08  2.38195e+06
       425.30000  6.44117e-08  2.36842e+06
       425.40000  6.44117e-08  2.35296e+06
       425.50000  4.78151e-08  1.73378e+06
       425.60000  4.78151e-08  1.74047e+06
       425.70000  4.78151e-08  1.74621e+06
       425.80000  4.78151e-08  1.75003e+06
       425.90000  4.78151e-08  1.75290e+06
       426.00000  4.78151e-08  1.75434e+06
       426.10000  4.78151e-08  1.75434e+06
       426.20000  4.78151e-08  1.75290e+06
       426.30000  4.79607e-08  1.75584e+06
       426.40000  4.79607e-08  1.75152e+06
       426.50000  2.59363e-08      944339.
       426.60000  2.59363e-08      933705.
       426.70000  2.59363e-08      923849.
       426.80000  2.59363e-08      914772.
       426.90000  2.59363e-08      906732.
       427.00000  2.59363e-08      899210.
       427.10000  2.59363e-08      892726.
       427.20000  2.59363e-08      887020.
       427.30000  2.59363e-08      882092.
       427.40000  2.59363e-08      877942.
       427.50000  8.49086e-08  2.86312e+06
       427.60000  8.49086e-08  2.85547e+06
       427.70000  8.49086e-08  2.84953e+06
       427.80000  8.49086e-08  2.84698e+06
       427.90000  8.49086e-08  2.84698e+06
       428.00000  8.49086e-08  2.84953e+06
       428.10000  8.49086e-08  2.85547e+06
       428.20000  8.49086e-08  2.86312e+06
       428.30000  8.49086e-08  2.87415e+06
       428.40000  8.49086e-08  2.88689e+06
       428.50000  4.87817e-08  1.66785e+06
       428.60000  4.87817e-08  1.66736e+06
       428.70000  4.87817e-08  1.66443e+06
       428.80000  4.88643e-08  1.66187e+06
       428.90000  4.88643e-08  1.65406e+06
       429.00000  4.88643e-08  1.64379e+06
       429.10000  4.88643e-08  1.63109e+06
       429.20000  4.88643e-08  1.61594e+06
       429.30000  4.88643e-08  1.59884e+06
       429.40000  4.88643e-08  1.57880e+06
       429.50000  6.17430e-08  1.96651e+06
       429.60000  6.17430e-08  1.86834e+06
       429.70000  6.17430e-08  1.78129e+06
       429.80000  6.17430e-08  1.70658e+06
       429.90000  6.17430e-08  1.64360e+06
       430.00000  6.17430e-08  1.59297e+06
       430.10000  6.17430e-08  1.55407e+06
       430.20000  6.17430e-08  1.52690e+06
       430.30000  6.17430e-08  1.51147e+06
       430.40000  6.17430e-08  1.50838e+06
       430.50000  7.58901e-09      186462.
       430.60000  7.58901e-09      188966.
       430.70000  7.58901e-09      192989.
       430.80000  7.58901e-09      198377.
       430.90000  7.58901e-09      205359.
       431.00000  7.58901e-09      213707.
       431.10000  7.58901e-09      223572.
       431.20000  7.58901e-09      234880.
       431.30000  7.60459e-09      248138.
       431.40000  7.60459e-09      262434.
       431.50000  8.42442e-08  3.08165e+06
       431.60000  8.42442e-08  3.06480e+06
       431.70000  8.42442e-08  3.04964e+06
       431.80000  8.42442e-08  3.03785e+06
       431.90000  8.42442e-08  3.02774e+06
       432.00000  8.42442e-08  3.02016e+06
       432.10000  8.42442e-08  3.01426e+06
       432.20000  8.42442e-08  3.01089e+06
       432.30000  8.42442e-08  3.01005e+06
       432.40000  8.42442e-08  3.01173e+06
       432.50000  4.85691e-08  1.73829e+06
       432.60000  4.85691e-08  1.75480e+06
       432.70000  4.85691e-08  1.76937e+06
       432.80000  4.85691e-08  1.78297e+06
       432.90000  4.85691e-08  1.79463e+06
       433.00000  4.85691e-08  1.80483e+06
       433.10000  4.85691e-08  1.81357e+06
       433.20000  4.85691e-08  1.82037e+06
       433.30000  4.85691e-08  1.82620e+06
       433.40000  4.85691e-08  1.83008e+06
       433.50000  4.02129e-08  1.51723e+06
       433.60000  4.02129e-08  1.51804e+06
       433.70000  4.02129e-08  1.51723e+06
       433.80000  4.02315e-08  1.51633e+06
       433.90000  4.02315e-08  1.51311e+06
       434.00000  4.02315e-08  1.50868e+06
       434.10000  4.02315e-08  1.50305e+06
       434.20000  4.02315e-08  1.49621e+06
       434.30000  4.02315e-08  1.48816e+06
       434.40000  4.02315e-08  1.47851e+06
       434.50000  5.09781e-08  1.85968e+06
       434.60000  5.09781e-08  1.85866e+06
       434.70000  5.09781e-08  1.85866e+06
       434.80000  5.09781e-08  1.86070e+06
       434.90000  5.09781e-08  1.86478e+06
       435.00000  5.09781e-08  1.87039e+06
       435.10000  5.09781e-08  1.87752e+06
       435.20000  5.09781e-08  1.88619e+06
       435.30000  5.09781e-08  1.89689e+06
       435.40000  5.09781e-08  1.90913e+06
       435.50000  7.69322e-08  2.90265e+06
       435.60000  7.69322e-08  2.96266e+06
       435.70000  7.69322e-08  3.01805e+06
       435.80000  7.69322e-08  3.06729e+06
       435.90000  7.69322e-08  3.11114e+06
       436.00000  7.69322e-08  3.14883e+06
       436.10000  7.69322e-08  3.18192e+06
       436.20000  7.69322e-08  3.20884e+06
       436.30000  7.69107e-08  3.22948e+06
       436.40000  7.69107e-08  3.24563e+06
       436.50000  4.71065e-08  1.99402e+06
       436.60000  4.71065e-08  1.99731e+06
       436.70000  4.71065e-08  1.99684e+06
       436.80000  4.71065e-08  1.99307e+06
       436.90000  4.71065e-08  1.98601e+06
       437.00000  4.71065e-08  1.97517e+06
       437.10000  4.71065e-08  1.96151e+06
       437.20000  4.71065e-08  1.94408e+06
       437.30000  4.71065e-08  1.92336e+06
       437.40000  4.71065e-08  1.89886e+06
       437.50000  2.97769e-08  1.18304e+06
       437.60000  2.97769e-08  1.15296e+06
       437.70000  2.97769e-08  1.12587e+06
       437.80000  2.97769e-08  1.10234e+06
       437.90000  2.97769e-08  1.08209e+06
       438.00000  2.97769e-08  1.06512e+06
       438.10000  2.97769e-08  1.05113e+06
       438.20000  2.97769e-08  1.04070e+06
       438.30000  2.97769e-08  1.03356e+06
       438.40000  2.97769e-08  1.02939e+06
       438.50000  7.16330e-08  2.47492e+06
       438.60000  7.16330e-08  2.54225e+06
       438.70000  7.16330e-08  2.60457e+06
       438.80000  7.16436e-08  2.66084e+06
       438.90000  7.16436e-08  2.71099e+06
       439.00000  7.16436e-08  2.75541e+06
       439.10000  7.16436e-08  2.79410e+06
       439.20000  7.16436e-08  2.82634e+06
       439.30000  7.16436e-08  2.85356e+06
       439.40000  7.16436e-08  2.87434e+06
       439.50000  3.20615e-09      129304.
       439.60000  3.20615e-09      127477.
       439.70000  3.20615e-09      125906.
       439.80000  3.20615e-09      124527.
       439.90000  3.20615e-09      123405.
       440.00000  3.20615e-09      122539.
       440.10000  3.20615e-09      121898.
       440.20000  3.20615e-09      121481.
       440.30000  3.20615e-09      121289.
       440.40000  3.20615e-09      121353.
       440.50000  1.71384e-08      650230.
       440.60000  1.71384e-08      661542.
       440.70000  1.71384e-08      672167.
       440.80000  1.71384e-08      682279.
       440.90000  1.71384e-08      691705.
       441.00000  1.71384e-08      700446.
       441.10000  1.71384e-08      708501.
       441.20000  1.71384e-08      716042.
       441.30000  1.71281e-08      722461.
       441.40000  1.71281e-08      728627.
       441.50000  5.19028e-08  2.22456e+06
       441.60000  5.19028e-08  2.23961e+06
       441.70000  5.19028e-08  2.25258e+06
       441.80000  5.19028e-08  2.26348e+06
       441.90000  5.19028e-08  2.27283e+06
       442.00000  5.19028e-08  2.28009e+06
       442.10000  5.19028e-08  2.28528e+06
       442.20000  5.19028e-08  2.28840e+06
       442.30000  5.19028e-08  2.28943e+06
       442.40000  5.19028e-08  2.28892e+06
       442.50000  5.83114e-08  2.56862e+06
       442.60000  5.83114e-08  2.55229e+06
       442.70000  5.83114e-08  2.53713e+06
       442.80000  5.83114e-08  2.52430e+06
       442.90000  5.83114e-08  2.51322e+06
       443.00000  5.83114e-08  2.50331e+06
       443.10000  5.83114e-08  2.49573e+06
       443.20000  5.83114e-08  2.48990e+06
       443.30000  5.83114e-08  2.48523e+06
       443.40000  5.83114e-08  2.48290e+06
       443.50000  9.39767e-09      400059.
       443.60000  9.39767e-09      403536.
       443.70000  9.39767e-09      406543.
       443.80000  9.39078e-09      408781.
       443.90000  9.39078e-09      410941.
       444.00000  9.39078e-09      412631.
       444.10000  9.39078e-09      413758.
       444.20000  9.39078e-09      414509.
       444.30000  9.39078e-09      414885.
       444.40000  9.39078e-09      414697.
       444.50000  6.61384e-08  2.91604e+06
       444.60000  6.61384e-08  2.90877e+06
       444.70000  6.61384e-08  2.89818e+06
       444.80000  6.61384e-08  2.88429e+06
       444.90000  6.61384e-08  2.86710e+06
       445.00000  6.61384e-08  2.84726e+06
       445.10000  6.61384e-08  2.82345e+06
       445.20000  6.61384e-08  2.79699e+06
       445.30000  6.61384e-08  2.76723e+06
       445.40000  6.61384e-08  2.73416e+06
       445.50000  4.67462e-08  1.90678e+06
       445.60000  4.67462e-08  1.90911e+06
       445.70000  4.67462e-08  1.91238e+06
       445.80000  4.67462e-08  1.91706e+06
       445.90000  4.67462e-08  1.92314e+06
       446.00000  4.67462e-08  1.93015e+06
       446.10000  4.67462e-08  1.93856e+06
       446.20000  4.67462e-08  1.94838e+06
       446.30000  4.66919e-08  1.95686e+06
       446.40000  4.66919e-08  1.96900e+06
       446.50000  1.11171e-08      471923.
       446.60000  1.11171e-08      479927.
       446.70000  1.11171e-08      487265.
       446.80000  1.11171e-08      493824.
       446.90000  1.11171e-08      499716.
       447.00000  1.11171e-08      504830.
       447.10000  1.11171e-08      509165.
       447.20000  1.11171e-08      512834.
       447.30000  1.11171e-08      515836.
       447.40000  1.11171e-08      518059.
       447.50000  3.00554e-08  1.40449e+06
       447.60000  3.00554e-08  1.40659e+06
       447.70000  3.00554e-08  1.40689e+06
       447.80000  3.00554e-08  1.40479e+06
       447.90000  3.00554e-08  1.40118e+06
       448.00000  3.00554e-08  1.39547e+06
       448.10000  3.00554e-08  1.38766e+06
       448.20000  3.00554e-08  1.37804e+06
       448.30000  3.00554e-08  1.36632e+06
       448.40000  3.00554e-08  1.35279e+06
       448.50000  6.32240e-08  2.81284e+06
       448.60000  6.32240e-08  2.81726e+06
       448.70000  6.32240e-08  2.82232e+06
       448.80000  6.32258e-08  2.82872e+06
       448.90000  6.32258e-08  2.83568e+06
       449.00000  6.32258e-08  2.84326e+06
       449.10000  6.32258e-08  2.85211e+06
       449.20000  6.32258e-08  2.86160e+06
       449.30000  6.32258e-08  2.87235e+06
       449.40000  6.32258e-08  2.88373e+06
       449.50000  4.31289e-08  1.97573e+06
       449.60000  4.31289e-08  1.99428e+06
       449.70000  4.31289e-08  2.01153e+06
       449.80000  4.31289e-08  2.02706e+06
       449.90000  4.31289e-08  2.04086e+06
       450.00000  4.31289e-08  2.05380e+06
       450.10000  4.31289e-08  2.06458e+06
       450.20000  4.31289e-08  2.07450e+06
       450.30000  4.31289e-08  2.08269e+06
       450.40000  4.31289e-08  2.08916e+06
       450.50000  4.39758e-08  2.13546e+06
       450.60000  4.39758e-08  2.13854e+06
       450.70000  4.39758e-08  2.14030e+06
       450.80000  4.39758e-08  2.14030e+06
       450.90000  4.39758e-08  2.13942e+06
       451.00000  4.39758e-08  2.13722e+06
       451.10000  4.39758e-08  2.13327e+06
       451.20000  4.39758e-08  2.12843e+06
       451.30000  4.39460e-08  2.12084e+06
       451.40000  4.39460e-08  2.11293e+06
       451.50000  2.50460e-08  1.19920e+06
       451.60000  2.50460e-08  1.18467e+06
       451.70000  2.50460e-08  1.17140e+06
       451.80000  2.50460e-08  1.15938e+06
       451.90000  2.50460e-08  1.14836e+06
       452.00000  2.50460e-08  1.13859e+06
       452.10000  2.50460e-08  1.12982e+06
       452.20000  2.50460e-08  1.12206e+06
       452.30000  2.50460e-08  1.11580e+06
       452.40000  2.50460e-08  1.11029e+06
       452.50000  8.22861e-08  3.63375e+06
       452.60000  8.22861e-08  3.62306e+06
       452.70000  8.22861e-08  3.61647e+06
       452.80000  8.22861e-08  3.61400e+06
       452.90000  8.22861e-08  3.61483e+06
       453.00000  8.22861e-08  3.61894e+06
       453.10000  8.22861e-08  3.62717e+06
       453.20000  8.22861e-08  3.63869e+06
       453.30000  8.22861e-08  3.65432e+06
       453.40000  8.22861e-08  3.67325e+06
       453.50000  1.13628e-08      510415.
       453.60000  1.13628e-08      510188.
       453.70000  1.13628e-08      510188.
       453.80000  1.13599e-08      510060.
       453.90000  1.13599e-08      510173.
       454.00000  1.13599e-08      510514.
       454.10000  1.13599e-08      510969.
       454.20000  1.13599e-08      511423.
       454.30000  1.13599e-08      512105.
       454.40000  1.13599e-08      512900.
       454.50000  2.08167e-08      941331.
       454.60000  2.08167e-08      944454.
       454.70000  2.08167e-08      947576.
       454.80000  2.08167e-08      950490.
       454.90000  2.08167e-08      953405.
       455.00000  2.08167e-08      956319.
       455.10000  2.08167e-08      959025.
       455.20000  2.08167e-08      961732.
       455.30000  2.08167e-08      964438.
       455.40000  2.08167e-08      967144.
       455.50000  8.54089e-08  3.97835e+06
       455.60000  8.54089e-08  3.98860e+06
       455.70000  8.54089e-08  3.99885e+06
       455.80000  8.54089e-08  4.00909e+06
       455.90000  8.54089e-08  4.01849e+06
       456.00000  8.54089e-08  4.02788e+06
       456.10000  8.54089e-08  4.03728e+06
       456.20000  8.54089e-08  4.04582e+06
       456.30000  8.54069e-08  4.05512e+06
       456.40000  8.54069e-08  4.06366e+06
       456.50000  2.03324e-08      969244.
       456.60000  2.03324e-08      973717.
       456.70000  2.03324e-08      977580.
       456.80000  2.03324e-08      980630.
       456.90000  2.03324e-08      983070.
       457.00000  2.03324e-08      984696.
       457.10000  2.03324e-08      985510.
       457.20000  2.03324e-08      985713.
       457.30000  2.03324e-08      985306.
       457.40000  2.03324e-08      984086.
       457.50000  3.08814e-08  1.49188e+06
       457.60000  3.08814e-08  1.47768e+06
       457.70000  3.08814e-08  1.46440e+06
       457.80000  3.08814e-08  1.45266e+06
       457.90000  3.08814e-08  1.44216e+06
       458.00000  3.08814e-08  1.43259e+06
       458.10000  3.08814e-08  1.42425e+06
       458.20000  3.08814e-08  1.41715e+06
       458.30000  3.08814e-08  1.41128e+06
       458.40000  3.08814e-08  1.40665e+06
       458.50000  3.51001e-08  1.59495e+06
       458.60000  3.51001e-08  1.59214e+06
       458.70000  3.51001e-08  1.59073e+06
       458.80000  3.51477e-08  1.59324e+06
       458.90000  3.51477e-08  1.59465e+06
       459.00000  3.51477e-08  1.59711e+06
       459.10000  3.51477e-08  1.60133e+06
       459.20000  3.51477e-08  1.60695e+06
       459.30000  3.51477e-08  1.61363e+06
       459.40000  3.51477e-08  1.62171e+06
       459.50000  1.06050e-08      492180.
       459.60000  1.06050e-08      493240.
       459.70000  1.06050e-08      494301.
       459.80000  1.06050e-08      495255.
       459.90000  1.06050e-08      496210.
       460.00000  1.06050e-08      497058.
       460.10000  1.06050e-08      497906.
       460.20000  1.06050e-08      498755.
       460.30000  1.06050e-08      499497.
       460.40000  1.06050e-08      500240.
       460.50000  2.25584e-08  1.06543e+06
       460.60000  2.25584e-08  1.06566e+06
       460.70000  2.25584e-08  1.06611e+06
       460.80000  2.25584e-08  1.06679e+06
       460.90000  2.25584e-08  1.06746e+06
       461.00000  2.25584e-08  1.06836e+06
       461.10000  2.25584e-08  1.06949e+06
       461.20000  2.25584e-08  1.07085e+06
       461.30000  2.25902e-08  1.07371e+06
       461.40000  2.25902e-08  1.07529e+06
       461.50000  4.20401e-08  2.00447e+06
       461.60000  4.20401e-08  2.01498e+06
       461.70000  4.20401e-08  2.02381e+06
       461.80000  4.20401e-08  2.03180e+06
       461.90000  4.20401e-08  2.03894e+06
       462.00000  4.20401e-08  2.04441e+06
       462.10000  4.20401e-08  2.04903e+06
       462.20000  4.20401e-08  2.05282e+06
       462.30000  4.20401e-08  2.05534e+06
       462.40000  4.20401e-08  2.05660e+06
       462.50000  5.41670e-08  2.65039e+06
       462.60000  5.41670e-08  2.64281e+06
       462.70000  5.41670e-08  2.63522e+06
       462.80000  5.41670e-08  2.62764e+06
       462.90000  5.41670e-08  2.62006e+06
       463.00000  5.41670e-08  2.61247e+06
       463.10000  5.41670e-08  2.60543e+06
       463.20000  5.41670e-08  2.59785e+06
       463.30000  5.41670e-08  2.59027e+06
       463.40000  5.41670e-08  2.58268e+06
       463.50000  4.53774e-09      215724.
       463.60000  4.53774e-09      215089.
       463.70000  4.53774e-09      214454.
       463.80000  4.54206e-09      214022.
       463.90000  4.54206e-09      213431.
       464.00000  4.54206e-09      212795.
       464.10000  4.54206e-09      212159.
       464.20000  4.54206e-09      211524.
       464.30000  4.54206e-09      210888.
       464.40000  4.54206e-09      210252.
       464.50000  2.43959e-08  1.12587e+06
       464.60000  2.43959e-08  1.13465e+06
       464.70000  2.43959e-08  1.14246e+06
       464.80000  2.43959e-08  1.14905e+06
       464.90000  2.43959e-08  1.15466e+06
       465.00000  2.43959e-08  1.15929e+06
       465.10000  2.43959e-08  1.16271e+06
       465.20000  2.43959e-08  1.16515e+06
       465.30000  2.43959e-08  1.16637e+06
       465.40000  2.43959e-08  1.16686e+06
       465.50000  8.28555e-08  3.95966e+06
       465.60000  8.28555e-08  3.91823e+06
       465.70000  8.28555e-08  3.88095e+06
       465.80000  8.28555e-08  3.84781e+06
       465.90000  8.28555e-08  3.81881e+06
       466.00000  8.28555e-08  3.79395e+06
       466.10000  8.28555e-08  3.77407e+06
       466.20000  8.28555e-08  3.75750e+06
       466.30000  8.28142e-08  3.74320e+06
       466.40000  8.28142e-08  3.73492e+06
       466.50000  5.69745e-08  2.56727e+06
       466.60000  5.69745e-08  2.56727e+06
       466.70000  5.69745e-08  2.57012e+06
       466.80000  5.69745e-08  2.57639e+06
       466.90000  5.69745e-08  2.58493e+06
       467.00000  5.69745e-08  2.59690e+06
       467.10000  5.69745e-08  2.61171e+06
       467.20000  5.69745e-08  2.62880e+06
       467.30000  5.69745e-08  2.64932e+06
       467.40000  5.69745e-08  2.67268e+06
       467.50000  3.09030e-08  1.46356e+06
       467.60000  3.09030e-08  1.46202e+06
       467.70000  3.09030e-08  1.46017e+06
       467.80000  3.09030e-08  1.45862e+06
       467.90000  3.09030e-08  1.45738e+06
       468.00000  3.09030e-08  1.45615e+06
       468.10000  3.09030e-08  1.45491e+06
       468.20000  3.09030e-08  1.45399e+06
       468.30000  3.09030e-08  1.45306e+06
       468.40000  3.09030e-08  1.45213e+06
       468.50000  7.91150e-08  3.71603e+06
       468.60000  7.91150e-08  3.72552e+06
       468.70000  7.91150e-08  3.73264e+06
       468.80000  7.90816e-08  3.73582e+06
       468.90000  7.90816e-08  3.73898e+06
       469.00000  7.90816e-08  3.74056e+06
       469.10000  7.90816e-08  3.73898e+06
       469.20000  7.90816e-08  3.73582e+06
       469.30000  7.90816e-08  3.73107e+06
       469.40000  7.90816e-08  3.72395e+06
       469.50000  3.28566e-08  1.54360e+06
       469.60000  3.28566e-08  1.53867e+06
       469.70000  3.28566e-08  1.53342e+06
       469.80000  3.28566e-08  1.52685e+06
       469.90000  3.28566e-08  1.51995e+06
       470.00000  3.28566e-08  1.51173e+06
       470.10000  3.28566e-08  1.50286e+06
       470.20000  3.28566e-08  1.49333e+06
       470.30000  3.28566e-08  1.48249e+06
       470.40000  3.28566e-08  1.47132e+06
       470.50000  6.33669e-09      281349.
       470.60000  6.33669e-09      284327.
       470.70000  6.33669e-09      287116.
       470.80000  6.33669e-09      289777.
       470.90000  6.33669e-09      292185.
       471.00000  6.33669e-09      294466.
       471.10000  6.33669e-09      296557.
       471.20000  6.33669e-09      298458.
       471.30000  6.31800e-09      299347.
       471.40000  6.31800e-09      300863.
       471.50000  1.27316e-08      609081.
       471.60000  1.27316e-08      610863.
       471.70000  1.27316e-08      612518.
       471.80000  1.27316e-08      613919.
       471.90000  1.27316e-08      615065.
       472.00000  1.27316e-08      615956.
       472.10000  1.27316e-08      616720.
       472.20000  1.27316e-08      617229.
       472.30000  1.27316e-08      617484.
       472.40000  1.27316e-08      617484.
       472.50000  3.21043e-08  1.55674e+06
       472.60000  3.21043e-08  1.55577e+06
       472.70000  3.21043e-08  1.55417e+06
       472.80000  3.21043e-08  1.55192e+06
       472.90000  3.21043e-08  1.54935e+06
       473.00000  3.21043e-08  1.54614e+06
       473.10000  3.21043e-08  1.54229e+06
       473.20000  3.21043e-08  1.53812e+06
       473.30000  3.21043e-08  1.53330e+06
       473.40000  3.21043e-08  1.52784e+06
       473.50000  2.92101e-08  1.38456e+06
       473.60000  2.92101e-08  1.39186e+06
       473.70000  2.92101e-08  1.39887e+06
       473.80000  2.91846e-08  1.40378e+06
       473.90000  2.91846e-08  1.40903e+06
       474.00000  2.91846e-08  1.41400e+06
       474.10000  2.91846e-08  1.41808e+06
       474.20000  2.91846e-08  1.42158e+06
       474.30000  2.91846e-08  1.42450e+06
       474.40000  2.91846e-08  1.42655e+06
       474.50000  1.64465e-08      804727.
       474.60000  1.64465e-08      803904.
       474.70000  1.64465e-08      803082.
       474.80000  1.64465e-08      802095.
       474.90000  1.64465e-08      801109.
       475.00000  1.64465e-08      799957.
       475.10000  1.64465e-08      798642.
       475.20000  1.64465e-08      797326.
       475.30000  1.64465e-08      795846.
       475.40000  1.64465e-08      794365.
       475.50000  2.50348e-08  1.20668e+06
       475.60000  2.50348e-08  1.20392e+06
       475.70000  2.50348e-08  1.20117e+06
       475.80000  2.50348e-08  1.19817e+06
       475.90000  2.50348e-08  1.19516e+06
       476.00000  2.50348e-08  1.19191e+06
       476.10000  2.50348e-08  1.18840e+06
       476.20000  2.50348e-08  1.18490e+06
       476.30000  2.50002e-08  1.17951e+06
       476.40000  2.50002e-08  1.17551e+06
       476.50000  1.02239e-08      479093.
       476.60000  1.02239e-08      484205.
       476.70000  1.02239e-08      488806.
       476.80000  1.02239e-08      492895.
       476.90000  1.02239e-08      496678.
       477.00000  1.02239e-08      499848.
       477.10000  1.02239e-08      502710.
       477.20000  1.02239e-08      505062.
       477.30000  1.02239e-08      506902.
       477.40000  1.02239e-08      508333.
       477.50000  4.75707e-08  2.36997e+06
       477.60000  4.75707e-08  2.35570e+06
       477.70000  4.75707e-08  2.34333e+06
       477.80000  4.75707e-08  2.33287e+06
       477.90000  4.75707e-08  2.32335e+06
       478.00000  4.75707e-08  2.31574e+06
       478.10000  4.75707e-08  2.30908e+06
       478.20000  4.75707e-08  2.30432e+06
       478.30000  4.75707e-08  2.30099e+06
       478.40000  4.75707e-08  2.29957e+06
       478.50000  3.70184e-08  1.78910e+06
       478.60000  3.70184e-08  1.79021e+06
       478.70000  3.70184e-08  1.79243e+06
       478.80000  3.70732e-08  1.79842e+06
       478.90000  3.70732e-08  1.80324e+06
       479.00000  3.70732e-08  1.80880e+06
       479.10000  3.70732e-08  1.81585e+06
       479.20000  3.70732e-08  1.82400e+06
       479.30000  3.70732e-08  1.83327e+06
       479.40000  3.70732e-08  1.84365e+06
       479.50000  5.30449e-08  2.65490e+06
       479.60000  5.30449e-08  2.64482e+06
       479.70000  5.30449e-08  2.63580e+06
       479.80000  5.30449e-08  2.62784e+06
       479.90000  5.30449e-08  2.62148e+06
       480.00000  5.30449e-08  2.61617e+06
       480.10000  5.30449e-08  2.61193e+06
       480.20000  5.30449e-08  2.60928e+06
       480.30000  5.30449e-08  2.60769e+06
       480.40000  5.30449e-08  2.60716e+06
       480.50000  1.69730e-08      834393.
       480.60000  1.69730e-08      839145.
       480.70000  1.69730e-08      843388.
       480.80000  1.69730e-08      846953.
       480.90000  1.69730e-08      850178.
       481.00000  1.69730e-08      852893.
       481.10000  1.69730e-08      855100.
       481.20000  1.69730e-08      856797.
       481.30000  1.70248e-08      860606.
       481.40000  1.70248e-08      861287.
       481.50000  4.00783e-08  2.02796e+06
       481.60000  4.00783e-08  2.02716e+06
       481.70000  4.00783e-08  2.02516e+06
       481.80000  4.00783e-08  2.02195e+06
       481.90000  4.00783e-08  2.01754e+06
       482.00000  4.00783e-08  2.01233e+06
       482.10000  4.00783e-08  2.00552e+06
       482.20000  4.00783e-08  1.99750e+06
       482.30000  4.00783e-08  1.98869e+06
       482.40000  4.00783e-08  1.97827e+06
       482.50000  2.48165e-08  1.21800e+06
       482.60000  2.48165e-08  1.21924e+06
       482.70000  2.48165e-08  1.22023e+06
       482.80000  2.48165e-08  1.22097e+06
       482.90000  2.48165e-08  1.22122e+06
       483.00000  2.48165e-08  1.22147e+06
       483.10000  2.48165e-08  1.22122e+06
       483.20000  2.48165e-08  1.22097e+06
       483.30000  2.48165e-08  1.22023e+06
       483.40000  2.48165e-08  1.21924e+06
       483.50000  2.69765e-08  1.32401e+06
       483.60000  2.69765e-08  1.32374e+06
       483.70000  2.69765e-08  1.32266e+06
       483.80000  2.70233e-08  1.32360e+06
       483.90000  2.70233e-08  1.32144e+06
       484.00000  2.70233e-08  1.31874e+06
       484.10000  2.70233e-08  1.31522e+06
       484.20000  2.70233e-08  1.31144e+06
       484.30000  2.70233e-08  1.30685e+06
       484.40000  2.70233e-08  1.30171e+06
       484.50000  1.64551e-08      789189.
       484.60000  1.64551e-08      785075.
       484.70000  1.64551e-08      780632.
       484.80000  1.64551e-08      775860.
       484.90000  1.64551e-08      770759.
       485.00000  1.64551e-08      765494.
       485.10000  1.64551e-08      759899.
       485.20000  1.64551e-08      754139.
       485.30000  1.64551e-08      748051.
       485.40000  1.64551e-08      741634.
       485.50000  3.71462e-09      165932.
       485.60000  3.71462e-09      162440.
       485.70000  3.71462e-09      159283.
       485.80000  3.71462e-09      156534.
       485.90000  3.71462e-09      154157.
       486.00000  3.71462e-09      152151.
       486.10000  3.71462e-09      150479.
       486.20000  3.71462e-09      149216.
       486.30000  3.71381e-09      148292.
       486.40000  3.71381e-09      147772.
       486.50000  5.68494e-09      225976.
       486.60000  5.68494e-09      226318.
       486.70000  5.68494e-09      227227.
       486.80000  5.68494e-09      228705.
       486.90000  5.68494e-09      230752.
       487.00000  5.68494e-09      233367.
       487.10000  5.68494e-09      236550.
       487.20000  5.68494e-09      240302.
       487.30000  5.68494e-09      244623.
       487.40000  5.68494e-09      249512.
       487.50000  4.27692e-08  1.91863e+06
       487.60000  4.27692e-08  1.92932e+06
       487.70000  4.27692e-08  1.94001e+06
       487.80000  4.27692e-08  1.95028e+06
       487.90000  4.27692e-08  1.96011e+06
       488.00000  4.27692e-08  1.96952e+06
       488.10000  4.27692e-08  1.97851e+06
       488.20000  4.27692e-08  1.98706e+06
       488.30000  4.27692e-08  1.99519e+06
       488.40000  4.27692e-08  2.00331e+06
       488.50000  6.00287e-08  2.82195e+06
       488.60000  6.00287e-08  2.82915e+06
       488.70000  6.00287e-08  2.83636e+06
       488.80000  5.99875e-08  2.84221e+06
       488.90000  5.99875e-08  2.84941e+06
       489.00000  5.99875e-08  2.85660e+06
       489.10000  5.99875e-08  2.86380e+06
       489.20000  5.99875e-08  2.87160e+06
       489.30000  5.99875e-08  2.87880e+06
       489.40000  5.99875e-08  2.88600e+06
       489.50000  1.44583e-08      697470.
       489.60000  1.44583e-08      699205.
       489.70000  1.44583e-08      701084.
       489.80000  1.44583e-08      702819.
       489.90000  1.44583e-08      704699.
       490.00000  1.44583e-08      706434.
       490.10000  1.44583e-08      708314.
       490.20000  1.44583e-08      710193.
       490.30000  1.44583e-08      711928.
       490.40000  1.44583e-08      713808.
       490.50000  1.19430e-07  5.91178e+06
       490.60000  1.19430e-07  5.86520e+06
       490.70000  1.19430e-07  5.82221e+06
       490.80000  1.19430e-07  5.78280e+06
       490.90000  1.19430e-07  5.74577e+06
       491.00000  1.19430e-07  5.71233e+06
       491.10000  1.19430e-07  5.68248e+06
       491.20000  1.19430e-07  5.65620e+06
       491.30000  1.19511e-07  5.63615e+06
       491.40000  1.19511e-07  5.61583e+06
       491.50000  2.06449e-09      96721.2
       491.60000  2.06449e-09      96762.5
       491.70000  2.06449e-09      96803.8
       491.80000  2.06449e-09      96824.5
       491.90000  2.06449e-09      96865.8
       492.00000  2.06449e-09      96886.4
       492.10000  2.06449e-09      96907.1
       492.20000  2.06449e-09      96907.1
       492.30000  2.06449e-09      96927.7
       492.40000  2.06449e-09      96927.7
       492.50000  5.12542e-08  2.40638e+06
       492.60000  5.12542e-08  2.40638e+06
       492.70000  5.12542e-08  2.40638e+06
       492.80000  5.12542e-08  2.40587e+06
       492.90000  5.12542e-08  2.40536e+06
       493.00000  5.12542e-08  2.40484e+06
       493.10000  5.12542e-08  2.40433e+06
       493.20000  5.12542e-08  2.40382e+06
       493.30000  5.12542e-08  2.40279e+06
       493.40000  5.12542e-08  2.40228e+06
       493.50000  3.74887e-08  1.75634e+06
       493.60000  3.74887e-08  1.78521e+06
       493.70000  3.74887e-08  1.81108e+06
       493.80000  3.75468e-08  1.83716e+06
       493.90000  3.75468e-08  1.85781e+06
       494.00000  3.75468e-08  1.87546e+06
       494.10000  3.75468e-08  1.89010e+06
       494.20000  3.75468e-08  1.90212e+06
       494.30000  3.75468e-08  1.91113e+06
       494.40000  3.75468e-08  1.91751e+06
       494.50000  6.13396e-08  3.13875e+06
       494.60000  6.13396e-08  3.10378e+06
       494.70000  6.13396e-08  3.07250e+06
       494.80000  6.13396e-08  3.04428e+06
       494.90000  6.13396e-08  3.01975e+06
       495.00000  6.13396e-08  2.99828e+06
       495.10000  6.13396e-08  2.98049e+06
       495.20000  6.13396e-08  2.96638e+06
       495.30000  6.13396e-08  2.95534e+06
       495.40000  6.13396e-08  2.94737e+06
       495.50000  2.75973e-08  1.32412e+06
       495.60000  2.75973e-08  1.33350e+06
       495.70000  2.75973e-08  1.34233e+06
       495.80000  2.75973e-08  1.35034e+06
       495.90000  2.75973e-08  1.35779e+06
       496.00000  2.75973e-08  1.36469e+06
       496.10000  2.75973e-08  1.37076e+06
       496.20000  2.75973e-08  1.37655e+06
       496.30000  2.76148e-08  1.38239e+06
       496.40000  2.76148e-08  1.38681e+06
       496.50000  2.01763e-09      101587.
       496.60000  2.01763e-09      101971.
       496.70000  2.01763e-09      102253.
       496.80000  2.01763e-09      102475.
       496.90000  2.01763e-09      102616.
       497.00000  2.01763e-09      102677.
       497.10000  2.01763e-09      102677.
       497.20000  2.01763e-09      102576.
       497.30000  2.01763e-09      102415.
       497.40000  2.01763e-09      102173.
       497.50000  3.03691e-08  1.53303e+06
       497.60000  3.03691e-08  1.52696e+06
       497.70000  3.03691e-08  1.51967e+06
       497.80000  3.03691e-08  1.51147e+06
       497.90000  3.03691e-08  1.50175e+06
       498.00000  3.03691e-08  1.49112e+06
       498.10000  3.03691e-08  1.47928e+06
       498.20000  3.03691e-08  1.46652e+06
       498.30000  3.03691e-08  1.45225e+06
       498.40000  3.03691e-08  1.43676e+06
       498.50000  9.44263e-09      441632.
       498.60000  9.44263e-09      446542.
       498.70000  9.44263e-09      450885.
       498.80000  9.44948e-09      454992.
       498.90000  9.44948e-09      458394.
       499.00000  9.44948e-09      461134.
       499.10000  9.44948e-09      463497.
       499.20000  9.44948e-09      465292.
       499.30000  9.44948e-09      466521.
       499.40000  9.44948e-09      467277.
       499.50000  4.17635e-09      206604.
       499.60000  4.17635e-09      205142.
       499.70000  4.17635e-09      203764.
       499.80000  4.17635e-09      202428.
       499.90000  4.17635e-09      201175.
       500.00000  4.17635e-09      200005.
       500.10000  4.17635e-09      198878.
       500.20000  4.17635e-09      197875.
       500.30000  4.17635e-09      196873.
       500.40000  4.17635e-09      195996.
       500.50000  5.40516e-09      252583.
       500.60000  5.40516e-09      251610.
       500.70000  5.40516e-09      250745.
       500.80000  5.40516e-09      249934.
       500.90000  5.40516e-09      249232.
       501.00000  5.40516e-09      248637.
       501.10000  5.40516e-09      248097.
       501.20000  5.40516e-09      247664.
       501.30000  5.41451e-09      247768.
       501.40000  5.41451e-09      247551.
       501.50000  3.87294e-09      176954.
       501.60000  3.87294e-09      177961.
       501.70000  3.87294e-09      178968.
       501.80000  3.87294e-09      179898.
       501.90000  3.87294e-09      180789.
       502.00000  3.87294e-09      181641.
       502.10000  3.87294e-09      182454.
       502.20000  3.87294e-09      183229.
       502.30000  3.87294e-09      183964.
       502.40000  3.87294e-09      184662.
       502.50000  6.02102e-10      28810.6
       502.60000  6.02102e-10      28949.1
       502.70000  6.02102e-10      29075.5
       502.80000  6.02102e-10      29177.9
       502.90000  6.02102e-10      29268.2
       503.00000  6.02102e-10      29346.5
       503.10000  6.02102e-10      29406.7
       503.20000  6.02102e-10      29448.8
       503.30000  6.02102e-10      29472.9
       503.40000  6.02102e-10      29484.9
       503.50000  8.27950e-10      40536.4
       503.60000  8.27950e-10      40503.3
       503.70000  8.27950e-10      40453.6
       503.80000  8.29080e-10      40434.2
       503.90000  8.29080e-10      40343.0
       504.00000  8.29080e-10      40227.0
       504.10000  8.29080e-10      40086.0
       504.20000  8.29080e-10      39920.2
       504.30000  8.29080e-10      39737.8
       504.40000  8.29080e-10      39530.5
       504.50000  8.96487e-10      42502.5
       504.60000  8.96487e-10      42950.7
       504.70000  8.96487e-10      43363.1
       504.80000  8.96487e-10      43748.6
       504.90000  8.96487e-10      44089.3
       505.00000  8.96487e-10      44403.0
       505.10000  8.96487e-10      44672.0
       505.20000  8.96487e-10      44914.0
       505.30000  8.96487e-10      45111.2
       505.40000  8.96487e-10      45281.6
       505.50000  3.02599e-10      15326.6
       505.60000  3.02599e-10      15314.5
       505.70000  3.02599e-10      15299.4
       505.80000  3.02599e-10      15281.3
       505.90000  3.02599e-10      15263.1
       506.00000  3.02599e-10      15241.9
       506.10000  3.02599e-10      15220.7
       506.20000  3.02599e-10      15196.5
       506.30000  3.03028e-10      15190.8
       506.40000  3.03028e-10      15163.5
       506.50000  9.63324e-10      48108.4
       506.60000  9.63324e-10      47906.1
       506.70000  9.63324e-10      47723.1
       506.80000  9.63324e-10      47559.3
       506.90000  9.63324e-10      47405.2
       507.00000  9.63324e-10      47270.3
       507.10000  9.63324e-10      47154.7
       507.20000  9.63324e-10      47048.7
       507.30000  9.63324e-10      46971.7
       507.40000  9.63324e-10      46904.2
       507.50000  1.41579e-10      6884.99
       507.60000  1.41579e-10      6894.90
       507.70000  1.41579e-10      6901.98
       507.80000  1.41579e-10      6910.47
       507.90000  1.41579e-10      6917.55
       508.00000  1.41579e-10      6923.22
       508.10000  1.41579e-10      6928.88
       508.20000  1.41579e-10      6934.54
       508.30000  1.41579e-10      6938.79
       508.40000  1.41579e-10      6943.04
       508.50000  1.80701e-10      8865.18
       508.60000  1.80701e-10      8868.79
       508.70000  1.80701e-10      8872.41
       508.80000  1.80792e-10      8878.68
       508.90000  1.80792e-10      8880.49
       509.00000  1.80792e-10      8880.49
       509.10000  1.80792e-10      8880.49
       509.20000  1.80792e-10      8880.49
       509.30000  1.80792e-10      8878.68
       509.40000  1.80792e-10      8876.87
       509.50000  5.51936e-11      2708.90
       509.60000  5.51936e-11      2712.77
       509.70000  5.51936e-11      2716.63
       509.80000  5.51936e-11      2721.05
       509.90000  5.51936e-11      2725.46
       510.00000  5.51936e-11      2730.43
       510.10000  5.51936e-11      2735.40
       510.20000  5.51936e-11      2740.36
       510.30000  5.51936e-11      2746.43
       510.40000  5.51936e-11      2751.95
       510.50000  1.09366e-10      5465.03
       510.60000  1.09366e-10      5503.30
       510.70000  1.09366e-10      5536.11
       510.80000  1.09366e-10      5564.55
       510.90000  1.09366e-10      5586.42
       511.00000  1.09366e-10      5605.01
       511.10000  1.09366e-10      5617.04
       511.20000  1.09366e-10      5624.70
       511.30000  1.09400e-10      5628.61
       511.40000  1.09400e-10      5626.42
       511.50000  5.42261e-11      2785.05
       511.60000  5.42261e-11      2778.54
       511.70000  5.42261e-11      2769.87
       511.80000  5.42261e-11      2758.48
       511.90000  5.42261e-11      2744.38
       512.00000  5.42261e-11      2728.11
       512.10000  5.42261e-11      2709.13
       512.20000  5.42261e-11      2687.99
       512.30000  5.42261e-11      2664.13
       512.40000  5.42261e-11      2637.56
       512.50000  3.16996e-12      152.507
       512.60000  3.16996e-12      152.412
       512.70000  3.16996e-12      152.348
       512.80000  3.16996e-12      152.285
       512.90000  3.16996e-12      152.253
       513.00000  3.16996e-12      152.221
       513.10000  3.16996e-12      152.190
       513.20000  3.16996e-12      152.190
       513.30000  3.16996e-12      152.221
       513.40000  3.16996e-12      152.253
       513.50000  4.79604e-11      2304.50
       513.60000  4.79604e-11      2305.94
       513.70000  4.79604e-11      2307.38
       513.80000  4.79127e-11      2306.52
       513.90000  4.79127e-11      2308.43
       514.00000  4.79127e-11      2310.35
       514.10000  4.79127e-11      2312.75
       514.20000  4.79127e-11      2314.66
       514.30000  4.79127e-11      2317.06
       514.40000  4.79127e-11      2319.93
       514.50000  1.68583e-11      817.292
       514.60000  1.68583e-11      818.304
       514.70000  1.68583e-11      819.315
       514.80000  1.68583e-11      820.496
       514.90000  1.68583e-11      821.676
       515.00000  1.68583e-11      823.024
       515.10000  1.68583e-11      824.373
       515.20000  1.68583e-11      825.722
       515.30000  1.68583e-11      827.239
       515.40000  1.68583e-11      828.588
       515.50000  1.41863e-11      698.675
       515.60000  1.41863e-11      685.482
       515.70000  1.41863e-11      673.424
       515.80000  1.41863e-11      662.358
       515.90000  1.41863e-11      652.428
       516.00000  1.41863e-11      643.490
       516.10000  1.41863e-11      635.688
       516.20000  1.41863e-11      628.879
       516.30000  1.41848e-11      623.137
       516.40000  1.41848e-11      618.456
       516.50000  1.52993e-11      663.071
       516.60000  1.52993e-11      667.814
       516.70000  1.52993e-11      671.945
       516.80000  1.52993e-11      675.617
       516.90000  1.52993e-11      678.830
       517.00000  1.52993e-11      681.584
       517.10000  1.52993e-11      683.725
       517.20000  1.52993e-11      685.255
       517.30000  1.52993e-11      686.326
       517.40000  1.52993e-11      686.938
       517.50000  1.41076e-11      633.571
       517.60000  1.41076e-11      633.148
       517.70000  1.41076e-11      632.302
       517.80000  1.41076e-11      630.891
       517.90000  1.41076e-11      629.198
       518.00000  1.41076e-11      626.800
       518.10000  1.41076e-11      624.119
       518.20000  1.41076e-11      620.875
       518.30000  1.41076e-11      617.207
       518.40000  1.41076e-11      612.974
       518.50000  4.79413e-12      206.723
       518.60000  4.79413e-12      209.887
       518.70000  4.79413e-12      212.859
       518.80000  4.77942e-12      214.978
       518.90000  4.77942e-12      217.511
       519.00000  4.77942e-12      219.806
       519.10000  4.77942e-12      221.908
       519.20000  4.77942e-12      223.820
       519.30000  4.77942e-12      225.493
       519.40000  4.77942e-12      226.927
       519.50000  4.34210e-17   0.00207335
       519.60000  4.34210e-17   0.00207032
       519.70000  4.34210e-17   0.00206814
       519.80000  4.34210e-17   0.00206684
       519.90000  4.34210e-17   0.00206641
       520.00000  4.34210e-17   0.00206684
       520.10000  4.34210e-17   0.00206771
       520.20000  4.34210e-17   0.00206988
       520.30000  4.34210e-17   0.00207249
       520.40000  4.34210e-17   0.00207639
       520.50000  5.73944e-12      275.034
       520.60000  5.73944e-12      275.723
       520.70000  5.73944e-12      276.526
       520.80000  5.73944e-12      277.445
       520.90000  5.73944e-12      278.420
       521.00000  5.73944e-12      279.568
       521.10000  5.73944e-12      280.831
       521.20000  5.73944e-12      282.151
       521.30000  5.73502e-12      283.367
       521.40000  5.73502e-12      284.973
       521.50000  8.60418e-12      430.037
       521.60000  8.60418e-12      426.681
       521.70000  8.60418e-12      423.670
       521.80000  8.60418e-12      421.003
       521.90000  8.60418e-12      418.680
       522.00000  8.60418e-12      416.701
       522.10000  8.60418e-12      415.066
       522.20000  8.60418e-12      413.775
       522.30000  8.60418e-12      412.915
       522.40000  8.60418e-12      412.312
       522.50000  1.11293e-12      53.2980
       522.60000  1.11293e-12      53.5317
       522.70000  1.11293e-12      53.7543
       522.80000  1.11293e-12      53.9769
       522.90000  1.11293e-12      54.1995
       523.00000  1.11293e-12      54.4109
       523.10000  1.11293e-12      54.6335
       523.20000  1.11293e-12      54.8450
       523.30000  1.11293e-12      55.0564
       523.40000  1.11293e-12      55.2679
       523.50000  5.51993e-12      275.168
       523.60000  5.51993e-12      276.217
       523.70000  5.51993e-12      277.211
       523.80000  5.51412e-12      277.967
       523.90000  5.51412e-12      278.959
       524.00000  5.51412e-12      279.952
       524.10000  5.51412e-12      280.889
       524.20000  5.51412e-12      281.882
       524.30000  5.51412e-12      282.819
       524.40000  5.51412e-12      283.756
       524.50000  3.18013e-13      16.4190
       524.60000  3.18013e-13      16.4858
       524.70000  3.18013e-13      16.5335
       524.80000  3.18013e-13      16.5621
       524.90000  3.18013e-13      16.5685
       525.00000  3.18013e-13      16.5589
       525.10000  3.18013e-13      16.5303
       525.20000  3.18013e-13      16.4794
       525.30000  3.18013e-13      16.4126
       525.40000  3.18013e-13      16.3236
       525.50000  3.87406e-13      19.7538
       525.60000  3.87406e-13      19.3083
       525.70000  3.87406e-13      18.9015
       525.80000  3.87406e-13      18.5374
       525.90000  3.87406e-13      18.2158
       526.00000  3.87406e-13      17.9369
       526.10000  3.87406e-13      17.6967
       526.20000  3.87406e-13      17.5030
       526.30000  3.87580e-13      17.3558
       526.40000  3.87580e-13      17.2434
       526.50000  2.16208e-12      95.8016
       526.60000  2.16208e-12      95.6503
       526.70000  2.16208e-12      95.7367
       526.80000  2.16208e-12      96.0610
       526.90000  2.16208e-12      96.6016
       527.00000  2.16208e-12      97.3799
       527.10000  2.16208e-12      98.3961
       527.20000  2.16208e-12      99.6501
       527.30000  2.16208e-12      101.142
       527.40000  2.16208e-12      102.872
       527.50000  6.65051e-14      3.22417
       527.60000  6.65051e-14      3.24080
       527.70000  6.65051e-14      3.25676
       527.80000  6.65051e-14      3.27139
       527.90000  6.65051e-14      3.28602
       528.00000  6.65051e-14      3.29866
       528.10000  6.65051e-14      3.31129
       528.20000  6.65051e-14      3.32260
       528.30000  6.65051e-14      3.33324
       528.40000  6.65051e-14      3.34321
       528.50000  2.69493e-13      13.5851
       528.60000  2.69493e-13      13.5986
       528.70000  2.69493e-13      13.6121
       528.80000  2.69919e-13      13.6498
       528.90000  2.69919e-13      13.6660
       529.00000  2.69919e-13      13.6822
       529.10000  2.69919e-13      13.7011
       529.20000  2.69919e-13      13.7200
       529.30000  2.69919e-13      13.7389
       529.40000  2.69919e-13      13.7605
       529.50000  2.32822e-12      118.879
       529.60000  2.32822e-12      119.182
       529.70000  2.32822e-12      119.461
       529.80000  2.32822e-12      119.740
       529.90000  2.32822e-12      119.996
       530.00000  2.32822e-12      120.229
       530.10000  2.32822e-12      120.462
       530.20000  2.32822e-12      120.672
       530.30000  2.32822e-12      120.858
       530.40000  2.32822e-12      121.044
       530.50000  1.52532e-12      79.4232
       530.60000  1.52532e-12      79.8503
       530.70000  1.52532e-12      80.2011
       530.80000  1.52532e-12      80.4756
       530.90000  1.52532e-12      80.6587
       531.00000  1.52532e-12      80.7502
       531.10000  1.52532e-12      80.7807
       531.20000  1.52532e-12      80.7044
       531.30000  1.52569e-12      80.5870
       531.40000  1.52569e-12      80.3428
       531.50000  3.51668e-13      18.4485
       531.60000  3.51668e-13      18.3570
       531.70000  3.51668e-13      18.2445
       531.80000  3.51668e-13      18.1144
       531.90000  3.51668e-13      17.9667
       532.00000  3.51668e-13      17.7979
       532.10000  3.51668e-13      17.6080
       532.20000  3.51668e-13      17.4005
       532.30000  3.51668e-13      17.1754
       532.40000  3.51668e-13      16.9293
       532.50000  7.12505e-13      33.7656
       532.60000  7.12505e-13      34.2501
       532.70000  7.12505e-13      34.6990
       532.80000  7.12505e-13      35.0980
       532.90000  7.12505e-13      35.4614
       533.00000  7.12505e-13      35.7820
       533.10000  7.12505e-13      36.0599
       533.20000  7.12505e-13      36.2950
       533.30000  7.12505e-13      36.4874
       533.40000  7.12505e-13      36.6441
       533.50000  8.65806e-13      44.6583
       533.60000  8.65806e-13      44.3119
       533.70000  8.65806e-13      44.0089
       533.80000  8.65572e-13      43.7374
       533.90000  8.65572e-13      43.5296
       534.00000  8.65572e-13      43.3565
       534.10000  8.65572e-13      43.2440
       534.20000  8.65572e-13      43.1661
       534.30000  8.65572e-13      43.1401
       534.40000  8.65572e-13      43.1574
       534.50000  2.56104e-13      12.7873
       534.60000  2.56104e-13      12.8206
       534.70000  2.56104e-13      12.8667
       534.80000  2.56104e-13      12.9256
       534.90000  2.56104e-13      12.9998
       535.00000  2.56104e-13      13.0843
       535.10000  2.56104e-13      13.1868
       535.20000  2.56104e-13      13.2995
       535.30000  2.56104e-13      13.4275
       535.40000  2.56104e-13      13.5684
       535.50000  1.18285e-13      6.33772
       535.60000  1.18285e-13      6.28212
       535.70000  1.18285e-13      6.23126
       535.80000  1.18285e-13      6.18395
       535.90000  1.18285e-13      6.14136
       536.00000  1.18285e-13      6.10233
       536.10000  1.18285e-13      6.06684
       536.20000  1.18285e-13      6.03727
       536.30000  1.18319e-13      6.01179
       536.40000  1.18319e-13      5.98931
       536.50000  4.95488e-13      25.0073
       536.60000  4.95488e-13      25.0222
       536.70000  4.95488e-13      25.0321
       536.80000  4.95488e-13      25.0519
       536.90000  4.95488e-13      25.0668
       537.00000  4.95488e-13      25.0866
       537.10000  4.95488e-13      25.1064
       537.20000  4.95488e-13      25.1262
       537.30000  4.95488e-13      25.1510
       537.40000  4.95488e-13      25.1758
       537.50000  2.28039e-13      11.5981
       537.60000  2.28039e-13      11.6118
       537.70000  2.28039e-13      11.6255
       537.80000  2.28039e-13      11.6391
       537.90000  2.28039e-13      11.6528
       538.00000  2.28039e-13      11.6688
       538.10000  2.28039e-13      11.6847
       538.20000  2.28039e-13      11.7007
       538.30000  2.28039e-13      11.7189
       538.40000  2.28039e-13      11.7372
       538.50000  5.50751e-13      28.3912
       538.60000  5.50751e-13      28.2811
       538.70000  5.50751e-13      28.1764
       538.80000  5.50372e-13      28.0524
       538.90000  5.50372e-13      27.9479
       539.00000  5.50372e-13      27.8433
       539.10000  5.50372e-13      27.7442
       539.20000  5.50372e-13      27.6452
       539.30000  5.50372e-13      27.5461
       539.40000  5.50372e-13      27.4470
       539.50000  1.43902e-12      71.5050
       539.60000  1.43902e-12      70.9726
       539.70000  1.43902e-12      70.4977
       539.80000  1.43902e-12      70.0948
       539.90000  1.43902e-12      69.7638
       540.00000  1.43902e-12      69.4904
       540.10000  1.43902e-12      69.2889
       540.20000  1.43902e-12      69.1594
       540.30000  1.43902e-12      69.1019
       540.40000  1.43902e-12      69.1019
       540.50000  1.05112e-12      50.5274
       540.60000  1.05112e-12      51.0740
       540.70000  1.05112e-12      51.5785
       540.80000  1.05112e-12      52.0305
       540.90000  1.05112e-12      52.4300
       541.00000  1.05112e-12      52.7768
       541.10000  1.05112e-12      53.0922
       541.20000  1.05112e-12      53.3444
       541.30000  1.05110e-12      53.5534
       541.40000  1.05110e-12      53.7110
       541.50000  7.52659e-13      38.5437
       541.60000  7.52659e-13      38.3329
       541.70000  7.52659e-13      38.1523
       541.80000  7.52659e-13      37.9867
       541.90000  7.52659e-13      37.8437
       542.00000  7.52659e-13      37.7233
       542.10000  7.52659e-13      37.6254
       542.20000  7.52659e-13      37.5502
       542.30000  7.52659e-13      37.5050
       542.40000  7.52659e-13      37.4749
       542.50000  6.11426e-13      30.4368
       542.60000  6.11426e-13      30.4490
       542.70000  6.11426e-13      30.4796
       542.80000  6.11426e-13      30.5285
       542.90000  6.11426e-13      30.6019
       543.00000  6.11426e-13      30.6875
       543.10000  6.11426e-13      30.7914
       543.20000  6.11426e-13      30.9137
       543.30000  6.11426e-13      31.0543
       543.40000  6.11426e-13      31.2194
       543.50000  5.22317e-13      26.8210
       543.60000  5.22317e-13      26.8105
       543.70000  5.22317e-13      26.8053
       543.80000  5.22456e-13      26.8072
       543.90000  5.22456e-13      26.8072
       544.00000  5.22456e-13      26.8125
       544.10000  5.22456e-13      26.8177
       544.20000  5.22456e-13      26.8281
       544.30000  5.22456e-13      26.8386
       544.40000  5.22456e-13      26.8543
       544.50000  2.61019e-13      13.4268
       544.60000  2.61019e-13      13.4608
       544.70000  2.61019e-13      13.4895
       544.80000  2.61019e-13      13.5156
       544.90000  2.61019e-13      13.5391
       545.00000  2.61019e-13      13.5573
       545.10000  2.61019e-13      13.5730
       545.20000  2.61019e-13      13.5887
       545.30000  2.61019e-13      13.5991
       545.40000  2.61019e-13      13.6043
       545.50000  1.53274e-18  7.99171e-05
       545.60000  1.53274e-18  7.99171e-05
       545.70000  1.53274e-18  7.99018e-05
       545.80000  1.53274e-18  7.98711e-05
       545.90000  1.53274e-18  7.98251e-05
       546.00000  1.53274e-18  7.97638e-05
       546.10000  1.53274e-18  7.96718e-05
       546.20000  1.53274e-18  7.95645e-05
       546.30000  1.53090e-18  7.93463e-05
       546.40000  1.53090e-18  7.92085e-05
       546.50000  7.06725e-14      3.64882
       546.60000  7.06725e-14      3.63398
       546.70000  7.06725e-14      3.62055
       546.80000  7.06725e-14      3.60854
       546.90000  7.06725e-14      3.59794
       547.00000  7.06725e-14      3.58875
       547.10000  7.06725e-14      3.58168
       547.20000  7.06725e-14      3.57532
       547.30000  7.06725e-14      3.57108
       547.40000  7.06725e-14      3.56755
       547.50000  2.01367e-13      10.1610
       547.60000  2.01367e-13      10.1791
       547.70000  2.01367e-13      10.1972
       547.80000  2.01367e-13      10.2153
       547.90000  2.01367e-13      10.2335
       548.00000  2.01367e-13      10.2516
       548.10000  2.01367e-13      10.2697
       548.20000  2.01367e-13      10.2898
       548.30000  2.01367e-13      10.3080
       548.40000  2.01367e-13      10.3261
       548.50000  2.30027e-13      11.8188
       548.60000  2.30027e-13      11.8395
       548.70000  2.30027e-13      11.8625
       548.80000  2.29635e-13      11.8652
       548.90000  2.29635e-13      11.8859
       549.00000  2.29635e-13      11.9089
       549.10000  2.29635e-13      11.9318
       549.20000  2.29635e-13      11.9548
       549.30000  2.29635e-13      11.9778
       549.40000  2.29635e-13      12.0007
       549.50000  1.64033e-13      8.58879
       549.60000  1.64033e-13      8.56582
       549.70000  1.64033e-13      8.54614
       549.80000  1.64033e-13      8.52809
       549.90000  1.64033e-13      8.51169
       550.00000  1.64033e-13      8.49693
       550.10000  1.64033e-13      8.48545
       550.20000  1.64033e-13      8.47396
       550.30000  1.64033e-13      8.46576
       550.40000  1.64033e-13      8.45920
       550.50000  2.27438e-13      11.7222
       550.60000  2.27438e-13      11.7381
       550.70000  2.27438e-13      11.7540
       550.80000  2.27438e-13      11.7677
       550.90000  2.27438e-13      11.7790
       551.00000  2.27438e-13      11.7881
       551.10000  2.27438e-13      11.7950
       551.20000  2.27438e-13      11.7995
       551.30000  2.27302e-13      11.7947
       551.40000  2.27302e-13      11.7947
       551.50000  2.35474e-13      12.2164
       551.60000  2.35474e-13      12.1834
       551.70000  2.35474e-13      12.1575
       551.80000  2.35474e-13      12.1316
       551.90000  2.35474e-13      12.1128
       552.00000  2.35474e-13      12.0963
       552.10000  2.35474e-13      12.0845
       552.20000  2.35474e-13      12.0751
       552.30000  2.35474e-13      12.0704
       552.40000  2.35474e-13      12.0704
       552.50000  4.96121e-13      25.4411
       552.60000  4.96121e-13      25.5056
       552.70000  4.96121e-13      25.5701
       552.80000  4.96121e-13      25.6346
       552.90000  4.96121e-13      25.6892
       553.00000  4.96121e-13      25.7487
       553.10000  4.96121e-13      25.7983
       553.20000  4.96121e-13      25.8479
       553.30000  4.96121e-13      25.8975
       553.40000  4.96121e-13      25.9422
       553.50000  6.40687e-13      33.5528
       553.60000  6.40687e-13      33.6040
       553.70000  6.40687e-13      33.6553
       553.80000  6.40598e-13      33.6954
       553.90000  6.40598e-13      33.7339
       554.00000  6.40598e-13      33.7659
       554.10000  6.40598e-13      33.8043
       554.20000  6.40598e-13      33.8300
       554.30000  6.40598e-13      33.8556
       554.40000  6.40598e-13      33.8812
       554.50000  9.39205e-15     0.497027
       554.60000  9.39205e-15     0.497966
       554.70000  9.39205e-15     0.498718
       554.80000  9.39205e-15     0.499281
       554.90000  9.39205e-15     0.499563
       555.00000  9.39205e-15     0.499751
       555.10000  9.39205e-15     0.499751
       555.20000  9.39205e-15     0.499469
       555.30000  9.39205e-15     0.499094
       555.40000  9.39205e-15     0.498436
       555.50000  5.52032e-13      29.2467
       555.60000  5.52032e-13      29.0645
       555.70000  5.52032e-13      28.8989
       555.80000  5.52032e-13      28.7498
       555.90000  5.52032e-13      28.6118
       556.00000  5.52032e-13      28.4904
       556.10000  5.52032e-13      28.3910
       556.20000  5.52032e-13      28.2972
       556.30000  5.52340e-13      28.2411
       556.40000  5.52340e-13      28.1859
       556.50000  4.47553e-13      22.8028
       556.60000  4.47553e-13      22.7805
       556.70000  4.47553e-13      22.7715
       556.80000  4.47553e-13      22.7760
       556.90000  4.47553e-13      22.7939
       557.00000  4.47553e-13      22.8252
       557.10000  4.47553e-13      22.8655
       557.20000  4.47553e-13      22.9192
       557.30000  4.47553e-13      22.9863
       557.40000  4.47553e-13      23.0669
       557.50000  3.36749e-13      17.4234
       557.60000  3.36749e-13      17.3392
       557.70000  3.36749e-13      17.2584
       557.80000  3.36749e-13      17.1877
       557.90000  3.36749e-13      17.1237
       558.00000  3.36749e-13      17.0665
       558.10000  3.36749e-13      17.0193
       558.20000  3.36749e-13      16.9755
       558.30000  3.36749e-13      16.9419
       558.40000  3.36749e-13      16.9183
       558.50000  6.95626e-13      34.9065
       558.60000  6.95626e-13      34.9413
       558.70000  6.95626e-13      34.9761
       558.80000  6.95020e-13      34.9873
       558.90000  6.95020e-13      35.0290
       559.00000  6.95020e-13      35.0777
       559.10000  6.95020e-13      35.1263
       559.20000  6.95020e-13      35.1819
       559.30000  6.95020e-13      35.2306
       559.40000  6.95020e-13      35.2931
       559.50000  4.86253e-13      24.7308
       559.60000  4.86253e-13      24.7746
       559.70000  4.86253e-13      24.8184
       559.80000  4.86253e-13      24.8670
       559.90000  4.86253e-13      24.9156
       560.00000  4.86253e-13      24.9691
       560.10000  4.86253e-13      25.0226
       560.20000  4.86253e-13      25.0761
       560.30000  4.86253e-13      25.1344
       560.40000  4.86253e-13      25.1928
       560.50000  2.53884e-13      13.1867
       560.60000  2.53884e-13      13.1614
       560.70000  2.53884e-13      13.1385
       560.80000  2.53884e-13      13.1182
       560.90000  2.53884e-13      13.1030
       561.00000  2.53884e-13      13.0903
       561.10000  2.53884e-13      13.0801
       561.20000  2.53884e-13      13.0725
       561.30000  2.54032e-13      13.0776
       561.40000  2.54032e-13      13.0776
       561.50000  3.52793e-13      18.1689
       561.60000  3.52793e-13      18.2041
       561.70000  3.52793e-13      18.2359
       561.80000  3.52793e-13      18.2712
       561.90000  3.52793e-13      18.3029
       562.00000  3.52793e-13      18.3311
       562.10000  3.52793e-13      18.3594
       562.20000  3.52793e-13      18.3876
       562.30000  3.52793e-13      18.4123
       562.40000  3.52793e-13      18.4370
       562.50000  4.39953e-13      23.0183
       562.60000  4.39953e-13      23.0447
       562.70000  4.39953e-13      23.0711
       562.80000  4.39953e-13      23.0931
       562.90000  4.39953e-13      23.1107
       563.00000  4.39953e-13      23.1327
       563.10000  4.39953e-13      23.1503
       563.20000  4.39953e-13      23.1635
       563.30000  4.39953e-13      23.1767
       563.40000  4.39953e-13      23.1855
       563.50000  8.53926e-13      45.0275
       563.60000  8.53926e-13      45.0702
       563.70000  8.53926e-13      45.1044
       563.80000  8.53254e-13      45.0859
       563.90000  8.53254e-13      45.0945
       564.00000  8.53254e-13      45.0945
       564.10000  8.53254e-13      45.0774
       564.20000  8.53254e-13      45.0518
       564.30000  8.53254e-13      45.0091
       564.40000  8.53254e-13      44.9579
       564.50000  1.60397e-14     0.844010
       564.60000  1.60397e-14     0.839839
       564.70000  1.60397e-14     0.835990
       564.80000  1.60397e-14     0.832621
       564.90000  1.60397e-14     0.829574
       565.00000  1.60397e-14     0.827007
       565.10000  1.60397e-14     0.824762
       565.20000  1.60397e-14     0.822998
       565.30000  1.60397e-14     0.821554
       565.40000  1.60397e-14     0.820592
       565.50000  9.03037e-13      46.1632
       565.60000  9.03037e-13      46.1542
       565.70000  9.03037e-13      46.1632
       565.80000  9.03037e-13      46.1903
       565.90000  9.03037e-13      46.2445
       566.00000  9.03037e-13      46.3258
       566.10000  9.03037e-13      46.4251
       566.20000  9.03037e-13      46.5425
       566.30000  9.01955e-13      46.6311
       566.40000  9.01955e-13      46.8024
       566.50000  3.12038e-13      16.2572
       566.60000  3.12038e-13      16.3633
       566.70000  3.12038e-13      16.4600
       566.80000  3.12038e-13      16.5442
       566.90000  3.12038e-13      16.6191
       567.00000  3.12038e-13      16.6784
       567.10000  3.12038e-13      16.7283
       567.20000  3.12038e-13      16.7627
       567.30000  3.12038e-13      16.7876
       567.40000  3.12038e-13      16.8001
       567.50000  2.04329e-12      110.011
       567.60000  2.04329e-12      109.255
       567.70000  2.04329e-12      108.560
       567.80000  2.04329e-12      107.947
       567.90000  2.04329e-12      107.395
       568.00000  2.04329e-12      106.946
       568.10000  2.04329e-12      106.537
       568.20000  2.04329e-12      106.231
       568.30000  2.04329e-12      105.985
       568.40000  2.04329e-12      105.802
       568.50000  2.16736e-13      11.2139
       568.60000  2.16736e-13      11.2096
       568.70000  2.16736e-13      11.2161
       568.80000  2.16548e-13      11.2193
       568.90000  2.16548e-13      11.2410
       569.00000  2.16548e-13      11.2691
       569.10000  2.16548e-13      11.3060
       569.20000  2.16548e-13      11.3514
       569.30000  2.16548e-13      11.4034
       569.40000  2.16548e-13      11.4640
       569.50000  1.69138e-12      90.0830
       569.60000  1.69138e-12      89.3388
       569.70000  1.69138e-12      88.6622
       569.80000  1.69138e-12      88.0703
       569.90000  1.69138e-12      87.5290
       570.00000  1.69138e-12      87.0723
       570.10000  1.69138e-12      86.6833
       570.20000  1.69138e-12      86.3620
       570.30000  1.69138e-12      86.1083
       570.40000  1.69138e-12      85.9391
       570.50000  2.34677e-12      119.075
       570.60000  2.34677e-12      119.427
       570.70000  2.34677e-12      119.779
       570.80000  2.34677e-12      120.131
       570.90000  2.34677e-12      120.507
       571.00000  2.34677e-12      120.882
       571.10000  2.34677e-12      121.258
       571.20000  2.34677e-12      121.657
       571.30000  2.34695e-12      122.088
       571.40000  2.34695e-12      122.511
       571.50000  8.08329e-13      42.3403
       571.60000  8.08329e-13      42.4939
       571.70000  8.08329e-13      42.6475
       571.80000  8.08329e-13      42.8091
       571.90000  8.08329e-13      42.9708
       572.00000  8.08329e-13      43.1405
       572.10000  8.08329e-13      43.3103
       572.20000  8.08329e-13      43.4800
       572.30000  8.08329e-13      43.6579
       572.40000  8.08329e-13      43.8357
       572.50000  1.75260e-12      95.4468
       572.60000  1.75260e-12      95.3767
       572.70000  1.75260e-12      95.2891
       572.80000  1.75260e-12      95.2190
       572.90000  1.75260e-12      95.1489
       573.00000  1.75260e-12      95.0788
       573.10000  1.75260e-12      95.0262
       573.20000  1.75260e-12      94.9561
       573.30000  1.75260e-12      94.9035
       573.40000  1.75260e-12      94.8510
       573.50000  2.91484e-12      157.664
       573.60000  2.91484e-12      157.722
       573.70000  2.91484e-12      157.781
       573.80000  2.91810e-12      157.957
       573.90000  2.91810e-12      157.957
       574.00000  2.91810e-12      157.898
       574.10000  2.91810e-12      157.840
       574.20000  2.91810e-12      157.752
       574.30000  2.91810e-12      157.665
       574.40000  2.91810e-12      157.519
       574.50000  1.36136e-12      73.4180
       574.60000  1.36136e-12      73.1865
       574.70000  1.36136e-12      72.9823
       574.80000  1.36136e-12      72.7917
       574.90000  1.36136e-12      72.6284
       575.00000  1.36136e-12      72.4922
       575.10000  1.36136e-12      72.3697
       575.20000  1.36136e-12      72.2608
       575.30000  1.36136e-12      72.1791
       575.40000  1.36136e-12      72.1247
       575.50000  2.77541e-12      146.958
       575.60000  2.77541e-12      147.125
       575.70000  2.77541e-12      147.291
       575.80000  2.77541e-12      147.458
       575.90000  2.77541e-12      147.624
       576.00000  2.77541e-12      147.791
       576.10000  2.77541e-12      147.929
       576.20000  2.77541e-12      148.096
       576.30000  2.77460e-12      148.191
       576.40000  2.77460e-12      148.330
       576.50000  4.67434e-12      250.124
       576.60000  4.67434e-12      250.357
       576.70000  4.67434e-12      250.544
       576.80000  4.67434e-12      250.778
       576.90000  4.67434e-12      250.965
       577.00000  4.67434e-12      251.152
       577.10000  4.67434e-12      251.339
       577.20000  4.67434e-12      251.526
       577.30000  4.67434e-12      251.713
       577.40000  4.67434e-12      251.900
       577.50000  1.88624e-11      1017.06
       577.60000  1.88624e-11      1010.27
       577.70000  1.88624e-11      1004.04
       577.80000  1.88624e-11      998.574
       577.90000  1.88624e-11      993.670
       578.00000  1.88624e-11      989.520
       578.10000  1.88624e-11      985.936
       578.20000  1.88624e-11      983.107
       578.30000  1.88624e-11      980.844
       578.40000  1.88624e-11      979.146
       578.50000  2.35771e-11      1222.71
       578.60000  2.35771e-11      1227.19
       578.70000  2.35771e-11      1231.20
       578.80000  2.35473e-11      1233.64
       578.90000  2.35473e-11      1237.17
       579.00000  2.35473e-11      1240.71
       579.10000  2.35473e-11      1243.77
       579.20000  2.35473e-11      1246.83
       579.30000  2.35473e-11      1249.42
       579.40000  2.35473e-11      1252.01
       579.50000  2.78718e-11      1484.45
       579.60000  2.78718e-11      1486.96
       579.70000  2.78718e-11      1488.91
       579.80000  2.78718e-11      1490.58
       579.90000  2.78718e-11      1492.25
       580.00000  2.78718e-11      1493.37
       580.10000  2.78718e-11      1494.20
       580.20000  2.78718e-11      1495.04
       580.30000  2.78718e-11      1495.32
       580.40000  2.78718e-11      1495.32
       580.50000  1.30340e-11      699.273
       580.60000  1.30340e-11      699.795
       580.70000  1.30340e-11      700.446
       580.80000  1.30340e-11      701.098
       580.90000  1.30340e-11      701.750
       581.00000  1.30340e-11      702.401
       581.10000  1.30340e-11      703.183
       581.20000  1.30340e-11      703.835
       581.30000  1.30181e-11      703.760
       581.40000  1.30181e-11      704.541
       581.50000  3.31435e-11      1795.72
       581.60000  3.31435e-11      1799.36
       581.70000  3.31435e-11      1803.01
       581.80000  3.31435e-11      1805.99
       581.90000  3.31435e-11      1808.64
       582.00000  3.31435e-11      1811.29
       582.10000  3.31435e-11      1813.28
       582.20000  3.31435e-11      1814.94
       582.30000  3.31435e-11      1816.27
       582.40000  3.31435e-11      1817.26
       582.50000  7.36056e-11      4037.27
       582.60000  7.36056e-11      4038.01
       582.70000  7.36056e-11      4038.01
       582.80000  7.36056e-11      4037.27
       582.90000  7.36056e-11      4035.80
       583.00000  7.36056e-11      4033.59
       583.10000  7.36056e-11      4030.65
       583.20000  7.36056e-11      4026.23
       583.30000  7.36056e-11      4021.81
       583.40000  7.36056e-11      4015.92
       583.50000  1.18517e-10      6456.82
       583.60000  1.18517e-10      6471.04
       583.70000  1.18517e-10      6482.89
       583.80000  1.18261e-10      6478.36
       583.90000  1.18261e-10      6485.45
       584.00000  1.18261e-10      6489.00
       584.10000  1.18261e-10      6489.00
       584.20000  1.18261e-10      6486.63
       584.30000  1.18261e-10      6481.90
       584.40000  1.18261e-10      6474.81
       584.50000  2.94769e-11      1611.21
       584.60000  2.94769e-11      1600.01
       584.70000  2.94769e-11      1589.99
       584.80000  2.94769e-11      1580.85
       584.90000  2.94769e-11      1572.89
       585.00000  2.94769e-11      1565.82
       585.10000  2.94769e-11      1559.92
       585.20000  2.94769e-11      1555.20
       585.30000  2.94769e-11      1551.37
       585.40000  2.94769e-11      1548.72
       585.50000  6.37193e-11      3344.62
       585.60000  6.37193e-11      3343.35
       585.70000  6.37193e-11      3344.62
       585.80000  6.37193e-11      3348.45
       585.90000  6.37193e-11      3354.18
       586.00000  6.37193e-11      3362.46
       586.10000  6.37193e-11      3373.30
       586.20000  6.37193e-11      3386.04
       586.30000  6.36522e-11      3397.76
       586.40000  6.36522e-11      3414.94
       586.50000  2.19598e-10      11849.5
       586.60000  2.19598e-10      11897.8
       586.70000  2.19598e-10      11937.4
       586.80000  2.19598e-10      11970.3
       586.90000  2.19598e-10      11996.6
       587.00000  2.19598e-10      12012.0
       587.10000  2.19598e-10      12023.0
       587.20000  2.19598e-10      12025.2
       587.30000  2.19598e-10      12020.8
       587.40000  2.19598e-10      12007.6
       587.50000  2.08960e-10      11407.1
       587.60000  2.08960e-10      11359.1
       587.70000  2.08960e-10      11308.9
       587.80000  2.08960e-10      11256.7
       587.90000  2.08960e-10      11202.4
       588.00000  2.08960e-10      11143.9
       588.10000  2.08960e-10      11085.4
       588.20000  2.08960e-10      11022.7
       588.30000  2.08960e-10      10957.9
       588.40000  2.08960e-10      10891.0
       588.50000  3.54351e-10      18348.3
       588.60000  3.54351e-10      18224.3
       588.70000  3.54351e-10      18100.3
       588.80000  3.53707e-10      17936.5
       588.90000  3.53707e-10      17798.5
       589.00000  3.53707e-10      17660.6
       589.10000  3.53707e-10      17515.6
       589.20000  3.53707e-10      17370.6
       589.30000  3.53707e-10      17214.9
       589.40000  3.53707e-10      17059.3
       589.50000  5.99224e-10      28630.9
       589.60000  5.99224e-10      29176.2
       589.70000  5.99224e-10      29679.6
       589.80000  5.99224e-10      30141.0
       589.90000  5.99224e-10      30566.4
       590.00000  5.99224e-10      30943.9
       590.10000  5.99224e-10      31291.5
       590.20000  5.99224e-10      31591.1
       590.30000  5.99224e-10      31854.7
       590.40000  5.99224e-10      32076.5
       590.50000  5.59728e-10      30130.2
       590.60000  5.59728e-10      30057.4
       590.70000  5.59728e-10      29990.2
       590.80000  5.59728e-10      29934.2
       590.90000  5.59728e-10      29883.9
       591.00000  5.59728e-10      29839.1
       591.10000  5.59728e-10      29805.5
       591.20000  5.59728e-10      29777.5
       591.30000  5.59662e-10      29757.2
       591.40000  5.59662e-10      29746.0
       591.50000  3.08682e-09      164033.
       591.60000  3.08682e-09      164064.
       591.70000  3.08682e-09      164157.
       591.80000  3.08682e-09      164249.
       591.90000  3.08682e-09      164404.
       592.00000  3.08682e-09      164620.
       592.10000  3.08682e-09      164867.
       592.20000  3.08682e-09      165145.
       592.30000  3.08682e-09      165484.
       592.40000  3.08682e-09      165855.
       592.50000  4.99043e-09      268784.
       592.60000  4.99043e-09      268734.
       592.70000  4.99043e-09      268635.
       592.80000  4.99043e-09      268585.
       592.90000  4.99043e-09      268435.
       593.00000  4.99043e-09      268335.
       593.10000  4.99043e-09      268186.
       593.20000  4.99043e-09      268036.
       593.30000  4.99043e-09      267836.
       593.40000  4.99043e-09      267687.
       593.50000  5.69038e-09      304947.
       593.60000  5.69038e-09      304378.
       593.70000  5.69038e-09      303866.
       593.80000  5.68894e-09      303277.
       593.90000  5.68894e-09      302879.
       594.00000  5.68894e-09      302538.
       594.10000  5.68894e-09      302196.
       594.20000  5.68894e-09      301912.
       594.30000  5.68894e-09      301741.
       594.40000  5.68894e-09      301571.
       594.50000  3.89389e-10      20637.6
       594.60000  3.89389e-10      20633.7
       594.70000  3.89389e-10      20633.7
       594.80000  3.89389e-10      20637.6
       594.90000  3.89389e-10      20645.4
       595.00000  3.89389e-10      20661.0
       595.10000  3.89389e-10      20676.6
       595.20000  3.89389e-10      20696.0
       595.30000  3.89389e-10      20719.4
       595.40000  3.89389e-10      20746.6
       595.50000  3.41883e-08  1.82395e+06
       595.60000  3.41883e-08  1.82907e+06
       595.70000  3.41883e-08  1.83352e+06
       595.80000  3.41883e-08  1.83728e+06
       595.90000  3.41883e-08  1.84070e+06
       596.00000  3.41883e-08  1.84343e+06
       596.10000  3.41883e-08  1.84617e+06
       596.20000  3.41883e-08  1.84788e+06
       596.30000  3.42379e-08  1.85193e+06
       596.40000  3.42379e-08  1.85296e+06
       596.50000  1.02081e-07  5.52565e+06
       596.60000  1.02081e-07  5.51953e+06
       596.70000  1.02081e-07  5.51238e+06
       596.80000  1.02081e-07  5.50524e+06
       596.90000  1.02081e-07  5.49809e+06
       597.00000  1.02081e-07  5.49197e+06
       597.10000  1.02081e-07  5.48482e+06
       597.20000  1.02081e-07  5.47870e+06
       597.30000  1.02081e-07  5.47155e+06
       597.40000  1.02081e-07  5.46543e+06
       597.50000  6.69906e-08  3.58199e+06
       597.60000  6.69906e-08  3.57462e+06
       597.70000  6.69906e-08  3.56792e+06
       597.80000  6.69906e-08  3.56189e+06
       597.90000  6.69906e-08  3.55653e+06
       598.00000  6.69906e-08  3.55184e+06
       598.10000  6.69906e-08  3.54849e+06
       598.20000  6.69906e-08  3.54581e+06
       598.30000  6.69906e-08  3.54380e+06
       598.40000  6.69906e-08  3.54246e+06
       598.50000  9.11922e-08  4.82133e+06
       598.60000  9.11922e-08  4.83228e+06
       598.70000  9.11922e-08  4.84231e+06
       598.80000  9.12829e-08  4.85534e+06
       598.90000  9.12829e-08  4.86264e+06
       599.00000  9.12829e-08  4.86903e+06
       599.10000  9.12829e-08  4.87360e+06
       599.20000  9.12829e-08  4.87725e+06
       599.30000  9.12829e-08  4.87998e+06
       599.40000  9.12829e-08  4.88090e+06
       599.50000  1.20573e-07  6.44702e+06
       599.60000  1.20573e-07  6.44581e+06
       599.70000  1.20573e-07  6.44219e+06
       599.80000  1.20573e-07  6.43737e+06
       599.90000  1.20573e-07  6.43014e+06
       600.00000  1.20573e-07  6.42170e+06
       600.10000  1.20573e-07  6.41205e+06
       600.20000  1.20573e-07  6.40120e+06
       600.30000  1.20573e-07  6.38794e+06
       600.40000  1.20573e-07  6.37226e+06
       600.50000  3.74482e-07  1.97427e+07
       600.60000  3.74482e-07  1.97689e+07
       600.70000  3.74482e-07  1.97914e+07
       600.80000  3.74482e-07  1.98139e+07
       600.90000  3.74482e-07  1.98288e+07
       601.00000  3.74482e-07  1.98401e+07
       601.10000  3.74482e-07  1.98438e+07
       601.20000  3.74482e-07  1.98476e+07
       601.30000  3.74433e-07  1.98450e+07
       601.40000  3.74433e-07  1.98375e+07
       601.50000  2.74911e-07  1.45593e+07
       601.60000  2.74911e-07  1.44960e+07
       601.70000  2.74911e-07  1.44438e+07
       601.80000  2.74911e-07  1.43971e+07
       601.90000  2.74911e-07  1.43613e+07
       602.00000  2.74911e-07  1.43338e+07
       602.10000  2.74911e-07  1.43118e+07
       602.20000  2.74911e-07  1.43009e+07
       602.30000  2.74911e-07  1.42981e+07
       602.40000  2.74911e-07  1.43036e+07
       602.50000  2.72458e-07  1.41869e+07
       602.60000  2.72458e-07  1.42087e+07
       602.70000  2.72458e-07  1.42387e+07
       602.80000  2.72458e-07  1.42768e+07
       602.90000  2.72458e-07  1.43231e+07
       603.00000  2.72458e-07  1.43776e+07
       603.10000  2.72458e-07  1.44403e+07
       603.20000  2.72458e-07  1.45111e+07
       603.30000  2.72458e-07  1.45901e+07
       603.40000  2.72458e-07  1.46773e+07
       603.50000  7.12229e-08  3.86171e+06
       603.60000  7.12229e-08  3.86028e+06
       603.70000  7.12229e-08  3.85886e+06
       603.80000  7.11927e-08  3.85580e+06
       603.90000  7.11927e-08  3.85366e+06
       604.00000  7.11927e-08  3.85224e+06
       604.10000  7.11927e-08  3.85010e+06
       604.20000  7.11927e-08  3.84868e+06
       604.30000  7.11927e-08  3.84654e+06
       604.40000  7.11927e-08  3.84512e+06
       604.50000  2.42132e-07  1.30703e+07
       604.60000  2.42132e-07  1.30606e+07
       604.70000  2.42132e-07  1.30509e+07
       604.80000  2.42132e-07  1.30412e+07
       604.90000  2.42132e-07  1.30315e+07
       605.00000  2.42132e-07  1.30243e+07
       605.10000  2.42132e-07  1.30170e+07
       605.20000  2.42132e-07  1.30122e+07
       605.30000  2.42132e-07  1.30049e+07
       605.40000  2.42132e-07  1.30001e+07
       605.50000  1.98545e-07  1.06559e+07
       605.60000  1.98545e-07  1.06539e+07
       605.70000  1.98545e-07  1.06499e+07
       605.80000  1.98545e-07  1.06480e+07
       605.90000  1.98545e-07  1.06480e+07
       606.00000  1.98545e-07  1.06460e+07
       606.10000  1.98545e-07  1.06460e+07
       606.20000  1.98545e-07  1.06460e+07
       606.30000  1.98550e-07  1.06463e+07
       606.40000  1.98550e-07  1.06482e+07
       606.50000  9.42161e-09      505375.
       606.60000  9.42161e-09      505564.
       606.70000  9.42161e-09      505658.
       606.80000  9.42161e-09      505846.
       606.90000  9.42161e-09      505846.
       607.00000  9.42161e-09      505941.
       607.10000  9.42161e-09      505941.
       607.20000  9.42161e-09      505941.
       607.30000  9.42161e-09      505846.
       607.40000  9.42161e-09      505752.
       607.50000  2.38671e-08  1.28095e+06
       607.60000  2.38671e-08  1.27951e+06
       607.70000  2.38671e-08  1.27832e+06
       607.80000  2.38671e-08  1.27737e+06
       607.90000  2.38671e-08  1.27641e+06
       608.00000  2.38671e-08  1.27546e+06
       608.10000  2.38671e-08  1.27474e+06
       608.20000  2.38671e-08  1.27402e+06
       608.30000  2.38671e-08  1.27355e+06
       608.40000  2.38671e-08  1.27307e+06
       608.50000  2.60535e-08  1.38943e+06
       608.60000  2.60535e-08  1.38917e+06
       608.70000  2.60535e-08  1.38891e+06
       608.80000  2.60479e-08  1.38861e+06
       608.90000  2.60479e-08  1.38887e+06
       609.00000  2.60479e-08  1.38914e+06
       609.10000  2.60479e-08  1.38940e+06
       609.20000  2.60479e-08  1.38992e+06
       609.30000  2.60479e-08  1.39044e+06
       609.40000  2.60479e-08  1.39122e+06
       609.50000  1.20108e-08      641979.
       609.60000  1.20108e-08      639096.
       609.70000  1.20108e-08      636574.
       609.80000  1.20108e-08      634412.
       609.90000  1.20108e-08      632610.
       610.00000  1.20108e-08      631049.
       610.10000  1.20108e-08      629728.
       610.20000  1.20108e-08      628767.
       610.30000  1.20108e-08      628166.
       610.40000  1.20108e-08      627926.
       610.50000  2.70999e-09      141651.
       610.60000  2.70999e-09      142356.
       610.70000  2.70999e-09      142979.
       610.80000  2.70999e-09      143548.
       610.90000  2.70999e-09      144036.
       611.00000  2.70999e-09      144443.
       611.10000  2.70999e-09      144795.
       611.20000  2.70999e-09      145066.
       611.30000  2.71000e-09      145283.
       611.40000  2.71000e-09      145419.
       611.50000  1.17636e-09      63146.9
       611.60000  1.17636e-09      63146.9
       611.70000  1.17636e-09      63111.6
       611.80000  1.17636e-09      63052.8
       611.90000  1.17636e-09      62958.6
       612.00000  1.17636e-09      62841.0
       612.10000  1.17636e-09      62688.1
       612.20000  1.17636e-09      62499.9
       612.30000  1.17636e-09      62288.1
       612.40000  1.17636e-09      62041.1
       612.50000  1.36224e-09      71531.2
       612.60000  1.36224e-09      71354.1
       612.70000  1.36224e-09      71190.6
       612.80000  1.36224e-09      71054.4
       612.90000  1.36224e-09      70945.4
       613.00000  1.36224e-09      70850.1
       613.10000  1.36224e-09      70781.9
       613.20000  1.36224e-09      70727.5
       613.30000  1.36224e-09      70700.2
       613.40000  1.36224e-09      70700.2
       613.50000  1.60426e-09      83277.1
       613.60000  1.60426e-09      83517.7
       613.70000  1.60426e-09      83726.3
       613.80000  1.60251e-09      83827.1
       613.90000  1.60251e-09      84019.4
       614.00000  1.60251e-09      84195.7
       614.10000  1.60251e-09      84339.9
       614.20000  1.60251e-09      84484.1
       614.30000  1.60251e-09      84612.3
       614.40000  1.60251e-09      84724.5
       614.50000  6.54357e-10      34635.1
       614.60000  6.54357e-10      34667.9
       614.70000  6.54357e-10      34694.0
       614.80000  6.54357e-10      34713.7
       614.90000  6.54357e-10      34726.8
       615.00000  6.54357e-10      34733.3
       615.10000  6.54357e-10      34739.8
       615.20000  6.54357e-10      34733.3
       615.30000  6.54357e-10      34726.8
       615.40000  6.54357e-10      34713.7
       615.50000  4.10607e-10      21766.3
       615.60000  4.10607e-10      21524.0
       615.70000  4.10607e-10      21302.3
       615.80000  4.10607e-10      21109.3
       615.90000  4.10607e-10      20945.1
       616.00000  4.10607e-10      20801.3
       616.10000  4.10607e-10      20686.4
       616.20000  4.10607e-10      20596.0
       616.30000  4.10665e-10      20533.3
       616.40000  4.10665e-10      20496.3
       616.50000  2.64764e-10      13203.8
       616.60000  2.64764e-10      13317.6
       616.70000  2.64764e-10      13423.5
       616.80000  2.64764e-10      13521.5
       616.90000  2.64764e-10      13614.2
       617.00000  2.64764e-10      13701.5
       617.10000  2.64764e-10      13781.0
       617.20000  2.64764e-10      13852.5
       617.30000  2.64764e-10      13918.6
       617.40000  2.64764e-10      13979.5
       617.50000  3.75711e-10      19912.7
       617.60000  3.75711e-10      19976.6
       617.70000  3.75711e-10      20032.9
       617.80000  3.75711e-10      20081.8
       617.90000  3.75711e-10      20115.6
       618.00000  3.75711e-10      20145.6
       618.10000  3.75711e-10      20164.4
       618.20000  3.75711e-10      20171.9
       618.30000  3.75711e-10      20171.9
       618.40000  3.75711e-10      20160.7
       618.50000  1.89621e-15     0.101656
       618.60000  1.89621e-15     0.101466
       618.70000  1.89621e-15     0.101276
       618.80000  1.89430e-15     0.101042
       618.90000  1.89430e-15     0.100909
       619.00000  1.89430e-15     0.100815
