PDS_VERSION_ID         = PDS3
RECORD_TYPE            = STREAM
OBJECT                 = TEXT
  PUBLICATION_DATE     = 2014-04-25
  INTERCHANGE_FORMAT   = ASCII
  NOTE                 = "System transmission vs. wavelength."
END_OBJECT             = TEXT
END
    
The systrans directory contains the non-wavelength-integrated system 
transmission values (QE*optics*filter1*filter2) for each filter combination. 
The naming convention for these files is as follows:

<camera><filter 1><filter 2>_systrans.tab

where <camera> is "issna" or "isswa," and <filter 1> and <filter 2> represent
the filter names. For polarized filter combinations, values are given for the
parallel orientation of the filter (full transmission), with values for the 
perpendicular (blocking) orientation provided in files with subscript 
"_b_systrans.tab". 

Columns in systrans files are as follows:

 1st column: Wavelength (nm)  
 2nd column: Transmitted Flux
 3rd column: Transmitted Flux * Solar Flux (phot per cm^2-s-angstrom at 1 AU)

The solar spectrum used for this calculation is provided in solarflux.tab.

\begindata
       600.00000  1.18821e-06  6.32840e+07
       600.10000  1.18821e-06  6.31890e+07
       600.20000  1.18821e-06  6.30820e+07
       600.30000  1.18821e-06  6.29513e+07
       600.40000  1.18821e-06  6.27969e+07
       600.50000  8.89398e-07  4.68890e+07
       600.60000  8.89398e-07  4.69513e+07
       600.70000  8.89398e-07  4.70047e+07
       600.80000  8.89398e-07  4.70580e+07
       600.90000  8.89398e-07  4.70936e+07
       601.00000  8.89398e-07  4.71203e+07
       601.10000  8.89398e-07  4.71292e+07
       601.20000  8.89398e-07  4.71381e+07
       601.30000  8.89281e-07  4.71319e+07
       601.40000  8.89281e-07  4.71141e+07
       601.50000  6.55529e-07  3.47168e+07
       601.60000  6.55529e-07  3.45661e+07
       601.70000  6.55529e-07  3.44415e+07
       601.80000  6.55529e-07  3.43301e+07
       601.90000  6.55529e-07  3.42449e+07
       602.00000  6.55529e-07  3.41793e+07
       602.10000  6.55529e-07  3.41269e+07
       602.20000  6.55529e-07  3.41006e+07
       602.30000  6.55529e-07  3.40941e+07
       602.40000  6.55529e-07  3.41072e+07
       602.50000  4.48317e-07  2.33439e+07
       602.60000  4.48317e-07  2.33797e+07
       602.70000  4.48317e-07  2.34291e+07
       602.80000  4.48317e-07  2.34918e+07
       602.90000  4.48317e-07  2.35680e+07
       603.00000  4.48317e-07  2.36577e+07
       603.10000  4.48317e-07  2.37608e+07
       603.20000  4.48317e-07  2.38774e+07
       603.30000  4.48317e-07  2.40074e+07
       603.40000  4.48317e-07  2.41509e+07
       603.50000  1.26434e-07  6.85526e+06
       603.60000  1.26434e-07  6.85273e+06
       603.70000  1.26434e-07  6.85020e+06
       603.80000  1.26380e-07  6.84476e+06
       603.90000  1.26380e-07  6.84097e+06
       604.00000  1.26380e-07  6.83844e+06
       604.10000  1.26380e-07  6.83465e+06
       604.20000  1.26380e-07  6.83212e+06
       604.30000  1.26380e-07  6.82833e+06
       604.40000  1.26380e-07  6.82580e+06
       604.50000  7.14150e-08  3.85498e+06
       604.60000  7.14150e-08  3.85213e+06
       604.70000  7.14150e-08  3.84927e+06
       604.80000  7.14150e-08  3.84641e+06
       604.90000  7.14150e-08  3.84356e+06
       605.00000  7.14150e-08  3.84141e+06
       605.10000  7.14150e-08  3.83927e+06
       605.20000  7.14150e-08  3.83784e+06
       605.30000  7.14150e-08  3.83570e+06
       605.40000  7.14150e-08  3.83427e+06
       605.50000  1.51078e-07  8.10837e+06
       605.60000  1.51078e-07  8.10686e+06
       605.70000  1.51078e-07  8.10384e+06
       605.80000  1.51078e-07  8.10233e+06
       605.90000  1.51078e-07  8.10233e+06
       606.00000  1.51078e-07  8.10082e+06
       606.10000  1.51078e-07  8.10082e+06
       606.20000  1.51078e-07  8.10082e+06
       606.30000  1.51082e-07  8.10104e+06
       606.40000  1.51082e-07  8.10255e+06
       606.50000  9.80530e-08  5.25956e+06
       606.60000  9.80530e-08  5.26153e+06
       606.70000  9.80530e-08  5.26251e+06
       606.80000  9.80530e-08  5.26447e+06
       606.90000  9.80530e-08  5.26447e+06
       607.00000  9.80530e-08  5.26545e+06
       607.10000  9.80530e-08  5.26545e+06
       607.20000  9.80530e-08  5.26545e+06
       607.30000  9.80530e-08  5.26447e+06
       607.40000  9.80530e-08  5.26349e+06
       607.50000  4.64432e-08  2.49261e+06
       607.60000  4.64432e-08  2.48982e+06
       607.70000  4.64432e-08  2.48750e+06
       607.80000  4.64432e-08  2.48564e+06
       607.90000  4.64432e-08  2.48378e+06
       608.00000  4.64432e-08  2.48192e+06
       608.10000  4.64432e-08  2.48053e+06
       608.20000  4.64432e-08  2.47914e+06
       608.30000  4.64432e-08  2.47821e+06
       608.40000  4.64432e-08  2.47728e+06
       608.50000  5.02729e-08  2.68106e+06
       608.60000  5.02729e-08  2.68055e+06
       608.70000  5.02729e-08  2.68005e+06
       608.80000  5.02621e-08  2.67947e+06
       608.90000  5.02621e-08  2.67998e+06
       609.00000  5.02621e-08  2.68048e+06
       609.10000  5.02621e-08  2.68098e+06
       609.20000  5.02621e-08  2.68199e+06
       609.30000  5.02621e-08  2.68299e+06
       609.40000  5.02621e-08  2.68450e+06
       609.50000  7.14788e-08  3.82054e+06
       609.60000  7.14788e-08  3.80339e+06
       609.70000  7.14788e-08  3.78837e+06
       609.80000  7.14788e-08  3.77551e+06
       609.90000  7.14788e-08  3.76479e+06
       610.00000  7.14788e-08  3.75549e+06
       610.10000  7.14788e-08  3.74763e+06
       610.20000  7.14788e-08  3.74191e+06
       610.30000  7.14788e-08  3.73834e+06
       610.40000  7.14788e-08  3.73691e+06
       610.50000  3.96730e-08  2.07371e+06
       610.60000  3.96730e-08  2.08402e+06
       610.70000  3.96730e-08  2.09315e+06
       610.80000  3.96730e-08  2.10148e+06
       610.90000  3.96730e-08  2.10862e+06
       611.00000  3.96730e-08  2.11457e+06
       611.10000  3.96730e-08  2.11973e+06
       611.20000  3.96730e-08  2.12370e+06
       611.30000  3.96731e-08  2.12688e+06
       611.40000  3.96731e-08  2.12886e+06
       611.50000  6.06461e-08  3.25548e+06
       611.60000  6.06461e-08  3.25548e+06
       611.70000  6.06461e-08  3.25367e+06
       611.80000  6.06461e-08  3.25063e+06
       611.90000  6.06461e-08  3.24578e+06
       612.00000  6.06461e-08  3.23972e+06
       612.10000  6.06461e-08  3.23183e+06
       612.20000  6.06461e-08  3.22213e+06
       612.30000  6.06461e-08  3.21121e+06
       612.40000  6.06461e-08  3.19848e+06
       612.50000  1.20540e-07  6.32954e+06
       612.60000  1.20540e-07  6.31387e+06
       612.70000  1.20540e-07  6.29940e+06
       612.80000  1.20540e-07  6.28735e+06
       612.90000  1.20540e-07  6.27770e+06
       613.00000  1.20540e-07  6.26927e+06
       613.10000  1.20540e-07  6.26324e+06
       613.20000  1.20540e-07  6.25842e+06
       613.30000  1.20540e-07  6.25601e+06
       613.40000  1.20540e-07  6.25601e+06
       613.50000  1.36491e-07  7.08527e+06
       613.60000  1.36491e-07  7.10574e+06
       613.70000  1.36491e-07  7.12349e+06
       613.80000  1.36342e-07  7.13207e+06
       613.90000  1.36342e-07  7.14843e+06
       614.00000  1.36342e-07  7.16343e+06
       614.10000  1.36342e-07  7.17570e+06
       614.20000  1.36342e-07  7.18797e+06
       614.30000  1.36342e-07  7.19887e+06
       614.40000  1.36342e-07  7.20842e+06
       614.50000  1.23486e-08      653613.
       614.60000  1.23486e-08      654231.
       614.70000  1.23486e-08      654725.
       614.80000  1.23486e-08      655095.
       614.90000  1.23486e-08      655342.
       615.00000  1.23486e-08      655466.
       615.10000  1.23486e-08      655589.
       615.20000  1.23486e-08      655466.
       615.30000  1.23486e-08      655342.
       615.40000  1.23486e-08      655095.
       615.50000  2.39559e-08  1.26990e+06
       615.60000  2.39559e-08  1.25577e+06
       615.70000  2.39559e-08  1.24283e+06
       615.80000  2.39559e-08  1.23157e+06
       615.90000  2.39559e-08  1.22199e+06
       616.00000  2.39559e-08  1.21360e+06
       616.10000  2.39559e-08  1.20690e+06
       616.20000  2.39559e-08  1.20163e+06
       616.30000  2.39593e-08  1.19796e+06
       616.40000  2.39593e-08  1.19581e+06
       616.50000  5.88226e-08  2.93348e+06
       616.60000  5.88226e-08  2.95878e+06
       616.70000  5.88226e-08  2.98231e+06
       616.80000  5.88226e-08  3.00407e+06
       616.90000  5.88226e-08  3.02466e+06
       617.00000  5.88226e-08  3.04407e+06
       617.10000  5.88226e-08  3.06172e+06
       617.20000  5.88226e-08  3.07760e+06
       617.30000  5.88226e-08  3.09230e+06
       617.40000  5.88226e-08  3.10583e+06
       617.50000  6.94983e-08  3.68341e+06
       617.60000  6.94983e-08  3.69523e+06
       617.70000  6.94983e-08  3.70565e+06
       617.80000  6.94983e-08  3.71468e+06
       617.90000  6.94983e-08  3.72094e+06
       618.00000  6.94983e-08  3.72650e+06
       618.10000  6.94983e-08  3.72997e+06
       618.20000  6.94983e-08  3.73136e+06
       618.30000  6.94983e-08  3.73136e+06
       618.40000  6.94983e-08  3.72928e+06
       618.50000  3.18890e-08  1.70957e+06
       618.60000  3.18890e-08  1.70638e+06
       618.70000  3.18890e-08  1.70319e+06
       618.80000  3.18569e-08  1.69925e+06
       618.90000  3.18569e-08  1.69702e+06
       619.00000  3.18569e-08  1.69543e+06
       619.10000  3.18569e-08  1.69415e+06
       619.20000  3.18569e-08  1.69352e+06
       619.30000  3.18569e-08  1.69320e+06
       619.40000  3.18569e-08  1.69320e+06
       619.50000  1.85331e-07  9.85405e+06
       619.60000  1.85331e-07  9.88926e+06
       619.70000  1.85331e-07  9.92077e+06
       619.80000  1.85331e-07  9.94857e+06
       619.90000  1.85331e-07  9.97266e+06
       620.00000  1.85331e-07  9.99120e+06
       620.10000  1.85331e-07  1.00060e+07
       620.20000  1.85331e-07  1.00171e+07
       620.30000  1.85331e-07  1.00246e+07
       620.40000  1.85331e-07  1.00264e+07
       620.50000  1.66395e-08      900195.
       620.60000  1.66395e-08      896534.
       620.70000  1.66395e-08      893040.
       620.80000  1.66395e-08      890045.
       620.90000  1.66395e-08      887382.
       621.00000  1.66395e-08      885053.
       621.10000  1.66395e-08      883056.
       621.20000  1.66395e-08      881559.
       621.30000  1.66181e-08      879098.
       621.40000  1.66181e-08      878101.
       621.50000  1.30579e-07  6.89587e+06
       621.60000  1.30579e-07  6.91937e+06
       621.70000  1.30579e-07  6.94027e+06
       621.80000  1.30579e-07  6.95724e+06
       621.90000  1.30579e-07  6.97291e+06
       622.00000  1.30579e-07  6.98466e+06
       622.10000  1.30579e-07  6.99380e+06
       622.20000  1.30579e-07  6.99903e+06
       622.30000  1.30579e-07  7.00294e+06
       622.40000  1.30579e-07  7.00294e+06
       622.50000  3.54243e-09      189910.
       622.60000  3.54243e-09      189768.
       622.70000  3.54243e-09      189555.
       622.80000  3.54243e-09      189272.
       622.90000  3.54243e-09      188882.
       623.00000  3.54243e-09      188457.
       623.10000  3.54243e-09      187926.
       623.20000  3.54243e-09      187288.
       623.30000  3.54243e-09      186615.
       623.40000  3.54243e-09      185836.
       623.50000  5.97652e-08  3.12153e+06
       623.60000  5.97652e-08  3.12094e+06
       623.70000  5.97652e-08  3.12094e+06
       623.80000  5.96365e-08  3.11303e+06
       623.90000  5.96365e-08  3.11243e+06
       624.00000  5.96365e-08  3.11124e+06
       624.10000  5.96365e-08  3.10945e+06
       624.20000  5.96365e-08  3.10766e+06
       624.30000  5.96365e-08  3.10587e+06
       624.40000  5.96365e-08  3.10348e+06
       624.50000  1.14459e-07  5.95188e+06
       624.60000  1.14459e-07  5.92899e+06
       624.70000  1.14459e-07  5.91068e+06
       624.80000  1.14459e-07  5.89465e+06
       624.90000  1.14459e-07  5.88206e+06
       625.00000  1.14459e-07  5.87291e+06
       625.10000  1.14459e-07  5.86718e+06
       625.20000  1.14459e-07  5.86375e+06
       625.30000  1.14459e-07  5.86490e+06
       625.40000  1.14459e-07  5.86833e+06
       625.50000  6.29715e-08  3.23233e+06
       625.60000  6.29715e-08  3.23736e+06
       625.70000  6.29715e-08  3.24492e+06
       625.80000  6.29715e-08  3.25374e+06
       625.90000  6.29715e-08  3.26444e+06
       626.00000  6.29715e-08  3.27704e+06
       626.10000  6.29715e-08  3.29152e+06
       626.20000  6.29715e-08  3.30726e+06
       626.30000  6.28722e-08  3.32028e+06
       626.40000  6.28722e-08  3.33977e+06
       626.50000  1.18244e-07  6.32013e+06
       626.60000  1.18244e-07  6.32131e+06
       626.70000  1.18244e-07  6.32249e+06
       626.80000  1.18244e-07  6.32368e+06
       626.90000  1.18244e-07  6.32486e+06
       627.00000  1.18244e-07  6.32604e+06
       627.10000  1.18244e-07  6.32722e+06
       627.20000  1.18244e-07  6.32722e+06
       627.30000  1.18244e-07  6.32841e+06
       627.40000  1.18244e-07  6.32959e+06
       627.50000  1.58286e-08      847463.
       627.60000  1.58286e-08      848096.
       627.70000  1.58286e-08      848571.
       627.80000  1.58286e-08      848887.
       627.90000  1.58286e-08      849204.
       628.00000  1.58286e-08      849362.
       628.10000  1.58286e-08      849520.
       628.20000  1.58286e-08      849520.
       628.30000  1.58286e-08      849362.
       628.40000  1.58286e-08      849204.
       628.50000  2.56522e-08  1.37573e+06
       628.60000  2.56522e-08  1.37496e+06
       628.70000  2.56522e-08  1.37419e+06
       628.80000  2.55980e-08  1.37026e+06
       628.90000  2.55980e-08  1.36898e+06
       629.00000  2.55980e-08  1.36770e+06
       629.10000  2.55980e-08  1.36616e+06
       629.20000  2.55980e-08  1.36463e+06
       629.30000  2.55980e-08  1.36284e+06
       629.40000  2.55980e-08  1.36079e+06
       629.50000  4.44188e-08  2.35775e+06
       629.60000  4.44188e-08  2.35286e+06
       629.70000  4.44188e-08  2.34798e+06
       629.80000  4.44188e-08  2.34353e+06
       629.90000  4.44188e-08  2.33954e+06
       630.00000  4.44188e-08  2.33554e+06
       630.10000  4.44188e-08  2.33154e+06
       630.20000  4.44188e-08  2.32843e+06
       630.30000  4.44188e-08  2.32488e+06
       630.40000  4.44188e-08  2.32221e+06
       630.50000  1.05206e-07  5.49388e+06
       630.60000  1.05206e-07  5.48756e+06
       630.70000  1.05206e-07  5.48230e+06
       630.80000  1.05206e-07  5.47810e+06
       630.90000  1.05206e-07  5.47389e+06
       631.00000  1.05206e-07  5.47073e+06
       631.10000  1.05206e-07  5.47389e+06
       631.20000  1.05206e-07  5.47704e+06
       631.30000  1.05201e-07  5.48098e+06
       631.40000  1.05201e-07  5.48414e+06
       631.50000  8.03236e-08  4.18968e+06
       631.60000  8.03236e-08  4.19209e+06
       631.70000  8.03236e-08  4.19450e+06
       631.80000  8.03236e-08  4.19611e+06
       631.90000  8.03236e-08  4.19852e+06
       632.00000  8.03236e-08  4.20093e+06
       632.10000  8.03236e-08  4.20334e+06
       632.20000  8.03236e-08  4.20494e+06
       632.30000  8.03236e-08  4.20735e+06
       632.40000  8.03236e-08  4.20976e+06
       632.50000  7.80393e-08  4.09160e+06
       632.60000  7.80393e-08  4.09316e+06
       632.70000  7.80393e-08  4.09550e+06
       632.80000  7.80393e-08  4.09706e+06
       632.90000  7.80393e-08  4.09862e+06
       633.00000  7.80393e-08  4.10096e+06
       633.10000  7.80393e-08  4.10252e+06
       633.20000  7.80393e-08  4.10408e+06
       633.30000  7.80393e-08  4.10565e+06
       633.40000  7.80393e-08  4.10721e+06
       633.50000  2.64509e-08  1.39264e+06
       633.60000  2.64509e-08  1.39317e+06
       633.70000  2.64509e-08  1.39370e+06
       633.80000  2.64469e-08  1.39375e+06
       633.90000  2.64469e-08  1.39428e+06
       634.00000  2.64469e-08  1.39481e+06
       634.10000  2.64469e-08  1.39507e+06
       634.20000  2.64469e-08  1.39560e+06
       634.30000  2.64469e-08  1.39586e+06
       634.40000  2.64469e-08  1.39639e+06
       634.50000  6.78099e-08  3.58104e+06
       634.60000  6.78099e-08  3.58172e+06
       634.70000  6.78099e-08  3.58308e+06
       634.80000  6.78099e-08  3.58376e+06
       634.90000  6.78099e-08  3.58443e+06
       635.00000  6.78099e-08  3.58511e+06
       635.10000  6.78099e-08  3.58579e+06
       635.20000  6.78099e-08  3.58579e+06
       635.30000  6.78099e-08  3.58647e+06
       635.40000  6.78099e-08  3.58647e+06
       635.50000  1.15654e-08      611811.
       635.60000  1.15654e-08      611926.
       635.70000  1.15654e-08      611926.
       635.80000  1.15654e-08      612042.
       635.90000  1.15654e-08      612042.
       636.00000  1.15654e-08      612158.
       636.10000  1.15654e-08      612158.
       636.20000  1.15654e-08      612273.
       636.30000  1.14969e-08      608644.
       636.40000  1.14969e-08      608759.
       636.50000  1.96085e-08  1.03827e+06
       636.60000  1.96085e-08  1.03847e+06
       636.70000  1.96085e-08  1.03847e+06
       636.80000  1.96085e-08  1.03866e+06
       636.90000  1.96085e-08  1.03866e+06
       637.00000  1.96085e-08  1.03866e+06
       637.10000  1.96085e-08  1.03886e+06
       637.20000  1.96085e-08  1.03886e+06
       637.30000  1.96085e-08  1.03906e+06
       637.40000  1.96085e-08  1.03906e+06
       637.50000  4.41005e-08  2.33689e+06
       637.60000  4.41005e-08  2.33733e+06
       637.70000  4.41005e-08  2.33733e+06
       637.80000  4.41005e-08  2.33777e+06
       637.90000  4.41005e-08  2.33777e+06
       638.00000  4.41005e-08  2.33777e+06
       638.10000  4.41005e-08  2.33821e+06
       638.20000  4.41005e-08  2.33821e+06
       638.30000  4.41005e-08  2.33821e+06
       638.40000  4.41005e-08  2.33865e+06
       638.50000  7.51063e-09      398289.
       638.60000  7.51063e-09      398289.
       638.70000  7.51063e-09      398364.
       638.80000  7.46138e-09      395752.
       638.90000  7.46138e-09      395752.
       639.00000  7.46138e-09      395752.
       639.10000  7.46138e-09      395155.
       639.20000  7.46138e-09      394558.
       639.30000  7.46138e-09      393961.
       639.40000  7.46138e-09      393439.
       639.50000  2.28348e-08  1.20225e+06
       639.60000  2.28348e-08  1.20088e+06
       639.70000  2.28348e-08  1.19928e+06
       639.80000  2.28348e-08  1.19791e+06
       639.90000  2.28348e-08  1.19677e+06
       640.00000  2.28348e-08  1.19540e+06
       640.10000  2.28348e-08  1.19426e+06
       640.20000  2.28348e-08  1.19334e+06
       640.30000  2.28348e-08  1.19243e+06
       640.40000  2.28348e-08  1.19152e+06
       640.50000  1.93674e-08  1.00982e+06
       640.60000  1.93674e-08  1.00924e+06
       640.70000  1.93674e-08  1.00866e+06
       640.80000  1.93674e-08  1.00827e+06
       640.90000  1.93674e-08  1.00769e+06
       641.00000  1.93674e-08  1.00749e+06
       641.10000  1.93674e-08  1.00788e+06
       641.20000  1.93674e-08  1.00827e+06
       641.30000  1.92364e-08  1.00183e+06
       641.40000  1.92364e-08  1.00222e+06
       641.50000  1.40909e-07  7.34415e+06
       641.60000  1.40909e-07  7.34697e+06
       641.70000  1.40909e-07  7.34979e+06
       641.80000  1.40909e-07  7.35261e+06
       641.90000  1.40909e-07  7.35543e+06
       642.00000  1.40909e-07  7.35824e+06
       642.10000  1.40909e-07  7.35965e+06
       642.20000  1.40909e-07  7.36247e+06
       642.30000  1.40909e-07  7.36529e+06
       642.40000  1.40909e-07  7.36811e+06
       642.50000  5.95459e-08  3.11485e+06
       642.60000  5.95459e-08  3.11604e+06
       642.70000  5.95459e-08  3.11723e+06
       642.80000  5.95459e-08  3.11842e+06
       642.90000  5.95459e-08  3.11961e+06
       643.00000  5.95459e-08  3.12080e+06
       643.10000  5.95459e-08  3.12140e+06
       643.20000  5.95459e-08  3.12259e+06
       643.30000  5.95459e-08  3.12378e+06
       643.40000  5.95459e-08  3.12497e+06
       643.50000  8.04213e-09      422212.
       643.60000  8.04213e-09      422373.
       643.70000  8.04213e-09      422453.
       643.80000  8.03142e-09      422051.
       643.90000  8.03142e-09      422212.
       644.00000  8.03142e-09      422372.
       644.10000  8.03142e-09      422533.
       644.20000  8.03142e-09      422613.
       644.30000  8.03142e-09      422774.
       644.40000  8.03142e-09      422934.
       644.50000  1.01369e-07  5.34011e+06
       644.60000  1.01369e-07  5.34113e+06
       644.70000  1.01369e-07  5.34315e+06
       644.80000  1.01369e-07  5.34518e+06
       644.90000  1.01369e-07  5.34721e+06
       645.00000  1.01369e-07  5.34822e+06
       645.10000  1.01369e-07  5.34721e+06
       645.20000  1.01369e-07  5.34518e+06
       645.30000  1.01369e-07  5.34417e+06
       645.40000  1.01369e-07  5.34214e+06
       645.50000  1.75792e-07  9.25895e+06
       645.60000  1.75792e-07  9.25543e+06
       645.70000  1.75792e-07  9.25192e+06
       645.80000  1.75792e-07  9.24664e+06
       645.90000  1.75792e-07  9.24137e+06
       646.00000  1.75792e-07  9.23609e+06
       646.10000  1.75792e-07  9.23082e+06
       646.20000  1.75792e-07  9.22555e+06
       646.30000  1.75684e-07  9.21286e+06
       646.40000  1.75684e-07  9.20584e+06
       646.50000  1.19256e-07  6.24542e+06
       646.60000  1.19256e-07  6.23946e+06
       646.70000  1.19256e-07  6.23469e+06
       646.80000  1.19256e-07  6.22992e+06
       646.90000  1.19256e-07  6.22396e+06
       647.00000  1.19256e-07  6.21918e+06
       647.10000  1.19256e-07  6.20249e+06
       647.20000  1.19256e-07  6.18699e+06
       647.30000  1.19256e-07  6.17268e+06
       647.40000  1.19256e-07  6.15836e+06
       647.50000  9.07714e-08  4.67745e+06
       647.60000  9.07714e-08  4.66928e+06
       647.70000  9.07714e-08  4.66020e+06
       647.80000  9.07714e-08  4.65294e+06
       647.90000  9.07714e-08  4.64568e+06
       648.00000  9.07714e-08  4.63932e+06
       648.10000  9.07714e-08  4.63388e+06
       648.20000  9.07714e-08  4.62934e+06
       648.30000  9.07714e-08  4.62480e+06
       648.40000  9.07714e-08  4.62117e+06
       648.50000  3.31073e-08  1.68450e+06
       648.60000  3.31073e-08  1.68384e+06
       648.70000  3.31073e-08  1.68317e+06
       648.80000  3.31415e-08  1.68458e+06
       648.90000  3.31415e-08  1.68458e+06
       649.00000  3.31415e-08  1.68492e+06
       649.10000  3.31415e-08  1.68525e+06
       649.20000  3.31415e-08  1.68624e+06
       649.30000  3.31415e-08  1.68690e+06
       649.40000  3.31415e-08  1.68823e+06
       649.50000  4.97561e-08  2.53706e+06
       649.60000  4.97561e-08  2.53955e+06
       649.70000  4.97561e-08  2.54254e+06
       649.80000  4.97561e-08  2.54602e+06
       649.90000  4.97561e-08  2.54950e+06
       650.00000  4.97561e-08  2.55348e+06
       650.10000  4.97561e-08  2.55796e+06
       650.20000  4.97561e-08  2.56294e+06
       650.30000  4.97561e-08  2.56841e+06
       650.40000  4.97561e-08  2.57388e+06
       650.50000  1.27425e-07  6.60700e+06
       650.60000  1.27425e-07  6.62357e+06
       650.70000  1.27425e-07  6.64013e+06
       650.80000  1.27425e-07  6.65924e+06
       650.90000  1.27425e-07  6.67836e+06
       651.00000  1.27425e-07  6.69875e+06
       651.10000  1.27425e-07  6.70384e+06
       651.20000  1.27425e-07  6.70894e+06
       651.30000  1.27265e-07  6.70434e+06
       651.40000  1.27265e-07  6.70816e+06
       651.50000  6.73426e-08  3.55165e+06
       651.60000  6.73426e-08  3.55232e+06
       651.70000  6.73426e-08  3.55367e+06
       651.80000  6.73426e-08  3.55434e+06
       651.90000  6.73426e-08  3.55434e+06
       652.00000  6.73426e-08  3.55434e+06
       652.10000  6.73426e-08  3.55367e+06
       652.20000  6.73426e-08  3.55300e+06
       652.30000  6.73426e-08  3.55232e+06
       652.40000  6.73426e-08  3.55098e+06
       652.50000  9.01447e-08  4.75062e+06
       652.60000  9.01447e-08  4.74792e+06
       652.70000  9.01447e-08  4.74522e+06
       652.80000  9.01447e-08  4.74071e+06
       652.90000  9.01447e-08  4.73710e+06
       653.00000  9.01447e-08  4.73260e+06
       653.10000  9.01447e-08  4.72899e+06
       653.20000  9.01447e-08  4.72538e+06
       653.30000  9.01447e-08  4.71998e+06
       653.40000  9.01447e-08  4.71457e+06
       653.50000  2.12720e-08  1.11125e+06
       653.60000  2.12720e-08  1.10976e+06
       653.70000  2.12720e-08  1.10806e+06
       653.80000  2.12460e-08  1.10479e+06
       653.90000  2.12460e-08  1.10288e+06
       654.00000  2.12460e-08  1.10076e+06
       654.10000  2.12460e-08  1.09863e+06
       654.20000  2.12460e-08  1.09608e+06
       654.30000  2.12460e-08  1.09353e+06
       654.40000  2.12460e-08  1.09098e+06
       654.50000  2.52596e-08  1.29380e+06
       654.60000  2.52596e-08  1.29026e+06
       654.70000  2.52596e-08  1.28647e+06
       654.80000  2.52596e-08  1.28268e+06
       654.90000  2.52596e-08  1.27864e+06
       655.00000  2.52596e-08  1.27435e+06
       655.10000  2.52596e-08  1.26222e+06
       655.20000  2.52596e-08  1.25060e+06
       655.30000  2.52596e-08  1.23974e+06
       655.40000  2.52596e-08  1.22964e+06
       655.50000  5.42458e-08  2.62007e+06
       655.60000  5.42458e-08  2.60109e+06
       655.70000  5.42458e-08  2.58318e+06
       655.80000  5.42458e-08  2.56691e+06
       655.90000  5.42458e-08  2.55172e+06
       656.00000  5.42458e-08  2.53816e+06
       656.10000  5.42458e-08  2.52623e+06
       656.20000  5.42458e-08  2.51538e+06
       656.30000  5.42045e-08  2.50425e+06
       656.40000  5.42045e-08  2.49612e+06
       656.50000  1.77451e-07  8.15035e+06
       656.60000  1.77451e-07  8.13438e+06
       656.70000  1.77451e-07  8.12195e+06
       656.80000  1.77451e-07  8.11486e+06
       656.90000  1.77451e-07  8.11131e+06
       657.00000  1.77451e-07  8.11308e+06
       657.10000  1.77451e-07  8.18229e+06
       657.20000  1.77451e-07  8.24972e+06
       657.30000  1.77451e-07  8.31538e+06
       657.40000  1.77451e-07  8.37926e+06
       657.50000  6.52202e-08  3.10187e+06
       657.60000  6.52202e-08  3.12405e+06
       657.70000  6.52202e-08  3.14492e+06
       657.80000  6.52202e-08  3.16514e+06
       657.90000  6.52202e-08  3.18405e+06
       658.00000  6.52202e-08  3.20296e+06
       658.10000  6.52202e-08  3.22123e+06
       658.20000  6.52202e-08  3.23818e+06
       658.30000  6.52202e-08  3.25449e+06
       658.40000  6.52202e-08  3.27014e+06
       658.50000  9.26689e-08  4.66681e+06
       658.60000  9.26689e-08  4.68719e+06
       658.70000  9.26689e-08  4.70573e+06
       658.80000  9.25727e-08  4.71936e+06
       658.90000  9.25727e-08  4.73602e+06
       659.00000  9.25727e-08  4.75083e+06
       659.10000  9.25727e-08  4.76564e+06
       659.20000  9.25727e-08  4.77953e+06
       659.30000  9.25727e-08  4.79156e+06
       659.40000  9.25727e-08  4.80267e+06
       659.50000  3.59494e-09      186901.
       659.60000  3.59494e-09      187260.
       659.70000  3.59494e-09      187548.
       659.80000  3.59494e-09      187836.
       659.90000  3.59494e-09      188051.
       660.00000  3.59494e-09      188231.
       660.10000  3.59494e-09      188375.
       660.20000  3.59494e-09      188447.
       660.30000  3.59494e-09      188519.
       660.40000  3.59494e-09      188519.
       660.50000  5.53586e-08  2.90245e+06
       660.60000  5.53586e-08  2.90134e+06
       660.70000  5.53586e-08  2.89968e+06
       660.80000  5.53586e-08  2.89691e+06
       660.90000  5.53586e-08  2.89415e+06
       661.00000  5.53586e-08  2.89027e+06
       661.10000  5.53586e-08  2.88861e+06
       661.20000  5.53586e-08  2.88640e+06
       661.30000  5.52211e-08  2.87757e+06
       661.40000  5.52211e-08  2.87592e+06
       661.50000  1.26069e-08      656191.
       661.60000  1.26069e-08      655939.
       661.70000  1.26069e-08      655561.
       661.80000  1.26069e-08      655309.
       661.90000  1.26069e-08      655057.
       662.00000  1.26069e-08      654804.
       662.10000  1.26069e-08      654552.
       662.20000  1.26069e-08      654300.
       662.30000  1.26069e-08      654174.
       662.40000  1.26069e-08      654048.
       662.50000  9.56718e-08  4.96154e+06
       662.60000  9.56718e-08  4.96154e+06
       662.70000  9.56718e-08  4.96058e+06
       662.80000  9.56718e-08  4.95963e+06
       662.90000  9.56718e-08  4.95963e+06
       663.00000  9.56718e-08  4.95963e+06
       663.10000  9.56718e-08  4.96345e+06
       663.20000  9.56718e-08  4.96632e+06
       663.30000  9.56718e-08  4.97015e+06
       663.40000  9.56718e-08  4.97302e+06
       663.50000  9.89302e-08  5.14536e+06
       663.60000  9.89302e-08  5.14833e+06
       663.70000  9.89302e-08  5.15031e+06
       663.80000  9.87192e-08  5.14228e+06
       663.90000  9.87192e-08  5.14426e+06
       664.00000  9.87192e-08  5.14524e+06
       664.10000  9.87192e-08  5.14722e+06
       664.20000  9.87192e-08  5.14821e+06
       664.30000  9.87192e-08  5.14919e+06
       664.40000  9.87192e-08  5.15018e+06
       664.50000  8.14980e-08  4.25175e+06
       664.60000  8.14980e-08  4.25175e+06
       664.70000  8.14980e-08  4.25175e+06
       664.80000  8.14980e-08  4.25175e+06
       664.90000  8.14980e-08  4.25175e+06
       665.00000  8.14980e-08  4.25094e+06
       665.10000  8.14980e-08  4.25012e+06
       665.20000  8.14980e-08  4.24931e+06
       665.30000  8.14980e-08  4.24768e+06
       665.40000  8.14980e-08  4.24605e+06
       665.50000  3.64025e-08  1.89584e+06
       665.60000  3.64025e-08  1.89512e+06
       665.70000  3.64025e-08  1.89402e+06
       665.80000  3.64025e-08  1.89329e+06
       665.90000  3.64025e-08  1.89220e+06
       666.00000  3.64025e-08  1.89075e+06
       666.10000  3.64025e-08  1.88965e+06
       666.20000  3.64025e-08  1.88820e+06
       666.30000  3.63111e-08  1.88200e+06
       666.40000  3.63111e-08  1.88055e+06
       666.50000  9.62206e-08  4.97845e+06
       666.60000  9.62206e-08  4.97364e+06
       666.70000  9.62206e-08  4.96883e+06
       666.80000  9.62206e-08  4.96402e+06
       666.90000  9.62206e-08  4.95921e+06
       667.00000  9.62206e-08  4.95344e+06
       667.10000  9.62206e-08  4.95921e+06
       667.20000  9.62206e-08  4.96402e+06
       667.30000  9.62206e-08  4.96883e+06
       667.40000  9.62206e-08  4.97364e+06
       667.50000  3.99026e-09      206456.
       667.60000  3.99026e-09      206616.
       667.70000  3.99026e-09      206775.
       667.80000  3.99026e-09      206895.
       667.90000  3.99026e-09      207015.
       668.00000  3.99026e-09      207134.
       668.10000  3.99026e-09      207254.
       668.20000  3.99026e-09      207334.
       668.30000  3.99026e-09      207414.
       668.40000  3.99026e-09      207454.
       668.50000  1.59185e-08      827760.
       668.60000  1.59185e-08      827919.
       668.70000  1.59185e-08      827919.
       668.80000  1.58924e-08      826565.
       668.90000  1.58924e-08      826565.
       669.00000  1.58924e-08      826406.
       669.10000  1.58924e-08      825294.
       669.20000  1.58924e-08      824181.
       669.30000  1.58924e-08      823228.
       669.40000  1.58924e-08      822274.
       669.50000  7.93016e-09      409831.
       669.60000  7.93016e-09      409355.
       669.70000  7.93016e-09      408958.
       669.80000  7.93016e-09      408562.
       669.90000  7.93016e-09      408165.
       670.00000  7.93016e-09      407848.
       670.10000  7.93016e-09      407531.
       670.20000  7.93016e-09      407214.
       670.30000  7.93016e-09      406897.
       670.40000  7.93016e-09      406659.
       670.50000  1.72211e-07  8.82582e+06
       670.60000  1.72211e-07  8.82066e+06
       670.70000  1.72211e-07  8.81721e+06
       670.80000  1.72211e-07  8.81377e+06
       670.90000  1.72211e-07  8.81032e+06
       671.00000  1.72211e-07  8.80860e+06
       671.10000  1.72211e-07  8.80516e+06
       671.20000  1.72211e-07  8.80516e+06
       671.30000  1.72218e-07  8.80377e+06
       671.40000  1.72218e-07  8.80377e+06
       671.50000  3.30902e-08  1.69157e+06
       671.60000  3.30902e-08  1.69157e+06
       671.70000  3.30902e-08  1.69157e+06
       671.80000  3.30902e-08  1.69190e+06
       671.90000  3.30902e-08  1.69223e+06
       672.00000  3.30902e-08  1.69289e+06
       672.10000  3.30902e-08  1.69355e+06
       672.20000  3.30902e-08  1.69422e+06
       672.30000  3.30902e-08  1.69488e+06
       672.40000  3.30902e-08  1.69587e+06
       672.50000  1.44092e-07  7.38902e+06
       672.60000  1.44092e-07  7.39335e+06
       672.70000  1.44092e-07  7.39767e+06
       672.80000  1.44092e-07  7.40343e+06
       672.90000  1.44092e-07  7.40920e+06
       673.00000  1.44092e-07  7.41640e+06
       673.10000  1.44092e-07  7.41352e+06
       673.20000  1.44092e-07  7.41064e+06
       673.30000  1.44092e-07  7.40776e+06
       673.40000  1.44092e-07  7.40632e+06
       673.50000  1.56396e-07  8.03561e+06
       673.60000  1.56396e-07  8.03404e+06
       673.70000  1.56396e-07  8.03248e+06
       673.80000  1.56458e-07  8.03256e+06
       673.90000  1.56458e-07  8.03100e+06
       674.00000  1.56458e-07  8.02943e+06
       674.10000  1.56458e-07  8.02787e+06
       674.20000  1.56458e-07  8.02630e+06
       674.30000  1.56458e-07  8.02474e+06
       674.40000  1.56458e-07  8.02317e+06
       674.50000  1.88004e-08      963896.
       674.60000  1.88004e-08      963896.
       674.70000  1.88004e-08      963708.
       674.80000  1.88004e-08      963708.
       674.90000  1.88004e-08      963520.
       675.00000  1.88004e-08      963520.
       675.10000  1.88004e-08      963708.
       675.20000  1.88004e-08      963896.
       675.30000  1.88004e-08      964084.
       675.40000  1.88004e-08      964272.
       675.50000  3.80218e-09      195014.
       675.60000  3.80218e-09      195052.
       675.70000  3.80218e-09      195090.
       675.80000  3.80218e-09      195090.
       675.90000  3.80218e-09      195128.
       676.00000  3.80218e-09      195128.
       676.10000  3.80218e-09      195166.
       676.20000  3.80218e-09      195166.
       676.30000  3.79830e-09      194967.
       676.40000  3.79830e-09      194967.
       676.50000  2.26890e-07  1.16486e+07
       676.60000  2.26890e-07  1.16486e+07
       676.70000  2.26890e-07  1.16486e+07
       676.80000  2.26890e-07  1.16463e+07
       676.90000  2.26890e-07  1.16463e+07
       677.00000  2.26890e-07  1.16463e+07
       677.10000  2.26890e-07  1.16463e+07
       677.20000  2.26890e-07  1.16440e+07
       677.30000  2.26890e-07  1.16440e+07
       677.40000  2.26890e-07  1.16418e+07
       677.50000  1.48260e-07  7.60724e+06
       677.60000  1.48260e-07  7.60575e+06
       677.70000  1.48260e-07  7.60575e+06
       677.80000  1.48260e-07  7.60427e+06
       677.90000  1.48260e-07  7.60279e+06
       678.00000  1.48260e-07  7.60131e+06
       678.10000  1.48260e-07  7.59982e+06
       678.20000  1.48260e-07  7.59834e+06
       678.30000  1.48260e-07  7.59686e+06
       678.40000  1.48260e-07  7.59538e+06
       678.50000  2.18170e-08  1.11725e+06
       678.60000  2.18170e-08  1.11703e+06
       678.70000  2.18170e-08  1.11681e+06
       678.80000  2.18154e-08  1.11629e+06
       678.90000  2.18154e-08  1.11607e+06
       679.00000  2.18154e-08  1.11564e+06
       679.10000  2.18154e-08  1.11564e+06
       679.20000  2.18154e-08  1.11586e+06
       679.30000  2.18154e-08  1.11586e+06
       679.40000  2.18154e-08  1.11586e+06
       679.50000  1.48119e-07  7.57630e+06
       679.60000  1.48119e-07  7.57630e+06
       679.70000  1.48119e-07  7.57630e+06
       679.80000  1.48119e-07  7.57630e+06
       679.90000  1.48119e-07  7.57630e+06
       680.00000  1.48119e-07  7.57482e+06
       680.10000  1.48119e-07  7.57482e+06
       680.20000  1.48119e-07  7.57482e+06
       680.30000  1.48119e-07  7.57334e+06
       680.40000  1.48119e-07  7.57334e+06
       680.50000  3.40226e-08  1.73923e+06
       680.60000  3.40226e-08  1.73923e+06
       680.70000  3.40226e-08  1.73889e+06
       680.80000  3.40226e-08  1.73855e+06
       680.90000  3.40226e-08  1.73821e+06
       681.00000  3.40226e-08  1.73821e+06
       681.10000  3.40226e-08  1.73787e+06
       681.20000  3.40226e-08  1.73753e+06
       681.30000  3.40194e-08  1.73737e+06
       681.40000  3.40194e-08  1.73703e+06
       681.50000  8.11994e-08  4.14523e+06
       681.60000  8.11994e-08  4.14442e+06
       681.70000  8.11994e-08  4.14361e+06
       681.80000  8.11994e-08  4.14198e+06
       681.90000  8.11994e-08  4.14117e+06
       682.00000  8.11994e-08  4.14036e+06
       682.10000  8.11994e-08  4.13873e+06
       682.20000  8.11994e-08  4.13711e+06
       682.30000  8.11994e-08  4.13630e+06
       682.40000  8.11994e-08  4.13467e+06
       682.50000  8.06218e-08  4.10365e+06
       682.60000  8.06218e-08  4.10204e+06
       682.70000  8.06218e-08  4.10042e+06
       682.80000  8.06218e-08  4.09881e+06
       682.90000  8.06218e-08  4.09639e+06
       683.00000  8.06218e-08  4.09478e+06
       683.10000  8.06218e-08  4.09317e+06
       683.20000  8.06218e-08  4.09075e+06
       683.30000  8.06218e-08  4.08833e+06
       683.40000  8.06218e-08  4.08591e+06
       683.50000  1.05245e-07  5.33169e+06
       683.60000  1.05245e-07  5.32854e+06
       683.70000  1.05245e-07  5.32538e+06
       683.80000  1.05164e-07  5.31709e+06
       683.90000  1.05164e-07  5.31394e+06
       684.00000  1.05164e-07  5.31078e+06
       684.10000  1.05164e-07  5.30657e+06
       684.20000  1.05164e-07  5.30342e+06
       684.30000  1.05164e-07  5.29921e+06
       684.40000  1.05164e-07  5.29606e+06
       684.50000  9.27095e-08  4.66514e+06
       684.60000  9.27095e-08  4.66144e+06
       684.70000  9.27095e-08  4.65773e+06
       684.80000  9.27095e-08  4.65402e+06
       684.90000  9.27095e-08  4.64938e+06
       685.00000  9.27095e-08  4.64568e+06
       685.10000  9.27095e-08  4.64938e+06
       685.20000  9.27095e-08  4.65402e+06
       685.30000  9.27095e-08  4.65773e+06
       685.40000  9.27095e-08  4.66051e+06
       685.50000  2.09856e-07  1.05578e+07
       685.60000  2.09856e-07  1.05662e+07
       685.70000  2.09856e-07  1.05725e+07
       685.80000  2.09856e-07  1.05788e+07
       685.90000  2.09856e-07  1.05851e+07
       686.00000  2.09856e-07  1.05914e+07
       686.10000  2.09856e-07  1.05977e+07
       686.20000  2.09856e-07  1.06019e+07
       686.30000  2.09635e-07  1.05971e+07
       686.40000  2.09635e-07  1.06013e+07
       686.50000  2.24524e-07  1.13587e+07
       686.60000  2.24524e-07  1.13632e+07
       686.70000  2.24524e-07  1.13677e+07
       686.80000  2.24524e-07  1.13699e+07
       686.90000  2.24524e-07  1.13744e+07
       687.00000  2.24524e-07  1.13767e+07
       687.10000  2.24524e-07  1.13789e+07
       687.20000  2.24524e-07  1.13789e+07
       687.30000  2.24524e-07  1.13789e+07
       687.40000  2.24524e-07  1.13789e+07
       687.50000  4.62715e-08  2.34504e+06
       687.60000  4.62715e-08  2.34504e+06
       687.70000  4.62715e-08  2.34504e+06
       687.80000  4.62715e-08  2.34504e+06
       687.90000  4.62715e-08  2.34504e+06
       688.00000  4.62715e-08  2.34458e+06
       688.10000  4.62715e-08  2.34458e+06
       688.20000  4.62715e-08  2.34458e+06
       688.30000  4.62715e-08  2.34411e+06
       688.40000  4.62715e-08  2.34411e+06
       688.50000  1.06420e-07  5.39016e+06
       688.60000  1.06420e-07  5.38909e+06
       688.70000  1.06420e-07  5.38909e+06
       688.80000  1.06284e-07  5.38116e+06
       688.90000  1.06284e-07  5.38010e+06
       689.00000  1.06284e-07  5.37903e+06
       689.10000  1.06284e-07  5.37797e+06
       689.20000  1.06284e-07  5.37691e+06
       689.30000  1.06284e-07  5.37584e+06
       689.40000  1.06284e-07  5.37478e+06
       689.50000  1.96534e-07  9.93674e+06
       689.60000  1.96534e-07  9.93477e+06
       689.70000  1.96534e-07  9.93084e+06
       689.80000  1.96534e-07  9.92888e+06
       689.90000  1.96534e-07  9.92691e+06
       690.00000  1.96534e-07  9.92298e+06
       690.10000  1.96534e-07  9.91905e+06
       690.20000  1.96534e-07  9.91708e+06
       690.30000  1.96534e-07  9.91315e+06
       690.40000  1.96534e-07  9.90922e+06
       690.50000  2.14703e-07  1.08232e+07
       690.60000  2.14703e-07  1.08189e+07
       690.70000  2.14703e-07  1.08146e+07
       690.80000  2.14703e-07  1.08103e+07
       690.90000  2.14703e-07  1.08060e+07
       691.00000  2.14703e-07  1.08017e+07
       691.10000  2.14703e-07  1.08060e+07
       691.20000  2.14703e-07  1.08082e+07
       691.30000  2.14498e-07  1.08021e+07
       691.40000  2.14498e-07  1.08043e+07
       691.50000  2.24231e-07  1.12967e+07
       691.60000  2.24231e-07  1.13012e+07
       691.70000  2.24231e-07  1.13035e+07
       691.80000  2.24231e-07  1.13057e+07
       691.90000  2.24231e-07  1.13079e+07
       692.00000  2.24231e-07  1.13079e+07
       692.10000  2.24231e-07  1.13102e+07
       692.20000  2.24231e-07  1.13124e+07
       692.30000  2.24231e-07  1.13124e+07
       692.40000  2.24231e-07  1.13124e+07
       692.50000  3.28503e-07  1.65763e+07
       692.60000  3.28503e-07  1.65763e+07
       692.70000  3.28503e-07  1.65763e+07
       692.80000  3.28503e-07  1.65763e+07
       692.90000  3.28503e-07  1.65763e+07
       693.00000  3.28503e-07  1.65730e+07
       693.10000  3.28503e-07  1.65730e+07
       693.20000  3.28503e-07  1.65697e+07
       693.30000  3.28503e-07  1.65664e+07
       693.40000  3.28503e-07  1.65631e+07
       693.50000  2.16390e-07  1.09082e+07
       693.60000  2.16390e-07  1.09061e+07
       693.70000  2.16390e-07  1.09039e+07
       693.80000  2.15532e-07  1.08585e+07
       693.90000  2.15532e-07  1.08542e+07
       694.00000  2.15532e-07  1.08520e+07
       694.10000  2.15532e-07  1.08499e+07
       694.20000  2.15532e-07  1.08456e+07
       694.30000  2.15532e-07  1.08434e+07
       694.40000  2.15532e-07  1.08391e+07
       694.50000  1.75664e-07  8.83064e+06
       694.60000  1.75664e-07  8.82888e+06
       694.70000  1.75664e-07  8.82536e+06
       694.80000  1.75664e-07  8.82185e+06
       694.90000  1.75664e-07  8.81834e+06
       695.00000  1.75664e-07  8.81483e+06
       695.10000  1.75664e-07  8.81131e+06
       695.20000  1.75664e-07  8.80780e+06
       695.30000  1.75664e-07  8.80253e+06
       695.40000  1.75664e-07  8.79902e+06
       695.50000  1.27608e-07  6.38932e+06
       695.60000  1.27608e-07  6.38549e+06
       695.70000  1.27608e-07  6.38294e+06
       695.80000  1.27608e-07  6.37911e+06
       695.90000  1.27608e-07  6.37528e+06
       696.00000  1.27608e-07  6.37273e+06
       696.10000  1.27608e-07  6.36890e+06
       696.20000  1.27608e-07  6.36507e+06
       696.30000  1.27482e-07  6.35500e+06
       696.40000  1.27482e-07  6.35117e+06
       696.50000  2.78823e-07  1.38826e+07
       696.60000  2.78823e-07  1.38742e+07
       696.70000  2.78823e-07  1.38631e+07
       696.80000  2.78823e-07  1.38547e+07
       696.90000  2.78823e-07  1.38463e+07
       697.00000  2.78823e-07  1.38352e+07
       697.10000  2.78823e-07  1.38547e+07
       697.20000  2.78823e-07  1.38686e+07
       697.30000  2.78823e-07  1.38854e+07
       697.40000  2.78823e-07  1.38993e+07
       697.50000  2.50560e-07  1.25030e+07
       697.60000  2.50560e-07  1.25130e+07
       697.70000  2.50560e-07  1.25230e+07
       697.80000  2.50560e-07  1.25305e+07
       697.90000  2.50560e-07  1.25380e+07
       698.00000  2.50560e-07  1.25430e+07
       698.10000  2.50560e-07  1.25481e+07
       698.20000  2.50560e-07  1.25531e+07
       698.30000  2.50560e-07  1.25556e+07
       698.40000  2.50560e-07  1.25581e+07
       698.50000  2.14046e-07  1.07301e+07
       698.60000  2.14046e-07  1.07301e+07
       698.70000  2.14046e-07  1.07280e+07
       698.80000  2.13681e-07  1.07075e+07
       698.90000  2.13681e-07  1.07054e+07
       699.00000  2.13681e-07  1.07011e+07
       699.10000  2.13681e-07  1.06819e+07
       699.20000  2.13681e-07  1.06605e+07
       699.30000  2.13681e-07  1.06434e+07
       699.40000  2.13681e-07  1.06242e+07
       699.50000  3.59995e-07  1.78702e+07
       699.60000  3.59995e-07  1.78414e+07
       699.70000  3.59995e-07  1.78162e+07
       699.80000  3.59995e-07  1.77910e+07
       699.90000  3.59995e-07  1.77658e+07
       700.00000  3.59995e-07  1.77442e+07
       700.10000  3.59995e-07  1.77226e+07
       700.20000  3.59995e-07  1.77010e+07
       700.30000  3.59995e-07  1.76830e+07
       700.40000  3.59995e-07  1.76650e+07
       700.50000  2.64063e-07  1.29444e+07
       700.60000  2.64063e-07  1.29338e+07
       700.70000  2.64063e-07  1.29233e+07
       700.80000  2.64063e-07  1.29153e+07
       700.90000  2.64063e-07  1.29074e+07
       701.00000  2.64063e-07  1.28995e+07
       701.10000  2.64063e-07  1.28968e+07
       701.20000  2.64063e-07  1.28942e+07
       701.30000  2.63883e-07  1.28828e+07
       701.40000  2.63883e-07  1.28828e+07
       701.50000  2.68952e-07  1.31302e+07
       701.60000  2.68952e-07  1.31302e+07
       701.70000  2.68952e-07  1.31302e+07
       701.80000  2.68952e-07  1.31329e+07
       701.90000  2.68952e-07  1.31329e+07
       702.00000  2.68952e-07  1.31356e+07
       702.10000  2.68952e-07  1.31410e+07
       702.20000  2.68952e-07  1.31437e+07
       702.30000  2.68952e-07  1.31491e+07
       702.40000  2.68952e-07  1.31518e+07
       702.50000  3.39029e-07  1.65853e+07
       702.60000  3.39029e-07  1.65955e+07
       702.70000  3.39029e-07  1.66022e+07
       702.80000  3.39029e-07  1.66124e+07
       702.90000  3.39029e-07  1.66226e+07
       703.00000  3.39029e-07  1.66328e+07
       703.10000  3.39029e-07  1.66633e+07
       703.20000  3.39029e-07  1.66938e+07
       703.30000  3.39029e-07  1.67209e+07
       703.40000  3.39029e-07  1.67480e+07
       703.50000  3.92949e-07  1.94392e+07
       703.60000  3.92949e-07  1.94706e+07
       703.70000  3.92949e-07  1.94942e+07
       703.80000  3.91891e-07  1.94692e+07
       703.90000  3.91891e-07  1.94927e+07
       704.00000  3.91891e-07  1.95123e+07
       704.10000  3.91891e-07  1.95358e+07
       704.20000  3.91891e-07  1.95554e+07
       704.30000  3.91891e-07  1.95711e+07
       704.40000  3.91891e-07  1.95867e+07
       704.50000  3.65789e-07  1.82968e+07
       704.60000  3.65789e-07  1.83114e+07
       704.70000  3.65789e-07  1.83224e+07
       704.80000  3.65789e-07  1.83297e+07
       704.90000  3.65789e-07  1.83406e+07
       705.00000  3.65789e-07  1.83480e+07
       705.10000  3.65789e-07  1.83516e+07
       705.20000  3.65789e-07  1.83553e+07
       705.30000  3.65789e-07  1.83589e+07
       705.40000  3.65789e-07  1.83626e+07
       705.50000  3.97678e-07  1.99635e+07
       705.60000  3.97678e-07  1.99635e+07
       705.70000  3.97678e-07  1.99595e+07
       705.80000  3.97678e-07  1.99555e+07
       705.90000  3.97678e-07  1.99515e+07
       706.00000  3.97678e-07  1.99436e+07
       706.10000  3.97678e-07  1.99356e+07
       706.20000  3.97678e-07  1.99237e+07
       706.30000  3.97977e-07  1.99267e+07
       706.40000  3.97977e-07  1.99148e+07
       706.50000  4.44650e-07  2.22325e+07
       706.60000  4.44650e-07  2.22147e+07
       706.70000  4.44650e-07  2.21969e+07
       706.80000  4.44650e-07  2.21747e+07
       706.90000  4.44650e-07  2.21524e+07
       707.00000  4.44650e-07  2.21302e+07
       707.10000  4.44650e-07  2.21124e+07
       707.20000  4.44650e-07  2.20991e+07
       707.30000  4.44650e-07  2.20813e+07
       707.40000  4.44650e-07  2.20680e+07
       707.50000  6.20815e-07  3.07924e+07
       707.60000  6.20815e-07  3.07738e+07
       707.70000  6.20815e-07  3.07614e+07
       707.80000  6.20815e-07  3.07428e+07
       707.90000  6.20815e-07  3.07304e+07
       708.00000  6.20815e-07  3.07179e+07
       708.10000  6.20815e-07  3.07055e+07
       708.20000  6.20815e-07  3.06931e+07
       708.30000  6.20815e-07  3.06807e+07
       708.40000  6.20815e-07  3.06683e+07
       708.50000  5.38693e-07  2.66061e+07
       708.60000  5.38693e-07  2.65953e+07
       708.70000  5.38693e-07  2.65899e+07
       708.80000  5.36859e-07  2.64940e+07
       708.90000  5.36859e-07  2.64886e+07
       709.00000  5.36859e-07  2.64886e+07
       709.10000  5.36859e-07  2.64994e+07
       709.20000  5.36859e-07  2.65101e+07
       709.30000  5.36859e-07  2.65155e+07
       709.40000  5.36859e-07  2.65262e+07
       709.50000  3.99930e-07  1.97645e+07
       709.60000  3.99930e-07  1.97725e+07
       709.70000  3.99930e-07  1.97765e+07
       709.80000  3.99930e-07  1.97805e+07
       709.90000  3.99930e-07  1.97845e+07
       710.00000  3.99930e-07  1.97885e+07
       710.10000  3.99930e-07  1.97925e+07
       710.20000  3.99930e-07  1.97965e+07
       710.30000  3.99930e-07  1.97965e+07
       710.40000  3.99930e-07  1.98005e+07
       710.50000  6.78042e-07  3.35698e+07
       710.60000  6.78042e-07  3.35698e+07
       710.70000  6.78042e-07  3.35698e+07
       710.80000  6.78042e-07  3.35698e+07
       710.90000  6.78042e-07  3.35698e+07
       711.00000  6.78042e-07  3.35698e+07
       711.10000  6.78042e-07  3.35698e+07
       711.20000  6.78042e-07  3.35631e+07
       711.30000  6.78188e-07  3.35703e+07
       711.40000  6.78188e-07  3.35635e+07
       711.50000  1.15758e-06  5.72771e+07
       711.60000  1.15758e-06  5.72656e+07
       711.70000  1.15758e-06  5.72540e+07
       711.80000  1.15758e-06  5.72424e+07
       711.90000  1.15758e-06  5.72308e+07
       712.00000  1.15758e-06  5.72077e+07
       712.10000  1.15758e-06  5.71961e+07
       712.20000  1.15758e-06  5.71730e+07
       712.30000  1.15758e-06  5.71614e+07
       712.40000  1.15758e-06  5.71382e+07
       712.50000  1.46215e-06  7.21426e+07
       712.60000  1.46215e-06  7.21133e+07
       712.70000  1.46215e-06  7.20694e+07
       712.80000  1.46215e-06  7.20402e+07
       712.90000  1.46215e-06  7.20110e+07
       713.00000  1.46215e-06  7.19671e+07
       713.10000  1.46215e-06  7.19671e+07
       713.20000  1.46215e-06  7.19671e+07
       713.30000  1.46215e-06  7.19671e+07
       713.40000  1.46215e-06  7.19525e+07
       713.50000  1.99508e-06  9.81777e+07
       713.60000  1.99508e-06  9.81777e+07
       713.70000  1.99508e-06  9.81578e+07
       713.80000  1.99461e-06  9.81348e+07
       713.90000  1.99461e-06  9.81149e+07
       714.00000  1.99461e-06  9.81149e+07
       714.10000  1.99461e-06  9.80949e+07
       714.20000  1.99461e-06  9.80750e+07
       714.30000  1.99461e-06  9.80750e+07
       714.40000  1.99461e-06  9.80550e+07
       714.50000  3.99192e-06  1.96203e+08
       714.60000  3.99192e-06  1.96163e+08
       714.70000  3.99192e-06  1.96163e+08
       714.80000  3.99192e-06  1.96123e+08
       714.90000  3.99192e-06  1.96083e+08
       715.00000  3.99192e-06  1.96043e+08
       715.10000  3.99192e-06  1.96003e+08
       715.20000  3.99192e-06  1.96003e+08
       715.30000  3.99192e-06  1.96003e+08
       715.40000  3.99192e-06  1.95963e+08
       715.50000  5.99126e-06  2.94051e+08
       715.60000  5.99126e-06  2.93991e+08
       715.70000  5.99126e-06  2.93931e+08
       715.80000  5.99126e-06  2.93871e+08
       715.90000  5.99126e-06  2.93812e+08
       716.00000  5.99126e-06  2.93692e+08
       716.10000  5.99126e-06  2.93632e+08
       716.20000  5.99126e-06  2.93512e+08
       716.30000  5.98262e-06  2.92969e+08
       716.40000  5.98262e-06  2.92849e+08
       716.50000  6.65004e-06  3.25386e+08
       716.60000  6.65004e-06  3.25253e+08
       716.70000  6.65004e-06  3.25120e+08
       716.80000  6.65004e-06  3.24921e+08
       716.90000  6.65004e-06  3.24788e+08
       717.00000  6.65004e-06  3.24588e+08
       717.10000  5.98260e-06  2.91831e+08
       717.20000  5.98260e-06  2.91652e+08
       717.30000  7.97680e-06  3.88630e+08
       717.40000  5.98260e-06  2.91293e+08
       717.50000  7.98593e-06  3.88595e+08
       717.60000  3.99296e-06  1.94138e+08
       717.70000  7.98593e-06  3.88036e+08
       717.80000  5.98945e-06  2.90788e+08
       717.90000  7.98593e-06  3.87397e+08
       718.00000  7.98593e-06  3.87078e+08
       718.10000  5.98945e-06  2.90069e+08
       718.20000  9.98241e-06  4.83049e+08
       718.30000  9.98241e-06  4.82650e+08
       718.40000  1.19789e-05  5.78580e+08
       718.50000  1.19943e-05  5.78847e+08
       718.60000  1.19943e-05  5.78247e+08
       718.70000  1.39934e-05  6.73922e+08
       718.80000  1.39359e-05  6.70457e+08
       718.90000  1.79176e-05  8.61120e+08
       719.00000  1.59268e-05  7.64644e+08
       719.10000  2.38901e-05  1.14697e+09
       719.20000  1.99085e-05  9.55805e+08
       719.30000  2.18993e-05  1.05139e+09
       719.40000  2.58810e-05  1.24281e+09
       719.50000  2.78758e-05  1.33859e+09
       719.60000  2.98669e-05  1.43451e+09
       719.70000  3.18580e-05  1.53014e+09
       719.80000  3.38491e-05  1.62611e+09
       719.90000  3.38491e-05  1.62645e+09
       720.00000  4.38048e-05  2.10569e+09
       720.10000  4.57959e-05  2.20187e+09
       720.20000  4.57959e-05  2.20232e+09
       720.30000  5.37604e-05  2.58641e+09
       720.40000  5.37604e-05  2.58695e+09
       720.50000  6.37093e-05  3.06697e+09
       720.60000  7.16730e-05  3.45177e+09
       720.70000  7.76458e-05  3.74097e+09
       720.80000  8.36185e-05  4.03041e+09
       720.90000  9.75549e-05  4.70507e+09
       721.00000  9.95459e-05  4.80309e+09
       721.10000  0.000107510  5.19271e+09
       721.20000  0.000123437  5.96817e+09
       721.30000  0.000129146  6.25068e+09
       721.40000  0.000147028  7.12203e+09
       721.50000  0.000165008  8.00125e+09
       721.60000  0.000168984  8.20081e+09
       721.70000  0.000200793  9.75252e+09
       721.80000  0.000230614  1.12124e+10
       721.90000  0.000240554  1.17054e+10
       722.00000  0.000284291  1.38421e+10
       722.10000  0.000322064  1.56942e+10
       722.20000  0.000347909  1.69675e+10
       722.30000  0.000391646  1.91123e+10
       722.40000  0.000467192  2.28130e+10
       722.50000  0.000497758  2.43205e+10
       722.60000  0.000599301  2.93058e+10
       722.70000  0.000686906  3.36034e+10
       722.80000  0.000764556  3.74250e+10
       722.90000  0.000899946  4.40794e+10
       723.00000   0.00107715  5.27803e+10
       723.10000   0.00118068  5.78888e+10
       723.20000   0.00142757  7.00223e+10
       723.30000   0.00171229  8.40219e+10
       723.40000   0.00187555  9.20708e+10
       723.50000   0.00230365  1.13132e+11
       723.60000   0.00288504  1.41713e+11
       723.70000   0.00314786  1.54686e+11
       723.80000   0.00388256  1.90828e+11
       723.90000   0.00482739  2.37315e+11
       724.00000   0.00547846  2.69376e+11
       724.10000   0.00692151  3.40400e+11
       724.20000   0.00884294  4.34984e+11
       724.30000    0.0101252  4.98161e+11
       724.40000    0.0128168  6.30715e+11
       724.50000    0.0163764  8.05881e+11
       724.60000    0.0184378  9.07325e+11
       724.70000    0.0240184  1.18195e+12
       724.80000    0.0306079  1.50621e+12
       724.90000    0.0337934  1.66297e+12
       725.00000    0.0427045  2.10149e+12
       725.10000    0.0537266  2.64496e+12
       725.20000    0.0606577  2.98739e+12
       725.30000    0.0747701  3.68317e+12
       725.40000    0.0896391  4.41741e+12
       725.50000    0.0985188  4.85599e+12
       725.60000     0.114722  5.65579e+12
       725.70000     0.130603  6.43873e+12
       725.80000     0.138187  6.81399e+12
       725.90000     0.149915  7.39231e+12
       726.00000     0.158950  7.83782e+12
       726.10000     0.161302  7.95378e+12
       726.20000     0.165953  8.18315e+12
       726.30000     0.168033  8.28405e+12
       726.40000     0.168008  8.28110e+12
       726.50000     0.168498  8.30358e+12
       726.60000     0.168557  8.30483e+12
       726.70000     0.168508  8.30070e+12
       726.80000     0.168296  8.28687e+12
       726.90000     0.168684  8.30265e+12
       727.00000     0.168895  8.30962e+12
       727.10000     0.170278  8.36576e+12
       727.20000     0.170234  8.35169e+12
       727.30000     0.170996  8.37711e+12
       727.40000     0.171230  8.37831e+12
       727.50000     0.172183  8.41459e+12
       727.60000     0.172274  8.40871e+12
       727.70000     0.172622  8.41703e+12
       727.80000     0.172614  8.40801e+12
       727.90000     0.172816  8.40923e+12
       728.00000     0.172546  8.38919e+12
       728.10000     0.171885  8.35019e+12
       728.20000     0.171826  8.34043e+12
       728.30000     0.170407  8.26475e+12
       728.40000     0.169294  8.20569e+12
       728.50000     0.168215  8.14831e+12
       728.60000     0.165446  8.01088e+12
       728.70000     0.161488  7.81441e+12
       728.80000     0.159098  7.69717e+12
       728.90000     0.152249  7.36276e+12
       729.00000     0.142103  6.87066e+12
       729.10000     0.136959  6.62059e+12
       729.20000     0.124097  5.99759e+12
       729.30000     0.109948  5.31378e+12
       729.40000     0.100677  4.86470e+12
       729.50000    0.0849422  4.10526e+12
       729.60000    0.0688595  3.32798e+12
       729.70000    0.0616153  2.97848e+12
       729.80000    0.0490235  2.37029e+12
       729.90000    0.0381453  1.84509e+12
       730.00000    0.0340381  1.64710e+12
       730.10000    0.0259570  1.25658e+12
       730.20000    0.0203092  9.83573e+11
       730.30000    0.0179156  8.68192e+11
       730.40000    0.0142200  6.89527e+11
       730.50000    0.0111044  5.38785e+11
       730.60000   0.00975014  4.73467e+11
       730.70000   0.00767006  3.72765e+11
       730.80000   0.00617264  3.00237e+11
       730.90000   0.00549850  2.67722e+11
       731.00000   0.00443658  2.16239e+11
       731.10000   0.00358148  1.74526e+11
       731.20000   0.00326529  1.59085e+11
       731.30000   0.00270252  1.31640e+11
       731.40000   0.00219579  1.06957e+11
       731.50000   0.00206361  1.00498e+11
       731.60000   0.00169979  8.27629e+10
       731.70000   0.00140755  6.85194e+10
       731.80000   0.00132007  6.42612e+10
       731.90000   0.00111133  5.40883e+10
       732.00000  0.000950294  4.62413e+10
       732.10000  0.000854867  4.15893e+10
       732.20000  0.000727631  3.53920e+10
       732.30000  0.000626239  3.04603e+10
       732.40000  0.000582502  2.83271e+10
       732.50000  0.000499444  2.42830e+10
       732.60000  0.000443729  2.15697e+10
       732.70000  0.000413882  2.01147e+10
       732.80000  0.000366127  1.77901e+10
       732.90000  0.000316381  1.53698e+10
       733.00000  0.000276585  1.34337e+10
       733.10000  0.000260666  1.26579e+10
       733.20000  0.000226839  1.10108e+10
       733.30000  0.000208931  1.01394e+10
       733.40000  0.000193012  9.36303e+09
       733.50000  0.000171133  8.29996e+09
       733.60000  0.000159194  7.71930e+09
       733.70000  0.000141284  6.84805e+09
       733.80000  0.000135091  6.54652e+09
       733.90000  0.000109265  5.29388e+09
       734.00000  0.000109265  5.29279e+09
       734.10000  0.000101318  4.90685e+09
       734.20000  9.73451e-05  4.71345e+09
       734.30000  8.34386e-05  4.03926e+09
       734.40000  7.74787e-05  3.75075e+09
       734.50000  6.96086e-05  3.36906e+09
       734.60000  6.56310e-05  3.17588e+09
       734.70000  5.96645e-05  2.88717e+09
       734.80000  5.96645e-05  2.88657e+09
       734.90000  5.17093e-05  2.50169e+09
       735.00000  5.17093e-05  2.50118e+09
       735.10000  4.37540e-05  2.11638e+09
       735.20000  3.97764e-05  1.92398e+09
       735.30000  3.77875e-05  1.82778e+09
       735.40000  3.18211e-05  1.53887e+09
       735.50000  2.98764e-05  1.44482e+09
       735.60000  2.98764e-05  1.44482e+09
       735.70000  2.58929e-05  1.25218e+09
       735.80000  1.99176e-05  9.63415e+08
       735.90000  2.58929e-05  1.25244e+09
       736.00000  2.58929e-05  1.25244e+09
       736.10000  2.19094e-05  1.05976e+09
       736.20000  1.99176e-05  9.63614e+08
       736.30000  1.78916e-05  8.65597e+08
       736.40000  1.78916e-05  8.65776e+08
       736.50000  1.58996e-05  7.69380e+08
       736.60000  1.19247e-05  5.77154e+08
       736.70000  1.39121e-05  6.73486e+08
       736.80000  1.58996e-05  7.69698e+08
       736.90000  1.58996e-05  7.69857e+08
       737.00000  1.78870e-05  8.66268e+08
       737.10000  1.78870e-05  8.65374e+08
       737.20000  1.78870e-05  8.64301e+08
       737.30000  1.78870e-05  8.63406e+08
       737.40000  1.78870e-05  8.62512e+08
       737.50000  1.59102e-05  7.66237e+08
       737.60000  1.59102e-05  7.65442e+08
       737.70000  1.59102e-05  7.64646e+08
       737.80000  1.59102e-05  7.63851e+08
       737.90000  1.59102e-05  7.63214e+08
       738.00000  1.59102e-05  7.62419e+08
       738.10000  1.59102e-05  7.61623e+08
       738.20000  1.59102e-05  7.60828e+08
       738.30000  1.59102e-05  7.60191e+08
       738.40000  1.59102e-05  7.59555e+08
       738.50000  7.96345e-06  3.79777e+08
       738.60000  7.96345e-06  3.79459e+08
       738.70000  7.96345e-06  3.79140e+08
       738.80000  7.93000e-06  3.77230e+08
       738.90000  7.93000e-06  3.76913e+08
       739.00000  7.93000e-06  3.76596e+08
       739.10000  7.93000e-06  3.75961e+08
       739.20000  7.93000e-06  3.75406e+08
       739.30000  7.93000e-06  3.74930e+08
       739.40000  7.93000e-06  3.74455e+08
       739.50000  3.96656e-06  1.87063e+08
       739.60000  3.96656e-06  1.86865e+08
       739.70000  3.96656e-06  1.86706e+08
       739.80000  3.96656e-06  1.86508e+08
       739.90000  3.96656e-06  1.86389e+08
       740.00000  3.96656e-06  1.86230e+08
       740.10000  3.96656e-06  1.86151e+08
       740.20000  3.96656e-06  1.86032e+08
       740.30000  3.96656e-06  1.85953e+08
       740.40000  3.96656e-06  1.85913e+08
       740.50000  1.98553e-06  9.30420e+07
       740.60000  1.98553e-06  9.30222e+07
       740.70000  1.98553e-06  9.30222e+07
       740.80000  1.98553e-06  9.30222e+07
       740.90000  1.98553e-06  9.30420e+07
       741.00000  1.98553e-06  9.30619e+07
       741.10000  1.98553e-06  9.31016e+07
       741.20000  1.98553e-06  9.31413e+07
       741.30000  1.98418e-06  9.31176e+07
       741.40000  1.98418e-06  9.31772e+07
       741.50000  1.98304e-06  9.31828e+07
       741.60000  1.98304e-06  9.32622e+07
       741.70000  1.98304e-06  9.33613e+07
       741.80000  1.98304e-06  9.34406e+07
       741.90000  1.98304e-06  9.35596e+07
       742.00000  1.98304e-06  9.36588e+07
       742.10000  1.98304e-06  9.37778e+07
       742.20000  1.98304e-06  9.39166e+07
       742.30000  1.98304e-06  9.40554e+07
       742.40000  1.98304e-06  9.41942e+07
       742.50000  1.35867e-06  6.46454e+07
       742.60000  1.35867e-06  6.47541e+07
       742.70000  1.35867e-06  6.48764e+07
       742.80000  1.35867e-06  6.49987e+07
       742.90000  1.35867e-06  6.51345e+07
       743.00000  1.35867e-06  6.52704e+07
       743.10000  1.35867e-06  6.52432e+07
       743.20000  1.35867e-06  6.52296e+07
       743.30000  1.35867e-06  6.52160e+07
       743.40000  1.35867e-06  6.51889e+07
       743.50000  1.16457e-06  5.58645e+07
       743.60000  1.16457e-06  5.58529e+07
       743.70000  1.16457e-06  5.58412e+07
       743.80000  1.16405e-06  5.58046e+07
       743.90000  1.16405e-06  5.57930e+07
       744.00000  1.16405e-06  5.57814e+07
       744.10000  1.16405e-06  5.57814e+07
       744.20000  1.16405e-06  5.57697e+07
       744.30000  1.16405e-06  5.57697e+07
       744.40000  1.16405e-06  5.57697e+07
       744.50000  8.62831e-07  4.13296e+07
       744.60000  8.62831e-07  4.13296e+07
       744.70000  8.62831e-07  4.13296e+07
       744.80000  8.62831e-07  4.13296e+07
       744.90000  8.62831e-07  4.13382e+07
       745.00000  8.62831e-07  4.13382e+07
       745.10000  8.62831e-07  4.13641e+07
       745.20000  8.62831e-07  4.13900e+07
       745.30000  8.62831e-07  4.14072e+07
       745.40000  8.62831e-07  4.14331e+07
       745.50000  7.57333e-07  3.63823e+07
       745.60000  7.57333e-07  3.63974e+07
       745.70000  7.57333e-07  3.64126e+07
       745.80000  7.57333e-07  3.64277e+07
       745.90000  7.57333e-07  3.64353e+07
       746.00000  7.57333e-07  3.64504e+07
       746.10000  7.57333e-07  3.64580e+07
       746.20000  7.57333e-07  3.64656e+07
       746.30000  7.53879e-07  3.63068e+07
       746.40000  7.53879e-07  3.63143e+07
       746.50000  6.61903e-07  3.18905e+07
       746.60000  6.61903e-07  3.18905e+07
       746.70000  6.61903e-07  3.18971e+07
       746.80000  6.61903e-07  3.18971e+07
       746.90000  6.61903e-07  3.18971e+07
       747.00000  6.61903e-07  3.18971e+07
       747.10000  6.61903e-07  3.18772e+07
       747.20000  6.61903e-07  3.18640e+07
       747.30000  6.61903e-07  3.18508e+07
       747.40000  6.61903e-07  3.18375e+07
       747.50000  5.98386e-07  2.87704e+07
       747.60000  5.98386e-07  2.87584e+07
       747.70000  5.98386e-07  2.87465e+07
       747.80000  5.98386e-07  2.87345e+07
       747.90000  5.98386e-07  2.87225e+07
       748.00000  5.98386e-07  2.87106e+07
       748.10000  5.98386e-07  2.87046e+07
       748.20000  5.98386e-07  2.86926e+07
       748.30000  5.98386e-07  2.86807e+07
       748.40000  5.98386e-07  2.86747e+07
       748.50000  5.55029e-07  2.65859e+07
       748.60000  5.55029e-07  2.65748e+07
       748.70000  5.55029e-07  2.65693e+07
       748.80000  5.53073e-07  2.64645e+07
       748.90000  5.53073e-07  2.64590e+07
       749.00000  5.53073e-07  2.64535e+07
       749.10000  5.53073e-07  2.64424e+07
       749.20000  5.53073e-07  2.64369e+07
       749.30000  5.53073e-07  2.64313e+07
       749.40000  5.53073e-07  2.64258e+07
       749.50000  4.91568e-07  2.34822e+07
       749.60000  4.91568e-07  2.34773e+07
       749.70000  4.91568e-07  2.34675e+07
       749.80000  4.91568e-07  2.34625e+07
       749.90000  4.91568e-07  2.34625e+07
       750.00000  4.91568e-07  2.34576e+07
       750.10000  4.91568e-07  2.34527e+07
       750.20000  4.91568e-07  2.34478e+07
       750.30000  4.91568e-07  2.34429e+07
       750.40000  4.91568e-07  2.34429e+07
       750.50000  3.73352e-07  1.78014e+07
       750.60000  3.73352e-07  1.77977e+07
       750.70000  3.73352e-07  1.77977e+07
       750.80000  3.73352e-07  1.77940e+07
       750.90000  3.73352e-07  1.77940e+07
       751.00000  3.73352e-07  1.77902e+07
       751.10000  3.73352e-07  1.77902e+07
       751.20000  3.73352e-07  1.77902e+07
       751.30000  3.72517e-07  1.77467e+07
       751.40000  3.72517e-07  1.77467e+07
       751.50000  4.46878e-07  2.12893e+07
       751.60000  4.46878e-07  2.12893e+07
       751.70000  4.46878e-07  2.12893e+07
       751.80000  4.46878e-07  2.12893e+07
       751.90000  4.46878e-07  2.12893e+07
       752.00000  4.46878e-07  2.12893e+07
       752.10000  4.46878e-07  2.12893e+07
       752.20000  4.46878e-07  2.12893e+07
       752.30000  4.46878e-07  2.12893e+07
       752.40000  4.46878e-07  2.12893e+07
       752.50000  3.87797e-07  1.84785e+07
       752.60000  3.87797e-07  1.84785e+07
       752.70000  3.87797e-07  1.84785e+07
       752.80000  3.87797e-07  1.84824e+07
       752.90000  3.87797e-07  1.84824e+07
       753.00000  3.87797e-07  1.84863e+07
       753.10000  3.87797e-07  1.84863e+07
       753.20000  3.87797e-07  1.84863e+07
       753.30000  3.87797e-07  1.84863e+07
       753.40000  3.87797e-07  1.84863e+07
       753.50000  3.16591e-07  1.50919e+07
       753.60000  3.16591e-07  1.50919e+07
       753.70000  3.16591e-07  1.50919e+07
       753.80000  3.16432e-07  1.50843e+07
       753.90000  3.16432e-07  1.50843e+07
       754.00000  3.16432e-07  1.50843e+07
       754.10000  3.16432e-07  1.50843e+07
       754.20000  3.16432e-07  1.50811e+07
       754.30000  3.16432e-07  1.50811e+07
       754.40000  3.16432e-07  1.50811e+07
       754.50000  5.88721e-07  2.80585e+07
       754.60000  5.88721e-07  2.80585e+07
       754.70000  5.88721e-07  2.80526e+07
       754.80000  5.88721e-07  2.80526e+07
       754.90000  5.88721e-07  2.80467e+07
       755.00000  5.88721e-07  2.80467e+07
       755.10000  5.88721e-07  2.80408e+07
       755.20000  5.88721e-07  2.80408e+07
       755.30000  5.88721e-07  2.80349e+07
       755.40000  5.88721e-07  2.80349e+07
       755.50000  3.58404e-07  1.70636e+07
       755.60000  3.58404e-07  1.70600e+07
       755.70000  3.58404e-07  1.70600e+07
       755.80000  3.58404e-07  1.70564e+07
       755.90000  3.58404e-07  1.70529e+07
       756.00000  3.58404e-07  1.70529e+07
       756.10000  3.58404e-07  1.70493e+07
       756.20000  3.58404e-07  1.70457e+07
       756.30000  3.57833e-07  1.70150e+07
       756.40000  3.57833e-07  1.70150e+07
       756.50000  3.42097e-07  1.62633e+07
       756.60000  3.42097e-07  1.62599e+07
       756.70000  3.42097e-07  1.62564e+07
       756.80000  3.42097e-07  1.62564e+07
       756.90000  3.42097e-07  1.62530e+07
       757.00000  3.42097e-07  1.62496e+07
       757.10000  3.42097e-07  1.62462e+07
       757.20000  3.42097e-07  1.62428e+07
       757.30000  3.42097e-07  1.62428e+07
       757.40000  3.42097e-07  1.62393e+07
       757.50000  4.09412e-07  1.94307e+07
       757.60000  4.09412e-07  1.94266e+07
       757.70000  4.09412e-07  1.94225e+07
       757.80000  4.09412e-07  1.94184e+07
       757.90000  4.09412e-07  1.94143e+07
       758.00000  4.09412e-07  1.94143e+07
       758.10000  4.09412e-07  1.94102e+07
       758.20000  4.09412e-07  1.94061e+07
       758.30000  4.09412e-07  1.94020e+07
       758.40000  4.09412e-07  1.93980e+07
       758.50000  3.39027e-07  1.60597e+07
       758.60000  3.39027e-07  1.60563e+07
       758.70000  3.39027e-07  1.60529e+07
       758.80000  3.38112e-07  1.60062e+07
       758.90000  3.38112e-07  1.60028e+07
       759.00000  3.38112e-07  1.59995e+07
       759.10000  3.38112e-07  1.59995e+07
       759.20000  3.38112e-07  1.59961e+07
       759.30000  3.38112e-07  1.59961e+07
       759.40000  3.38112e-07  1.59927e+07
       759.50000  4.32307e-07  2.04481e+07
       759.60000  4.32307e-07  2.04481e+07
       759.70000  4.32307e-07  2.04438e+07
       759.80000  4.32307e-07  2.04438e+07
       759.90000  4.32307e-07  2.04438e+07
       760.00000  4.32307e-07  2.04438e+07
       760.10000  4.32307e-07  2.04438e+07
       760.20000  4.32307e-07  2.04438e+07
       760.30000  4.32307e-07  2.04481e+07
       760.40000  4.32307e-07  2.04481e+07
       760.50000  3.37338e-07  1.59561e+07
       760.60000  3.37338e-07  1.59595e+07
       760.70000  3.37338e-07  1.59595e+07
       760.80000  3.37338e-07  1.59628e+07
       760.90000  3.37338e-07  1.59628e+07
       761.00000  3.37338e-07  1.59662e+07
       761.10000  3.37338e-07  1.59797e+07
       761.20000  3.37338e-07  1.59898e+07
       761.30000  3.36637e-07  1.59667e+07
       761.40000  3.36637e-07  1.59768e+07
       761.50000  2.65339e-07  1.26009e+07
       761.60000  2.65339e-07  1.26063e+07
       761.70000  2.65339e-07  1.26116e+07
       761.80000  2.65339e-07  1.26169e+07
       761.90000  2.65339e-07  1.26222e+07
       762.00000  2.65339e-07  1.26248e+07
       762.10000  2.65339e-07  1.26301e+07
       762.20000  2.65339e-07  1.26328e+07
       762.30000  2.65339e-07  1.26354e+07
       762.40000  2.65339e-07  1.26354e+07
       762.50000  2.60169e-07  1.23892e+07
       762.60000  2.60169e-07  1.23918e+07
       762.70000  2.60169e-07  1.23918e+07
       762.80000  2.60169e-07  1.23892e+07
       762.90000  2.60169e-07  1.23892e+07
       763.00000  2.60169e-07  1.23866e+07
       763.10000  2.60169e-07  1.23840e+07
       763.20000  2.60169e-07  1.23814e+07
       763.30000  2.60169e-07  1.23762e+07
       763.40000  2.60169e-07  1.23710e+07
       763.50000  4.21456e-07  2.00318e+07
       763.60000  4.21456e-07  2.00234e+07
       763.70000  4.21456e-07  2.00149e+07
       763.80000  4.20377e-07  1.99511e+07
       763.90000  4.20377e-07  1.99385e+07
       764.00000  4.20377e-07  1.99259e+07
       764.10000  4.20377e-07  1.99133e+07
       764.20000  4.20377e-07  1.98964e+07
       764.30000  4.20377e-07  1.98796e+07
       764.40000  4.20377e-07  1.98628e+07
       764.50000  3.99716e-07  1.88706e+07
       764.60000  3.99716e-07  1.88546e+07
       764.70000  3.99716e-07  1.88346e+07
       764.80000  3.99716e-07  1.88146e+07
       764.90000  3.99716e-07  1.87947e+07
       765.00000  3.99716e-07  1.87707e+07
       765.10000  3.99716e-07  1.87267e+07
       765.20000  3.99716e-07  1.86827e+07
       765.30000  3.99716e-07  1.86428e+07
       765.40000  3.99716e-07  1.86028e+07
       765.50000  3.06405e-07  1.42325e+07
       765.60000  3.06405e-07  1.42080e+07
       765.70000  3.06405e-07  1.41804e+07
       765.80000  3.06405e-07  1.41590e+07
       765.90000  3.06405e-07  1.41375e+07
       766.00000  3.06405e-07  1.41161e+07
       766.10000  3.06405e-07  1.40977e+07
       766.20000  3.06405e-07  1.40793e+07
       766.30000  3.06397e-07  1.40636e+07
       766.40000  3.06397e-07  1.40514e+07
       766.50000  2.76549e-07  1.26715e+07
       766.60000  2.76549e-07  1.26604e+07
       766.70000  2.76549e-07  1.26549e+07
       766.80000  2.76549e-07  1.26466e+07
       766.90000  2.76549e-07  1.26411e+07
       767.00000  2.76549e-07  1.26383e+07
       767.10000  2.76549e-07  1.26521e+07
       767.20000  2.76549e-07  1.26687e+07
       767.30000  2.76549e-07  1.26825e+07
       767.40000  2.76549e-07  1.26964e+07
       767.50000  2.89138e-07  1.32888e+07
       767.60000  2.89138e-07  1.33032e+07
       767.70000  2.89138e-07  1.33177e+07
       767.80000  2.89138e-07  1.33293e+07
       767.90000  2.89138e-07  1.33437e+07
       768.00000  2.89138e-07  1.33553e+07
       768.10000  2.89138e-07  1.33669e+07
       768.20000  2.89138e-07  1.33784e+07
       768.30000  2.89138e-07  1.33871e+07
       768.40000  2.89138e-07  1.33987e+07
       768.50000  4.00673e-07  1.85792e+07
       768.60000  4.00673e-07  1.85912e+07
       768.70000  4.00673e-07  1.86032e+07
       768.80000  4.00460e-07  1.86054e+07
       768.90000  4.00460e-07  1.86174e+07
       769.00000  4.00460e-07  1.86254e+07
       769.10000  4.00460e-07  1.86374e+07
       769.20000  4.00460e-07  1.86454e+07
       769.30000  4.00460e-07  1.86534e+07
       769.40000  4.00460e-07  1.86614e+07
       769.50000  3.48791e-07  1.62571e+07
       769.60000  3.48791e-07  1.62641e+07
       769.70000  3.48791e-07  1.62676e+07
       769.80000  3.48791e-07  1.62746e+07
       769.90000  3.48791e-07  1.62781e+07
       770.00000  3.48791e-07  1.62781e+07
       770.10000  3.48791e-07  1.62815e+07
       770.20000  3.48791e-07  1.62850e+07
       770.30000  3.48791e-07  1.62850e+07
       770.40000  3.48791e-07  1.62850e+07
       770.50000  3.16310e-07  1.47685e+07
       770.60000  3.16310e-07  1.47685e+07
       770.70000  3.16310e-07  1.47685e+07
       770.80000  3.16310e-07  1.47685e+07
       770.90000  3.16310e-07  1.47653e+07
       771.00000  3.16310e-07  1.47622e+07
       771.10000  3.16310e-07  1.47748e+07
       771.20000  3.16310e-07  1.47843e+07
       771.30000  3.15342e-07  1.47485e+07
       771.40000  3.15342e-07  1.47580e+07
       771.50000  3.55950e-07  1.66692e+07
       771.60000  3.55950e-07  1.66763e+07
       771.70000  3.55950e-07  1.66870e+07
       771.80000  3.55950e-07  1.66941e+07
       771.90000  3.55950e-07  1.66976e+07
       772.00000  3.55950e-07  1.67048e+07
       772.10000  3.55950e-07  1.67083e+07
       772.20000  3.55950e-07  1.67119e+07
       772.30000  3.55950e-07  1.67154e+07
       772.40000  3.55950e-07  1.67190e+07
       772.50000  2.54940e-07  1.19745e+07
       772.60000  2.54940e-07  1.19745e+07
       772.70000  2.54940e-07  1.19745e+07
       772.80000  2.54940e-07  1.19720e+07
       772.90000  2.54940e-07  1.19720e+07
       773.00000  2.54940e-07  1.19694e+07
       773.10000  2.54940e-07  1.19541e+07
       773.20000  2.54940e-07  1.19414e+07
       773.30000  2.54940e-07  1.19261e+07
       773.40000  2.54940e-07  1.19133e+07
       773.50000  2.90736e-07  1.35716e+07
       773.60000  2.90736e-07  1.35599e+07
       773.70000  2.90736e-07  1.35483e+07
       773.80000  2.89586e-07  1.34831e+07
       773.90000  2.89586e-07  1.34716e+07
       774.00000  2.89586e-07  1.34600e+07
       774.10000  2.89586e-07  1.34513e+07
       774.20000  2.89586e-07  1.34426e+07
       774.30000  2.89586e-07  1.34368e+07
       774.40000  2.89586e-07  1.34281e+07
       774.50000  3.07819e-07  1.42674e+07
       774.60000  3.07819e-07  1.42643e+07
       774.70000  3.07819e-07  1.42582e+07
       774.80000  3.07819e-07  1.42551e+07
       774.90000  3.07819e-07  1.42520e+07
       775.00000  3.07819e-07  1.42490e+07
       775.10000  3.07819e-07  1.42490e+07
       775.20000  3.07819e-07  1.42490e+07
       775.30000  3.07819e-07  1.42490e+07
       775.40000  3.07819e-07  1.42490e+07
       775.50000  3.46842e-07  1.60588e+07
       775.60000  3.46842e-07  1.60622e+07
       775.70000  3.46842e-07  1.60657e+07
       775.80000  3.46842e-07  1.60692e+07
       775.90000  3.46842e-07  1.60761e+07
       776.00000  3.46842e-07  1.60831e+07
       776.10000  3.46842e-07  1.60900e+07
       776.20000  3.46842e-07  1.61004e+07
       776.30000  3.45962e-07  1.60700e+07
       776.40000  3.45962e-07  1.60803e+07
       776.50000  3.79402e-07  1.76460e+07
       776.60000  3.79402e-07  1.76612e+07
       776.70000  3.79402e-07  1.76764e+07
       776.80000  3.79402e-07  1.76915e+07
       776.90000  3.79402e-07  1.77105e+07
       777.00000  3.79402e-07  1.77257e+07
       777.10000  3.79402e-07  1.77181e+07
       777.20000  3.79402e-07  1.77143e+07
       777.30000  3.79402e-07  1.77067e+07
       777.40000  3.79402e-07  1.76991e+07
       777.50000  3.85940e-07  1.79964e+07
       777.60000  3.85940e-07  1.79925e+07
       777.70000  3.85940e-07  1.79848e+07
       777.80000  3.85940e-07  1.79809e+07
       777.90000  3.85940e-07  1.79771e+07
       778.00000  3.85940e-07  1.79693e+07
       778.10000  3.85940e-07  1.79655e+07
       778.20000  3.85940e-07  1.79616e+07
       778.30000  3.85940e-07  1.79578e+07
       778.40000  3.85940e-07  1.79539e+07
       778.50000  3.50423e-07  1.63017e+07
       778.60000  3.50423e-07  1.62982e+07
       778.70000  3.50423e-07  1.62947e+07
       778.80000  3.49535e-07  1.62534e+07
       778.90000  3.49535e-07  1.62534e+07
       779.00000  3.49535e-07  1.62499e+07
       779.10000  3.49535e-07  1.62569e+07
       779.20000  3.49535e-07  1.62604e+07
       779.30000  3.49535e-07  1.62674e+07
       779.40000  3.49535e-07  1.62709e+07
       779.50000  3.32707e-07  1.54908e+07
       779.60000  3.32707e-07  1.54942e+07
       779.70000  3.32707e-07  1.54975e+07
       779.80000  3.32707e-07  1.55008e+07
       779.90000  3.32707e-07  1.55041e+07
       780.00000  3.32707e-07  1.55075e+07
       780.10000  3.32707e-07  1.55075e+07
       780.20000  3.32707e-07  1.55108e+07
       780.30000  3.32707e-07  1.55108e+07
       780.40000  3.32707e-07  1.55108e+07
       780.50000  2.90341e-07  1.35357e+07
       780.60000  2.90341e-07  1.35357e+07
       780.70000  2.90341e-07  1.35357e+07
       780.80000  2.90341e-07  1.35357e+07
       780.90000  2.90341e-07  1.35357e+07
       781.00000  2.90341e-07  1.35328e+07
       781.10000  2.90341e-07  1.35328e+07
       781.20000  2.90341e-07  1.35299e+07
       781.30000  2.88726e-07  1.34518e+07
       781.40000  2.88726e-07  1.34489e+07
       781.50000  3.28491e-07  1.52978e+07
       781.60000  3.28491e-07  1.52945e+07
       781.70000  3.28491e-07  1.52912e+07
       781.80000  3.28491e-07  1.52880e+07
       781.90000  3.28491e-07  1.52814e+07
       782.00000  3.28491e-07  1.52781e+07
       782.10000  3.28491e-07  1.52715e+07
       782.20000  3.28491e-07  1.52650e+07
       782.30000  3.28491e-07  1.52617e+07
       782.40000  3.28491e-07  1.52551e+07
       782.50000  3.44089e-07  1.59726e+07
       782.60000  3.44089e-07  1.59623e+07
       782.70000  3.44089e-07  1.59554e+07
       782.80000  3.44089e-07  1.59485e+07
       782.90000  3.44089e-07  1.59382e+07
       783.00000  3.44089e-07  1.59313e+07
       783.10000  3.44089e-07  1.59382e+07
       783.20000  3.44089e-07  1.59451e+07
       783.30000  3.44089e-07  1.59520e+07
       783.40000  3.44089e-07  1.59554e+07
       783.50000  3.27078e-07  1.51731e+07
       783.60000  3.27078e-07  1.51797e+07
       783.70000  3.27078e-07  1.51830e+07
       783.80000  3.25411e-07  1.51121e+07
       783.90000  3.25411e-07  1.51186e+07
       784.00000  3.25411e-07  1.51218e+07
       784.10000  3.25411e-07  1.51251e+07
       784.20000  3.25411e-07  1.51316e+07
       784.30000  3.25411e-07  1.51348e+07
       784.40000  3.25411e-07  1.51381e+07
       784.50000  3.87982e-07  1.80528e+07
       784.60000  3.87982e-07  1.80567e+07
       784.70000  3.87982e-07  1.80605e+07
       784.80000  3.87982e-07  1.80644e+07
       784.90000  3.87982e-07  1.80683e+07
       785.00000  3.87982e-07  1.80683e+07
       785.10000  3.87982e-07  1.80683e+07
       785.20000  3.87982e-07  1.80683e+07
       785.30000  3.87982e-07  1.80683e+07
       785.40000  3.87982e-07  1.80683e+07
       785.50000  2.17634e-07  1.01352e+07
       785.60000  2.17634e-07  1.01352e+07
       785.70000  2.17634e-07  1.01352e+07
       785.80000  2.17634e-07  1.01352e+07
       785.90000  2.17634e-07  1.01352e+07
       786.00000  2.17634e-07  1.01352e+07
       786.10000  2.17634e-07  1.01352e+07
       786.20000  2.17634e-07  1.01352e+07
       786.30000  2.17269e-07  1.01182e+07
       786.40000  2.17269e-07  1.01182e+07
       786.50000  2.08157e-07  9.69388e+06
       786.60000  2.08157e-07  9.69388e+06
       786.70000  2.08157e-07  9.69388e+06
       786.80000  2.08157e-07  9.69388e+06
       786.90000  2.08157e-07  9.69388e+06
       787.00000  2.08157e-07  9.69388e+06
       787.10000  2.08157e-07  9.69388e+06
       787.20000  2.08157e-07  9.69388e+06
       787.30000  2.08157e-07  9.69388e+06
       787.40000  2.08157e-07  9.69388e+06
       787.50000  2.25527e-07  1.05028e+07
       787.60000  2.25527e-07  1.05028e+07
       787.70000  2.25527e-07  1.05028e+07
       787.80000  2.25527e-07  1.05028e+07
       787.90000  2.25527e-07  1.05028e+07
       788.00000  2.25527e-07  1.05028e+07
       788.10000  2.25527e-07  1.05028e+07
       788.20000  2.25527e-07  1.05028e+07
       788.30000  2.25527e-07  1.05028e+07
       788.40000  2.25527e-07  1.05028e+07
       788.50000  2.01896e-07  9.40229e+06
       788.60000  2.01896e-07  9.40229e+06
       788.70000  2.01896e-07  9.40229e+06
       788.80000  2.01931e-07  9.40393e+06
       788.90000  2.01931e-07  9.40393e+06
       789.00000  2.01931e-07  9.40393e+06
       789.10000  2.01931e-07  9.39989e+06
       789.20000  2.01931e-07  9.39383e+06
       789.30000  2.01931e-07  9.38777e+06
       789.40000  2.01931e-07  9.38374e+06
       789.50000  1.59348e-07  7.40012e+06
       789.60000  1.59348e-07  7.39534e+06
       789.70000  1.59348e-07  7.39215e+06
       789.80000  1.59348e-07  7.38737e+06
       789.90000  1.59348e-07  7.38259e+06
       790.00000  1.59348e-07  7.37940e+06
       790.10000  1.59348e-07  7.37462e+06
       790.20000  1.59348e-07  7.37143e+06
       790.30000  1.59348e-07  7.36665e+06
       790.40000  1.59348e-07  7.36347e+06
       790.50000  2.11412e-07  9.76299e+06
       790.60000  2.11412e-07  9.75665e+06
       790.70000  2.11412e-07  9.75242e+06
       790.80000  2.11412e-07  9.74608e+06
       790.90000  2.11412e-07  9.74185e+06
       791.00000  2.11412e-07  9.73551e+06
       791.10000  2.11412e-07  9.72917e+06
       791.20000  2.11412e-07  9.72494e+06
       791.30000  2.10795e-07  9.69027e+06
       791.40000  2.10795e-07  9.68394e+06
       791.50000  1.58454e-07  7.27464e+06
       791.60000  1.58454e-07  7.26988e+06
       791.70000  1.58454e-07  7.26672e+06
       791.80000  1.58454e-07  7.26196e+06
       791.90000  1.58454e-07  7.25879e+06
       792.00000  1.58454e-07  7.25404e+06
       792.10000  1.58454e-07  7.25087e+06
       792.20000  1.58454e-07  7.24770e+06
       792.30000  1.58454e-07  7.24295e+06
       792.40000  1.58454e-07  7.23978e+06
       792.50000  1.44885e-07  6.61691e+06
       792.60000  1.44885e-07  6.61401e+06
       792.70000  1.44885e-07  6.61111e+06
       792.80000  1.44885e-07  6.60821e+06
       792.90000  1.44885e-07  6.60531e+06
       793.00000  1.44885e-07  6.60242e+06
       793.10000  1.44885e-07  6.59807e+06
       793.20000  1.44885e-07  6.59227e+06
       793.30000  1.44885e-07  6.58793e+06
       793.40000  1.44885e-07  6.58358e+06
       793.50000  1.47188e-07  6.68380e+06
       793.60000  1.47188e-07  6.68085e+06
       793.70000  1.47188e-07  6.67644e+06
       793.80000  1.46768e-07  6.65592e+06
       793.90000  1.46768e-07  6.65299e+06
       794.00000  1.46768e-07  6.65152e+06
       794.10000  1.46768e-07  6.64858e+06
       794.20000  1.46768e-07  6.64858e+06
       794.30000  1.46768e-07  6.64712e+06
       794.40000  1.46768e-07  6.64712e+06
       794.50000  9.42309e-08  4.26772e+06
       794.60000  9.42309e-08  4.26772e+06
       794.70000  9.42309e-08  4.26866e+06
       794.80000  9.42309e-08  4.26866e+06
       794.90000  9.42309e-08  4.26960e+06
       795.00000  9.42309e-08  4.27149e+06
       795.10000  9.42309e-08  4.27808e+06
       795.20000  9.42309e-08  4.28468e+06
       795.30000  9.42309e-08  4.29127e+06
       795.40000  9.42309e-08  4.29787e+06
       795.50000  1.08078e-07  4.93590e+06
       795.60000  1.08078e-07  4.94239e+06
       795.70000  1.08078e-07  4.94779e+06
       795.80000  1.08078e-07  4.95319e+06
       795.90000  1.08078e-07  4.95860e+06
       796.00000  1.08078e-07  4.96292e+06
       796.10000  1.08078e-07  4.96724e+06
       796.20000  1.08078e-07  4.97157e+06
       796.30000  1.07934e-07  4.96819e+06
       796.40000  1.07934e-07  4.97143e+06
       796.50000  1.49857e-07  6.90692e+06
       796.60000  1.49857e-07  6.90992e+06
       796.70000  1.49857e-07  6.91292e+06
       796.80000  1.49857e-07  6.91442e+06
       796.90000  1.49857e-07  6.91591e+06
       797.00000  1.49857e-07  6.91741e+06
       797.10000  1.49857e-07  6.91891e+06
       797.20000  1.49857e-07  6.91891e+06
       797.30000  1.49857e-07  6.91891e+06
       797.40000  1.49857e-07  6.91741e+06
       797.50000  3.80557e-08  1.75627e+06
       797.60000  3.80557e-08  1.75589e+06
       797.70000  3.80557e-08  1.75513e+06
       797.80000  3.80557e-08  1.75437e+06
       797.90000  3.80557e-08  1.75361e+06
       798.00000  3.80557e-08  1.75246e+06
       798.10000  3.80557e-08  1.75132e+06
       798.20000  3.80557e-08  1.75018e+06
       798.30000  3.80557e-08  1.74866e+06
       798.40000  3.80557e-08  1.74714e+06
       798.50000  2.24704e-08  1.03072e+06
       798.60000  2.24704e-08  1.02959e+06
       798.70000  2.24704e-08  1.02847e+06
       798.80000  2.24190e-08  1.02500e+06
       798.90000  2.24190e-08  1.02365e+06
       799.00000  2.24190e-08  1.02231e+06
       799.10000  2.24190e-08  1.02298e+06
       799.20000  2.24190e-08  1.02388e+06
       799.30000  2.24190e-08  1.02477e+06
       799.40000  2.24190e-08  1.02545e+06
       799.50000  1.90815e-07  8.73361e+06
       799.60000  1.90815e-07  8.73933e+06
       799.70000  1.90815e-07  8.74506e+06
       799.80000  1.90815e-07  8.74888e+06
       799.90000  1.90815e-07  8.75269e+06
       800.00000  1.90815e-07  8.75651e+06
       800.10000  1.90815e-07  8.76032e+06
       800.20000  1.90815e-07  8.76414e+06
       800.30000  1.90815e-07  8.76796e+06
       800.40000  1.90815e-07  8.76986e+06
       800.50000  2.48653e-07  1.14306e+07
       800.60000  2.48653e-07  1.14331e+07
       800.70000  2.48653e-07  1.14331e+07
       800.80000  2.48653e-07  1.14355e+07
       800.90000  2.48653e-07  1.14355e+07
       801.00000  2.48653e-07  1.14355e+07
       801.10000  2.48653e-07  1.14306e+07
       801.20000  2.48653e-07  1.14256e+07
       801.30000  2.47923e-07  1.13871e+07
       801.40000  2.47923e-07  1.13821e+07
       801.50000  2.63566e-07  1.20950e+07
       801.60000  2.63566e-07  1.20898e+07
       801.70000  2.63566e-07  1.20845e+07
       801.80000  2.63566e-07  1.20792e+07
       801.90000  2.63566e-07  1.20739e+07
       802.00000  2.63566e-07  1.20687e+07
       802.10000  2.63566e-07  1.20634e+07
       802.20000  2.63566e-07  1.20581e+07
       802.30000  2.63566e-07  1.20529e+07
       802.40000  2.63566e-07  1.20476e+07
       802.50000  2.04624e-07  9.34925e+06
       802.60000  2.04624e-07  9.34516e+06
       802.70000  2.04624e-07  9.34107e+06
       802.80000  2.04624e-07  9.33493e+06
       802.90000  2.04624e-07  9.33084e+06
       803.00000  2.04624e-07  9.32674e+06
       803.10000  2.04624e-07  9.32265e+06
       803.20000  2.04624e-07  9.31856e+06
       803.30000  2.04624e-07  9.31447e+06
       803.40000  2.04624e-07  9.30833e+06
       803.50000  2.00674e-07  9.12466e+06
       803.60000  2.00674e-07  9.12065e+06
       803.70000  2.00674e-07  9.11664e+06
       803.80000  2.00051e-07  9.08431e+06
       803.90000  2.00051e-07  9.07831e+06
       804.00000  2.00051e-07  9.07431e+06
       804.10000  2.00051e-07  9.07031e+06
       804.20000  2.00051e-07  9.06631e+06
       804.30000  2.00051e-07  9.06030e+06
       804.40000  2.00051e-07  9.05630e+06
       804.50000  1.61613e-07  7.31297e+06
       804.60000  1.61613e-07  7.30812e+06
       804.70000  1.61613e-07  7.30489e+06
       804.80000  1.61613e-07  7.30165e+06
       804.90000  1.61613e-07  7.29680e+06
       805.00000  1.61613e-07  7.29357e+06
       805.10000  1.61613e-07  7.30004e+06
       805.20000  1.61613e-07  7.30812e+06
       805.30000  1.61613e-07  7.31297e+06
       805.40000  1.61613e-07  7.31943e+06
       805.50000  2.09920e-07  9.51356e+06
       805.60000  2.09920e-07  9.51986e+06
       805.70000  2.09920e-07  9.52616e+06
       805.80000  2.09920e-07  9.53035e+06
       805.90000  2.09920e-07  9.53455e+06
       806.00000  2.09920e-07  9.53875e+06
       806.10000  2.09920e-07  9.54085e+06
       806.20000  2.09920e-07  9.54295e+06
       806.30000  2.09509e-07  9.52638e+06
       806.40000  2.09509e-07  9.52848e+06
       806.50000  5.43222e-08  2.47057e+06
       806.60000  5.43222e-08  2.47057e+06
       806.70000  5.43222e-08  2.47003e+06
       806.80000  5.43222e-08  2.47003e+06
       806.90000  5.43222e-08  2.46949e+06
       807.00000  5.43222e-08  2.46840e+06
       807.10000  5.43222e-08  2.46405e+06
       807.20000  5.43222e-08  2.45917e+06
       807.30000  5.43222e-08  2.45482e+06
       807.40000  5.43222e-08  2.45102e+06
       807.50000  1.76755e-07  7.96283e+06
       807.60000  1.76755e-07  7.95046e+06
       807.70000  1.76755e-07  7.93985e+06
       807.80000  1.76755e-07  7.93101e+06
       807.90000  1.76755e-07  7.92218e+06
       808.00000  1.76755e-07  7.91334e+06
       808.10000  1.76755e-07  7.90627e+06
       808.20000  1.76755e-07  7.89920e+06
       808.30000  1.76755e-07  7.89213e+06
       808.40000  1.76755e-07  7.88682e+06
       808.50000  1.52080e-07  6.78278e+06
       808.60000  1.52080e-07  6.77974e+06
       808.70000  1.52080e-07  6.77670e+06
       808.80000  1.51936e-07  6.76877e+06
       808.90000  1.51936e-07  6.76725e+06
       809.00000  1.51936e-07  6.76725e+06
       809.10000  1.51936e-07  6.76725e+06
       809.20000  1.51936e-07  6.76877e+06
       809.30000  1.51936e-07  6.77029e+06
       809.40000  1.51936e-07  6.77181e+06
       809.50000  2.49277e-07  1.11153e+07
       809.60000  2.49277e-07  1.11227e+07
       809.70000  2.49277e-07  1.11302e+07
       809.80000  2.49277e-07  1.11377e+07
       809.90000  2.49277e-07  1.11477e+07
       810.00000  2.49277e-07  1.11576e+07
       810.10000  2.49277e-07  1.11701e+07
       810.20000  2.49277e-07  1.11826e+07
       810.30000  2.49277e-07  1.11950e+07
       810.40000  2.49277e-07  1.12100e+07
       810.50000  1.87073e-07  8.42577e+06
       810.60000  1.87073e-07  8.43699e+06
       810.70000  1.87073e-07  8.45196e+06
       810.80000  1.87073e-07  8.46692e+06
       810.90000  1.87073e-07  8.48189e+06
       811.00000  1.87073e-07  8.49873e+06
       811.10000  1.87073e-07  8.50060e+06
       811.20000  1.87073e-07  8.50434e+06
       811.30000  1.86950e-07  8.50060e+06
       811.40000  1.86950e-07  8.50434e+06
       811.50000  2.16804e-07  9.86459e+06
       811.60000  2.16804e-07  9.86676e+06
       811.70000  2.16804e-07  9.86893e+06
       811.80000  2.16804e-07  9.87110e+06
       811.90000  2.16804e-07  9.87326e+06
       812.00000  2.16804e-07  9.87543e+06
       812.10000  2.16804e-07  9.87543e+06
       812.20000  2.16804e-07  9.87760e+06
       812.30000  2.16804e-07  9.87977e+06
       812.40000  2.16804e-07  9.87977e+06
       812.50000  1.24887e-07  5.69112e+06
       812.60000  1.24887e-07  5.69237e+06
       812.70000  1.24887e-07  5.69237e+06
       812.80000  1.24887e-07  5.69237e+06
       812.90000  1.24887e-07  5.69237e+06
       813.00000  1.24887e-07  5.69237e+06
       813.10000  1.24887e-07  5.68987e+06
       813.20000  1.24887e-07  5.68862e+06
       813.30000  1.24887e-07  5.68613e+06
       813.40000  1.24887e-07  5.68488e+06
       813.50000  1.76451e-07  8.02853e+06
       813.60000  1.76451e-07  8.02676e+06
       813.70000  1.76451e-07  8.02500e+06
       813.80000  1.76432e-07  8.02235e+06
       813.90000  1.76432e-07  8.02059e+06
       814.00000  1.76432e-07  8.01706e+06
       814.10000  1.76432e-07  8.01529e+06
       814.20000  1.76432e-07  8.01353e+06
       814.30000  1.76432e-07  8.01177e+06
       814.40000  1.76432e-07  8.01177e+06
       814.50000  6.73928e-08  3.05963e+06
       814.60000  6.73928e-08  3.05896e+06
       814.70000  6.73928e-08  3.05829e+06
       814.80000  6.73928e-08  3.05761e+06
       814.90000  6.73928e-08  3.05761e+06
       815.00000  6.73928e-08  3.05694e+06
       815.10000  6.73928e-08  3.05963e+06
       815.20000  6.73928e-08  3.06166e+06
       815.30000  6.73928e-08  3.06368e+06
       815.40000  6.73928e-08  3.06503e+06
       815.50000  1.04918e-07  4.77482e+06
       815.60000  1.04918e-07  4.77587e+06
       815.70000  1.04918e-07  4.77796e+06
       815.80000  1.04918e-07  4.77796e+06
       815.90000  1.04918e-07  4.77901e+06
       816.00000  1.04918e-07  4.77901e+06
       816.10000  1.04918e-07  4.77901e+06
       816.20000  1.04918e-07  4.77796e+06
       816.30000  1.04915e-07  4.77678e+06
       816.40000  1.04915e-07  4.77573e+06
       816.50000  1.77783e-07  8.08913e+06
       816.60000  1.77783e-07  8.08557e+06
       816.70000  1.77783e-07  8.08024e+06
       816.80000  1.77783e-07  8.07491e+06
       816.90000  1.77783e-07  8.06957e+06
       817.00000  1.77783e-07  8.06246e+06
       817.10000  1.77783e-07  8.03757e+06
       817.20000  1.77783e-07  8.01446e+06
       817.30000  1.77783e-07  7.99312e+06
       817.40000  1.77783e-07  7.97179e+06
       817.50000  1.15275e-07  5.15623e+06
       817.60000  1.15275e-07  5.14471e+06
       817.70000  1.15275e-07  5.13318e+06
       817.80000  1.15275e-07  5.12165e+06
       817.90000  1.15275e-07  5.11243e+06
       818.00000  1.15275e-07  5.10205e+06
       818.10000  1.15275e-07  5.09399e+06
       818.20000  1.15275e-07  5.08592e+06
       818.30000  1.15275e-07  5.07785e+06
       818.40000  1.15275e-07  5.07208e+06
       818.50000  1.23022e-07  5.40560e+06
       818.60000  1.23022e-07  5.40068e+06
       818.70000  1.23022e-07  5.39576e+06
       818.80000  1.23004e-07  5.39002e+06
       818.90000  1.23004e-07  5.38756e+06
       819.00000  1.23004e-07  5.38387e+06
       819.10000  1.23004e-07  5.38264e+06
       819.20000  1.23004e-07  5.38141e+06
       819.30000  1.23004e-07  5.38018e+06
       819.40000  1.23004e-07  5.38018e+06
       819.50000  1.70307e-07  7.45092e+06
       819.60000  1.70307e-07  7.45263e+06
       819.70000  1.70307e-07  7.45603e+06
       819.80000  1.70307e-07  7.46114e+06
       819.90000  1.70307e-07  7.46625e+06
       820.00000  1.70307e-07  7.47306e+06
       820.10000  1.70307e-07  7.47988e+06
       820.20000  1.70307e-07  7.48839e+06
       820.30000  1.70307e-07  7.49861e+06
       820.40000  1.70307e-07  7.50883e+06
       820.50000  1.72662e-07  7.62475e+06
       820.60000  1.72662e-07  7.63684e+06
       820.70000  1.72662e-07  7.65065e+06
       820.80000  1.72662e-07  7.66446e+06
       820.90000  1.72662e-07  7.68000e+06
       821.00000  1.72662e-07  7.69727e+06
       821.10000  1.72662e-07  7.69382e+06
       821.20000  1.72662e-07  7.69209e+06
       821.30000  1.73157e-07  7.71068e+06
       821.40000  1.73157e-07  7.70895e+06
       821.50000  1.10862e-07  4.93337e+06
       821.60000  1.10862e-07  4.93226e+06
       821.70000  1.10862e-07  4.93115e+06
       821.80000  1.10862e-07  4.92894e+06
       821.90000  1.10862e-07  4.92783e+06
       822.00000  1.10862e-07  4.92672e+06
       822.10000  1.10862e-07  4.92672e+06
       822.20000  1.10862e-07  4.92561e+06
       822.30000  1.10862e-07  4.92450e+06
       822.40000  1.10862e-07  4.92450e+06
       822.50000  1.13430e-07  5.03741e+06
       822.60000  1.13430e-07  5.03741e+06
       822.70000  1.13430e-07  5.03628e+06
       822.80000  1.13430e-07  5.03628e+06
       822.90000  1.13430e-07  5.03628e+06
       823.00000  1.13430e-07  5.03628e+06
       823.10000  1.13430e-07  5.03628e+06
       823.20000  1.13430e-07  5.03628e+06
       823.30000  1.13430e-07  5.03628e+06
       823.40000  1.13430e-07  5.03628e+06
       823.50000  1.15900e-07  5.14710e+06
       823.60000  1.15900e-07  5.14710e+06
       823.70000  1.15900e-07  5.14826e+06
       823.80000  1.16216e-07  5.16231e+06
       823.90000  1.16216e-07  5.16347e+06
       824.00000  1.16216e-07  5.16463e+06
       824.10000  1.16216e-07  5.16580e+06
       824.20000  1.16216e-07  5.16696e+06
       824.30000  1.16216e-07  5.16812e+06
       824.40000  1.16216e-07  5.17044e+06
       824.50000  7.46177e-08  3.32049e+06
       824.60000  7.46177e-08  3.32198e+06
       824.70000  7.46177e-08  3.32272e+06
       824.80000  7.46177e-08  3.32422e+06
       824.90000  7.46177e-08  3.32571e+06
       825.00000  7.46177e-08  3.32720e+06
       825.10000  7.46177e-08  3.32869e+06
       825.20000  7.46177e-08  3.33019e+06
       825.30000  7.46177e-08  3.33242e+06
       825.40000  7.46177e-08  3.33392e+06
       825.50000  1.33206e-07  5.95566e+06
       825.60000  1.33206e-07  5.95832e+06
       825.70000  1.33206e-07  5.96232e+06
       825.80000  1.33206e-07  5.96632e+06
       825.90000  1.33206e-07  5.97031e+06
       826.00000  1.33206e-07  5.97431e+06
       826.10000  1.33206e-07  5.97830e+06
       826.20000  1.33206e-07  5.98097e+06
       826.30000  1.33295e-07  5.98894e+06
       826.40000  1.33295e-07  5.99161e+06
       826.50000  1.14450e-07  5.14568e+06
       826.60000  1.14450e-07  5.14797e+06
       826.70000  1.14450e-07  5.15026e+06
       826.80000  1.14450e-07  5.15140e+06
       826.90000  1.14450e-07  5.15255e+06
       827.00000  1.14450e-07  5.15369e+06
       827.10000  1.14450e-07  5.15369e+06
       827.20000  1.14450e-07  5.15484e+06
       827.30000  1.14450e-07  5.15484e+06
       827.40000  1.14450e-07  5.15484e+06
       827.50000  1.45043e-07  6.53274e+06
       827.60000  1.45043e-07  6.53274e+06
       827.70000  1.45043e-07  6.53129e+06
       827.80000  1.45043e-07  6.52984e+06
       827.90000  1.45043e-07  6.52839e+06
       828.00000  1.45043e-07  6.52694e+06
       828.10000  1.45043e-07  6.52259e+06
       828.20000  1.45043e-07  6.51678e+06
       828.30000  1.45043e-07  6.51098e+06
       828.40000  1.45043e-07  6.50518e+06
       828.50000  1.09778e-07  4.92026e+06
       828.60000  1.09778e-07  4.91587e+06
       828.70000  1.09778e-07  4.91257e+06
       828.80000  1.09689e-07  4.90530e+06
       828.90000  1.09689e-07  4.90091e+06
       829.00000  1.09689e-07  4.89762e+06
       829.10000  1.09689e-07  4.89433e+06
       829.20000  1.09689e-07  4.89104e+06
       829.30000  1.09689e-07  4.88775e+06
       829.40000  1.09689e-07  4.88445e+06
       829.50000  1.28587e-07  5.72213e+06
       829.60000  1.28587e-07  5.71827e+06
       829.70000  1.28587e-07  5.71441e+06
       829.80000  1.28587e-07  5.71055e+06
       829.90000  1.28587e-07  5.70798e+06
       830.00000  1.28587e-07  5.70412e+06
       830.10000  1.28587e-07  5.70155e+06
       830.20000  1.28587e-07  5.69770e+06
       830.30000  1.28587e-07  5.69512e+06
       830.40000  1.28587e-07  5.69127e+06
       830.50000  2.01254e-07  8.90346e+06
       830.60000  2.01254e-07  8.89944e+06
       830.70000  2.01254e-07  8.89340e+06
       830.80000  2.01254e-07  8.88938e+06
       830.90000  2.01254e-07  8.88535e+06
       831.00000  2.01254e-07  8.88133e+06
       831.10000  2.01254e-07  8.87730e+06
       831.20000  2.01254e-07  8.87328e+06
       831.30000  2.01799e-07  8.89531e+06
       831.40000  2.01799e-07  8.89128e+06
       831.50000  1.99303e-07  8.77732e+06
       831.60000  1.99303e-07  8.77532e+06
       831.70000  1.99303e-07  8.77134e+06
       831.80000  1.99303e-07  8.76735e+06
       831.90000  1.99303e-07  8.76536e+06
       832.00000  1.99303e-07  8.76337e+06
       832.10000  1.99303e-07  8.75539e+06
       832.20000  1.99303e-07  8.74742e+06
       832.30000  1.99303e-07  8.74144e+06
       832.40000  1.99303e-07  8.73546e+06
       832.50000  1.99939e-07  8.75733e+06
       832.60000  1.99939e-07  8.75333e+06
       832.70000  1.99939e-07  8.74934e+06
       832.80000  1.99939e-07  8.74334e+06
       832.90000  1.99939e-07  8.74134e+06
       833.00000  1.99939e-07  8.73734e+06
       833.10000  1.99939e-07  8.73334e+06
       833.20000  1.99939e-07  8.73134e+06
       833.30000  1.99939e-07  8.72934e+06
       833.40000  1.99939e-07  8.72734e+06
       833.50000  1.30114e-07  5.67948e+06
       833.60000  1.30114e-07  5.67818e+06
       833.70000  1.30114e-07  5.67818e+06
       833.80000  1.30250e-07  5.68410e+06
       833.90000  1.30250e-07  5.68540e+06
       834.00000  1.30250e-07  5.68540e+06
       834.10000  1.30250e-07  5.69192e+06
       834.20000  1.30250e-07  5.69713e+06
       834.30000  1.30250e-07  5.70364e+06
       834.40000  1.30250e-07  5.70885e+06
       834.50000  1.55754e-07  6.83291e+06
       834.60000  1.55754e-07  6.83914e+06
       834.70000  1.55754e-07  6.84382e+06
       834.80000  1.55754e-07  6.84849e+06
       834.90000  1.55754e-07  6.85472e+06
       835.00000  1.55754e-07  6.85939e+06
       835.10000  1.55754e-07  6.86251e+06
       835.20000  1.55754e-07  6.86718e+06
       835.30000  1.55754e-07  6.87030e+06
       835.40000  1.55754e-07  6.87341e+06
       835.50000  1.27629e-07  5.63483e+06
       835.60000  1.27629e-07  5.63738e+06
       835.70000  1.27629e-07  5.63866e+06
       835.80000  1.27629e-07  5.64121e+06
       835.90000  1.27629e-07  5.64248e+06
       836.00000  1.27629e-07  5.64376e+06
       836.10000  1.27629e-07  5.64121e+06
       836.20000  1.27629e-07  5.63993e+06
       836.30000  1.27571e-07  5.63483e+06
       836.40000  1.27571e-07  5.63355e+06
       836.50000  9.73417e-08  4.29764e+06
       836.60000  9.73417e-08  4.29569e+06
       836.70000  9.73417e-08  4.29472e+06
       836.80000  9.73417e-08  4.29374e+06
       836.90000  9.73417e-08  4.29180e+06
       837.00000  9.73417e-08  4.29082e+06
       837.10000  9.73417e-08  4.28985e+06
       837.20000  9.73417e-08  4.28888e+06
       837.30000  9.73417e-08  4.28790e+06
       837.40000  9.73417e-08  4.28693e+06
       837.50000  1.28610e-07  5.66271e+06
       837.60000  1.28610e-07  5.66142e+06
       837.70000  1.28610e-07  5.66014e+06
       837.80000  1.28610e-07  5.65885e+06
       837.90000  1.28610e-07  5.65885e+06
       838.00000  1.28610e-07  5.65756e+06
       838.10000  1.28610e-07  5.65628e+06
       838.20000  1.28610e-07  5.65628e+06
       838.30000  1.28610e-07  5.65628e+06
       838.40000  1.28610e-07  5.65628e+06
       838.50000  2.05189e-07  9.02214e+06
       838.60000  2.05189e-07  9.02214e+06
       838.70000  2.05189e-07  9.02214e+06
       838.80000  2.04568e-07  8.99282e+06
       838.90000  2.04568e-07  8.99282e+06
       839.00000  2.04568e-07  8.99282e+06
       839.10000  2.04568e-07  8.99077e+06
       839.20000  2.04568e-07  8.99077e+06
       839.30000  2.04568e-07  8.99077e+06
       839.40000  2.04568e-07  8.98872e+06
       839.50000  1.08143e-07  4.75180e+06
       839.60000  1.08143e-07  4.75180e+06
       839.70000  1.08143e-07  4.75072e+06
       839.80000  1.08143e-07  4.75072e+06
       839.90000  1.08143e-07  4.75072e+06
       840.00000  1.08143e-07  4.74964e+06
       840.10000  1.08143e-07  4.74964e+06
       840.20000  1.08143e-07  4.74964e+06
       840.30000  1.08143e-07  4.74856e+06
       840.40000  1.08143e-07  4.74856e+06
       840.50000  1.14551e-07  5.02992e+06
       840.60000  1.14551e-07  5.02878e+06
       840.70000  1.14551e-07  5.02878e+06
       840.80000  1.14551e-07  5.02878e+06
       840.90000  1.14551e-07  5.02763e+06
       841.00000  1.14551e-07  5.02763e+06
       841.10000  1.14551e-07  5.02763e+06
       841.20000  1.14551e-07  5.02763e+06
       841.30000  1.14545e-07  5.02622e+06
       841.40000  1.14545e-07  5.02622e+06
       841.50000  1.17541e-07  5.15770e+06
       841.60000  1.17541e-07  5.15653e+06
       841.70000  1.17541e-07  5.15653e+06
       841.80000  1.17541e-07  5.15653e+06
       841.90000  1.17541e-07  5.15535e+06
       842.00000  1.17541e-07  5.15535e+06
       842.10000  1.17541e-07  5.15065e+06
       842.20000  1.17541e-07  5.14712e+06
       842.30000  1.17541e-07  5.14360e+06
       842.40000  1.17541e-07  5.13890e+06
       842.50000  1.71501e-07  7.49290e+06
       842.60000  1.71501e-07  7.48947e+06
       842.70000  1.71501e-07  7.48432e+06
       842.80000  1.71501e-07  7.48089e+06
       842.90000  1.71501e-07  7.47575e+06
       843.00000  1.71501e-07  7.47232e+06
       843.10000  1.71501e-07  7.46889e+06
       843.20000  1.71501e-07  7.46546e+06
       843.30000  1.71501e-07  7.46374e+06
       843.40000  1.71501e-07  7.46031e+06
       843.50000  1.35188e-07  5.87932e+06
       843.60000  1.35188e-07  5.87797e+06
       843.70000  1.35188e-07  5.87662e+06
       843.80000  1.35383e-07  5.88374e+06
       843.90000  1.35383e-07  5.88374e+06
       844.00000  1.35383e-07  5.88238e+06
       844.10000  1.35383e-07  5.88644e+06
       844.20000  1.35383e-07  5.88915e+06
       844.30000  1.35383e-07  5.89186e+06
       844.40000  1.35383e-07  5.89457e+06
       844.50000  9.93337e-08  4.32697e+06
       844.60000  9.93337e-08  4.32896e+06
       844.70000  9.93337e-08  4.32995e+06
       844.80000  9.93337e-08  4.33194e+06
       844.90000  9.93337e-08  4.33293e+06
       845.00000  9.93337e-08  4.33492e+06
       845.10000  9.93337e-08  4.33591e+06
       845.20000  9.93337e-08  4.33691e+06
       845.30000  9.93337e-08  4.33889e+06
       845.40000  9.93337e-08  4.33989e+06
       845.50000  1.17441e-07  5.13100e+06
       845.60000  1.17441e-07  5.13217e+06
       845.70000  1.17441e-07  5.13335e+06
       845.80000  1.17441e-07  5.13452e+06
       845.90000  1.17441e-07  5.13452e+06
       846.00000  1.17441e-07  5.13570e+06
       846.10000  1.17441e-07  5.13570e+06
       846.20000  1.17441e-07  5.13570e+06
       846.30000  1.17750e-07  5.14921e+06
       846.40000  1.17750e-07  5.15039e+06
       846.50000  4.42869e-08  1.93711e+06
       846.60000  4.42869e-08  1.93667e+06
       846.70000  4.42869e-08  1.93667e+06
       846.80000  4.42869e-08  1.93667e+06
       846.90000  4.42869e-08  1.93622e+06
       847.00000  4.42869e-08  1.93622e+06
       847.10000  4.42869e-08  1.93578e+06
       847.20000  4.42869e-08  1.93578e+06
       847.30000  4.42869e-08  1.93534e+06
       847.40000  4.42869e-08  1.93489e+06
       847.50000  1.50403e-07  6.56960e+06
       847.60000  1.50403e-07  6.56810e+06
       847.70000  1.50403e-07  6.56659e+06
       847.80000  1.50403e-07  6.56509e+06
       847.90000  1.50403e-07  6.56208e+06
       848.00000  1.50403e-07  6.56058e+06
       848.10000  1.50403e-07  6.52899e+06
       848.20000  1.50403e-07  6.50042e+06
       848.30000  1.50403e-07  6.47184e+06
       848.40000  1.50403e-07  6.44477e+06
       848.50000  9.65731e-08  4.12174e+06
       848.60000  9.65731e-08  4.10725e+06
       848.70000  9.65731e-08  4.09277e+06
       848.80000  9.69417e-08  4.09482e+06
       848.90000  9.69417e-08  4.08222e+06
       849.00000  9.69417e-08  4.07058e+06
