PDS_VERSION_ID         = PDS3
RECORD_TYPE            = STREAM
OBJECT                 = TEXT
  PUBLICATION_DATE     = 2014-04-25
  INTERCHANGE_FORMAT   = ASCII
  NOTE                 = "System transmission vs. wavelength."
END_OBJECT             = TEXT
END
    
The systrans directory contains the non-wavelength-integrated system 
transmission values (QE*optics*filter1*filter2) for each filter combination. 
The naming convention for these files is as follows:

<camera><filter 1><filter 2>_systrans.tab

where <camera> is "issna" or "isswa," and <filter 1> and <filter 2> represent
the filter names. For polarized filter combinations, values are given for the
parallel orientation of the filter (full transmission), with values for the 
perpendicular (blocking) orientation provided in files with subscript 
"_b_systrans.tab". 

Columns in systrans files are as follows:

 1st column: Wavelength (nm)  
 2nd column: Transmitted Flux
 3rd column: Transmitted Flux * Solar Flux (phot per cm^2-s-angstrom at 1 AU)

The solar spectrum used for this calculation is provided in solarflux.tab.

\begindata
       619.00000  1.72896e-06  9.20153e+07
       619.10000  1.72896e-06  9.19461e+07
       619.20000  1.72896e-06  9.19116e+07
       619.30000  1.72896e-06  9.18943e+07
       619.40000  1.72896e-06  9.18943e+07
       619.50000  1.87649e-06  9.97730e+07
       619.60000  1.87649e-06  1.00130e+08
       619.70000  1.87649e-06  1.00449e+08
       619.80000  1.87649e-06  1.00730e+08
       619.90000  1.87649e-06  1.00974e+08
       620.00000  1.87649e-06  1.01162e+08
       620.10000  1.87649e-06  1.01312e+08
       620.20000  1.87649e-06  1.01424e+08
       620.30000  1.87649e-06  1.01499e+08
       620.40000  1.87649e-06  1.01518e+08
       620.50000  2.31048e-06  1.24997e+08
       620.60000  2.31048e-06  1.24489e+08
       620.70000  2.31048e-06  1.24003e+08
       620.80000  2.31048e-06  1.23587e+08
       620.90000  2.31048e-06  1.23218e+08
       621.00000  2.31048e-06  1.22894e+08
       621.10000  2.31048e-06  1.22617e+08
       621.20000  2.31048e-06  1.22409e+08
       621.30000  2.30751e-06  1.22067e+08
       621.40000  2.30751e-06  1.21929e+08
       621.50000  3.06529e-06  1.61878e+08
       621.60000  3.06529e-06  1.62430e+08
       621.70000  3.06529e-06  1.62920e+08
       621.80000  3.06529e-06  1.63319e+08
       621.90000  3.06529e-06  1.63687e+08
       622.00000  3.06529e-06  1.63962e+08
       622.10000  3.06529e-06  1.64177e+08
       622.20000  3.06529e-06  1.64300e+08
       622.30000  3.06529e-06  1.64392e+08
       622.40000  3.06529e-06  1.64392e+08
       622.50000  4.57682e-06  2.45363e+08
       622.60000  4.57682e-06  2.45180e+08
       622.70000  4.57682e-06  2.44906e+08
       622.80000  4.57682e-06  2.44539e+08
       622.90000  4.57682e-06  2.44036e+08
       623.00000  4.57682e-06  2.43487e+08
       623.10000  4.57682e-06  2.42800e+08
       623.20000  4.57682e-06  2.41976e+08
       623.30000  4.57682e-06  2.41107e+08
       623.40000  4.57682e-06  2.40100e+08
       623.50000  7.66336e-06  4.00257e+08
       623.60000  7.66336e-06  4.00180e+08
       623.70000  7.66336e-06  4.00180e+08
       623.80000  7.64686e-06  3.99166e+08
       623.90000  7.64686e-06  3.99090e+08
       624.00000  7.64686e-06  3.98937e+08
       624.10000  7.64686e-06  3.98707e+08
       624.20000  7.64686e-06  3.98478e+08
       624.30000  7.64686e-06  3.98248e+08
       624.40000  7.64686e-06  3.97942e+08
       624.50000  1.47530e-05  7.67155e+08
       624.60000  1.47530e-05  7.64204e+08
       624.70000  1.47530e-05  7.61844e+08
       624.80000  1.47530e-05  7.59778e+08
       624.90000  1.47530e-05  7.58155e+08
       625.00000  1.47530e-05  7.56975e+08
       625.10000  1.47530e-05  7.56238e+08
       625.20000  1.47530e-05  7.55795e+08
       625.30000  1.47530e-05  7.55943e+08
       625.40000  1.47530e-05  7.56385e+08
       625.50000  3.37608e-05  1.73294e+09
       625.60000  3.37608e-05  1.73564e+09
       625.70000  3.37608e-05  1.73969e+09
       625.80000  3.37608e-05  1.74442e+09
       625.90000  3.37608e-05  1.75016e+09
       626.00000  3.37608e-05  1.75691e+09
       626.10000  3.37608e-05  1.76468e+09
       626.20000  3.37608e-05  1.77312e+09
       626.30000  3.37075e-05  1.78009e+09
       626.40000  3.37075e-05  1.79054e+09
       626.50000  9.13028e-05  4.88013e+09
       626.60000  9.13028e-05  4.88104e+09
       626.70000  9.13028e-05  4.88196e+09
       626.80000  9.13028e-05  4.88287e+09
       626.90000  9.13028e-05  4.88378e+09
       627.00000  9.13028e-05  4.88470e+09
       627.10000  9.13028e-05  4.88561e+09
       627.20000  9.13028e-05  4.88561e+09
       627.30000  9.13028e-05  4.88652e+09
       627.40000  9.13028e-05  4.88744e+09
       627.50000  0.000243341  1.30285e+10
       627.60000  0.000243341  1.30382e+10
       627.70000  0.000243341  1.30455e+10
       627.80000  0.000243341  1.30504e+10
       627.90000  0.000243341  1.30552e+10
       628.00000  0.000243341  1.30577e+10
       628.10000  0.000243341  1.30601e+10
       628.20000  0.000243341  1.30601e+10
       628.30000  0.000243341  1.30577e+10
       628.40000  0.000243341  1.30552e+10
       628.50000  0.000501294  2.68844e+10
       628.60000  0.000501294  2.68694e+10
       628.70000  0.000501294  2.68543e+10
       628.80000  0.000500234  2.67775e+10
       628.90000  0.000500234  2.67525e+10
       629.00000  0.000500234  2.67275e+10
       629.10000  0.000500234  2.66975e+10
       629.20000  0.000500234  2.66675e+10
       629.30000  0.000500234  2.66325e+10
       629.40000  0.000500234  2.65925e+10
       629.50000  0.000729946  3.87455e+10
       629.60000  0.000729946  3.86652e+10
       629.70000  0.000729946  3.85850e+10
       629.80000  0.000729946  3.85120e+10
       629.90000  0.000729946  3.84463e+10
       630.00000  0.000729946  3.83806e+10
       630.10000  0.000729946  3.83149e+10
       630.20000  0.000729946  3.82638e+10
       630.30000  0.000729946  3.82054e+10
       630.40000  0.000729946  3.81616e+10
       630.50000  0.000803128  4.19394e+10
       630.60000  0.000803128  4.18912e+10
       630.70000  0.000803128  4.18510e+10
       630.80000  0.000803128  4.18189e+10
       630.90000  0.000803128  4.17868e+10
       631.00000  0.000803128  4.17627e+10
       631.10000  0.000803128  4.17868e+10
       631.20000  0.000803128  4.18109e+10
       631.30000  0.000803089  4.18409e+10
       631.40000  0.000803089  4.18650e+10
       631.50000  0.000793384  4.13829e+10
       631.60000  0.000793384  4.14067e+10
       631.70000  0.000793384  4.14305e+10
       631.80000  0.000793384  4.14464e+10
       631.90000  0.000793384  4.14702e+10
       632.00000  0.000793384  4.14940e+10
       632.10000  0.000793384  4.15178e+10
       632.20000  0.000793384  4.15336e+10
       632.30000  0.000793384  4.15574e+10
       632.40000  0.000793384  4.15812e+10
       632.50000  0.000793445  4.16003e+10
       632.60000  0.000793445  4.16162e+10
       632.70000  0.000793445  4.16400e+10
       632.80000  0.000793445  4.16559e+10
       632.90000  0.000793445  4.16717e+10
       633.00000  0.000793445  4.16955e+10
       633.10000  0.000793445  4.17114e+10
       633.20000  0.000793445  4.17273e+10
       633.30000  0.000793445  4.17431e+10
       633.40000  0.000793445  4.17590e+10
       633.50000  0.000807650  4.25228e+10
       633.60000  0.000807650  4.25389e+10
       633.70000  0.000807650  4.25551e+10
       633.80000  0.000807526  4.25566e+10
       633.90000  0.000807526  4.25728e+10
       634.00000  0.000807526  4.25889e+10
       634.10000  0.000807526  4.25970e+10
       634.20000  0.000807526  4.26131e+10
       634.30000  0.000807526  4.26212e+10
       634.40000  0.000807526  4.26374e+10
       634.50000  0.000820896  4.33515e+10
       634.60000  0.000820896  4.33597e+10
       634.70000  0.000820896  4.33762e+10
       634.80000  0.000820896  4.33844e+10
       634.90000  0.000820896  4.33926e+10
       635.00000  0.000820896  4.34008e+10
       635.10000  0.000820896  4.34090e+10
       635.20000  0.000820896  4.34090e+10
       635.30000  0.000820896  4.34172e+10
       635.40000  0.000820896  4.34172e+10
       635.50000  0.000822230  4.34960e+10
       635.60000  0.000822230  4.35042e+10
       635.70000  0.000822230  4.35042e+10
       635.80000  0.000822230  4.35124e+10
       635.90000  0.000822230  4.35124e+10
       636.00000  0.000822230  4.35206e+10
       636.10000  0.000822230  4.35206e+10
       636.20000  0.000822230  4.35289e+10
       636.30000  0.000817356  4.32709e+10
       636.40000  0.000817356  4.32790e+10
       636.50000  0.000794814  4.20854e+10
       636.60000  0.000794814  4.20934e+10
       636.70000  0.000794814  4.20934e+10
       636.80000  0.000794814  4.21013e+10
       636.90000  0.000794814  4.21013e+10
       637.00000  0.000794814  4.21013e+10
       637.10000  0.000794814  4.21093e+10
       637.20000  0.000794814  4.21093e+10
       637.30000  0.000794814  4.21172e+10
       637.40000  0.000794814  4.21172e+10
       637.50000  0.000737077  3.90577e+10
       637.60000  0.000737077  3.90651e+10
       637.70000  0.000737077  3.90651e+10
       637.80000  0.000737077  3.90724e+10
       637.90000  0.000737077  3.90724e+10
       638.00000  0.000737077  3.90724e+10
       638.10000  0.000737077  3.90798e+10
       638.20000  0.000737077  3.90798e+10
       638.30000  0.000737077  3.90798e+10
       638.40000  0.000737077  3.90872e+10
       638.50000  0.000623227  3.30497e+10
       638.60000  0.000623227  3.30497e+10
       638.70000  0.000623227  3.30559e+10
       638.80000  0.000619140  3.28392e+10
       638.90000  0.000619140  3.28392e+10
       639.00000  0.000619140  3.28392e+10
       639.10000  0.000619140  3.27896e+10
       639.20000  0.000619140  3.27401e+10
       639.30000  0.000619140  3.26906e+10
       639.40000  0.000619140  3.26472e+10
       639.50000  0.000468630  2.46734e+10
       639.60000  0.000468630  2.46452e+10
       639.70000  0.000468630  2.46124e+10
       639.80000  0.000468630  2.45843e+10
       639.90000  0.000468630  2.45609e+10
       640.00000  0.000468630  2.45328e+10
       640.10000  0.000468630  2.45093e+10
       640.20000  0.000468630  2.44906e+10
       640.30000  0.000468630  2.44719e+10
       640.40000  0.000468630  2.44531e+10
       640.50000  0.000311104  1.62210e+10
       640.60000  0.000311104  1.62116e+10
       640.70000  0.000311104  1.62023e+10
       640.80000  0.000311104  1.61961e+10
       640.90000  0.000311104  1.61868e+10
       641.00000  0.000311104  1.61836e+10
       641.10000  0.000311104  1.61899e+10
       641.20000  0.000311104  1.61961e+10
       641.30000  0.000309000  1.60927e+10
       641.40000  0.000309000  1.60989e+10
       641.50000  0.000182663  9.52040e+09
       641.60000  0.000182663  9.52406e+09
       641.70000  0.000182663  9.52771e+09
       641.80000  0.000182663  9.53136e+09
       641.90000  0.000182663  9.53501e+09
       642.00000  0.000182663  9.53867e+09
       642.10000  0.000182663  9.54049e+09
       642.20000  0.000182663  9.54415e+09
       642.30000  0.000182663  9.54780e+09
       642.40000  0.000182663  9.55146e+09
       642.50000  0.000101477  5.30824e+09
       642.60000  0.000101477  5.31027e+09
       642.70000  0.000101477  5.31230e+09
       642.80000  0.000101477  5.31433e+09
       642.90000  0.000101477  5.31636e+09
       643.00000  0.000101477  5.31839e+09
       643.10000  0.000101477  5.31940e+09
       643.20000  0.000101477  5.32143e+09
       643.30000  0.000101477  5.32346e+09
       643.40000  0.000101477  5.32549e+09
       643.50000  5.62435e-05  2.95278e+09
       643.60000  5.62435e-05  2.95391e+09
       643.70000  5.62435e-05  2.95447e+09
       643.80000  5.61685e-05  2.95166e+09
       643.90000  5.61685e-05  2.95278e+09
       644.00000  5.61685e-05  2.95390e+09
       644.10000  5.61685e-05  2.95503e+09
       644.20000  5.61685e-05  2.95559e+09
       644.30000  5.61685e-05  2.95671e+09
       644.40000  5.61685e-05  2.95784e+09
       644.50000  3.13145e-05  1.64965e+09
       644.60000  3.13145e-05  1.64996e+09
       644.70000  3.13145e-05  1.65059e+09
       644.80000  3.13145e-05  1.65122e+09
       644.90000  3.13145e-05  1.65184e+09
       645.00000  3.13145e-05  1.65216e+09
       645.10000  3.13145e-05  1.65184e+09
       645.20000  3.13145e-05  1.65122e+09
       645.30000  3.13145e-05  1.65090e+09
       645.40000  3.13145e-05  1.65028e+09
       645.50000  1.77444e-05  9.34599e+08
       645.60000  1.77444e-05  9.34244e+08
       645.70000  1.77444e-05  9.33889e+08
       645.80000  1.77444e-05  9.33357e+08
       645.90000  1.77444e-05  9.32825e+08
       646.00000  1.77444e-05  9.32292e+08
       646.10000  1.77444e-05  9.31760e+08
       646.20000  1.77444e-05  9.31228e+08
       646.30000  1.77335e-05  9.29947e+08
       646.40000  1.77335e-05  9.29238e+08
       646.50000  1.05063e-05  5.50214e+08
       646.60000  1.05063e-05  5.49688e+08
       646.70000  1.05063e-05  5.49268e+08
       646.80000  1.05063e-05  5.48848e+08
       646.90000  1.05063e-05  5.48323e+08
       647.00000  1.05063e-05  5.47902e+08
       647.10000  1.05063e-05  5.46431e+08
       647.20000  1.05063e-05  5.45066e+08
       647.30000  1.05063e-05  5.43805e+08
       647.40000  1.05063e-05  5.42544e+08
       647.50000  6.47075e-06  3.33438e+08
       647.60000  6.47075e-06  3.32855e+08
       647.70000  6.47075e-06  3.32208e+08
       647.80000  6.47075e-06  3.31691e+08
       647.90000  6.47075e-06  3.31173e+08
       648.00000  6.47075e-06  3.30720e+08
       648.10000  6.47075e-06  3.30332e+08
       648.20000  6.47075e-06  3.30008e+08
       648.30000  6.47075e-06  3.29685e+08
       648.40000  6.47075e-06  3.29426e+08
       648.50000  4.11784e-06  2.09516e+08
       648.60000  4.11784e-06  2.09433e+08
       648.70000  4.11784e-06  2.09351e+08
       648.80000  4.12210e-06  2.09526e+08
       648.90000  4.12210e-06  2.09526e+08
       649.00000  4.12210e-06  2.09568e+08
       649.10000  4.12210e-06  2.09609e+08
       649.20000  4.12210e-06  2.09733e+08
       649.30000  4.12210e-06  2.09815e+08
       649.40000  4.12210e-06  2.09980e+08
       649.50000  2.66780e-06  1.36031e+08
       649.60000  2.66780e-06  1.36164e+08
       649.70000  2.66780e-06  1.36324e+08
       649.80000  2.66780e-06  1.36511e+08
       649.90000  2.66780e-06  1.36698e+08
       650.00000  2.66780e-06  1.36911e+08
       650.10000  2.66780e-06  1.37151e+08
       650.20000  2.66780e-06  1.37418e+08
       650.30000  2.66780e-06  1.37712e+08
       650.40000  2.66780e-06  1.38005e+08
       650.50000  1.74166e-06  9.03052e+07
       650.60000  1.74166e-06  9.05316e+07
       650.70000  1.74166e-06  9.07581e+07
       650.80000  1.74166e-06  9.10193e+07
       650.90000  1.74166e-06  9.12806e+07
       651.00000  1.74166e-06  9.15592e+07
       651.10000  1.74166e-06  9.16289e+07
       651.20000  1.74166e-06  9.16986e+07
       651.30000  1.73948e-06  9.16357e+07
       651.40000  1.73948e-06  9.16879e+07
       651.50000  1.17066e-06  6.17407e+07
       651.60000  1.17066e-06  6.17524e+07
       651.70000  1.17066e-06  6.17759e+07
       651.80000  1.17066e-06  6.17876e+07
       651.90000  1.17066e-06  6.17876e+07
       652.00000  1.17066e-06  6.17876e+07
       652.10000  1.17066e-06  6.17759e+07
       652.20000  1.17066e-06  6.17642e+07
       652.30000  1.17066e-06  6.17524e+07
       652.40000  1.17066e-06  6.17290e+07
       652.50000  8.58642e-07  4.52504e+07
       652.60000  8.58642e-07  4.52247e+07
       652.70000  8.58642e-07  4.51989e+07
       652.80000  8.58642e-07  4.51560e+07
       652.90000  8.58642e-07  4.51217e+07
       653.00000  8.58642e-07  4.50787e+07
       653.10000  8.58642e-07  4.50444e+07
       653.20000  8.58642e-07  4.50100e+07
       653.30000  8.58642e-07  4.49585e+07
       653.40000  8.58642e-07  4.49070e+07
       653.50000  6.36401e-07  3.32456e+07
       653.60000  6.36401e-07  3.32011e+07
       653.70000  6.36401e-07  3.31502e+07
       653.80000  6.35626e-07  3.30526e+07
       653.90000  6.35626e-07  3.29954e+07
       654.00000  6.35626e-07  3.29318e+07
       654.10000  6.35626e-07  3.28682e+07
       654.20000  6.35626e-07  3.27920e+07
       654.30000  6.35626e-07  3.27157e+07
       654.40000  6.35626e-07  3.26394e+07
       654.50000  4.44060e-07  2.27448e+07
       654.60000  4.44060e-07  2.26826e+07
       654.70000  4.44060e-07  2.26160e+07
       654.80000  4.44060e-07  2.25494e+07
       654.90000  4.44060e-07  2.24783e+07
       655.00000  4.44060e-07  2.24028e+07
       655.10000  4.44060e-07  2.21897e+07
       655.20000  4.44060e-07  2.19854e+07
       655.30000  4.44060e-07  2.17945e+07
       655.40000  4.44060e-07  2.16168e+07
       655.50000  3.56321e-07  1.72103e+07
       655.60000  3.56321e-07  1.70856e+07
       655.70000  3.56321e-07  1.69680e+07
       655.80000  3.56321e-07  1.68611e+07
       655.90000  3.56321e-07  1.67614e+07
       656.00000  3.56321e-07  1.66723e+07
       656.10000  3.56321e-07  1.65939e+07
       656.20000  3.56321e-07  1.65226e+07
       656.30000  3.56050e-07  1.64495e+07
       656.40000  3.56050e-07  1.63961e+07
       656.50000  2.48852e-07  1.14298e+07
       656.60000  2.48852e-07  1.14074e+07
       656.70000  2.48852e-07  1.13900e+07
       656.80000  2.48852e-07  1.13800e+07
       656.90000  2.48852e-07  1.13750e+07
       657.00000  2.48852e-07  1.13775e+07
       657.10000  2.48852e-07  1.14746e+07
       657.20000  2.48852e-07  1.15691e+07
       657.30000  2.48852e-07  1.16612e+07
       657.40000  2.48852e-07  1.17508e+07
       657.50000  2.10971e-07  1.00338e+07
       657.60000  2.10971e-07  1.01055e+07
       657.70000  2.10971e-07  1.01730e+07
       657.80000  2.10971e-07  1.02384e+07
       657.90000  2.10971e-07  1.02996e+07
       658.00000  2.10971e-07  1.03608e+07
       658.10000  2.10971e-07  1.04198e+07
       658.20000  2.10971e-07  1.04747e+07
       658.30000  2.10971e-07  1.05274e+07
       658.40000  2.10971e-07  1.05781e+07
       658.50000  1.86679e-07  9.40114e+06
       658.60000  1.86679e-07  9.44221e+06
       658.70000  1.86679e-07  9.47954e+06
       658.80000  1.86485e-07  9.50699e+06
       658.90000  1.86485e-07  9.54056e+06
       659.00000  1.86485e-07  9.57040e+06
       659.10000  1.86485e-07  9.60024e+06
       659.20000  1.86485e-07  9.62821e+06
       659.30000  1.86485e-07  9.65245e+06
       659.40000  1.86485e-07  9.67483e+06
       659.50000  1.43864e-07  7.47950e+06
       659.60000  1.43864e-07  7.49389e+06
       659.70000  1.43864e-07  7.50540e+06
       659.80000  1.43864e-07  7.51691e+06
       659.90000  1.43864e-07  7.52554e+06
       660.00000  1.43864e-07  7.53273e+06
       660.10000  1.43864e-07  7.53849e+06
       660.20000  1.43864e-07  7.54136e+06
       660.30000  1.43864e-07  7.54424e+06
       660.40000  1.43864e-07  7.54424e+06
       660.50000  1.15269e-07  6.04354e+06
       660.60000  1.15269e-07  6.04124e+06
       660.70000  1.15269e-07  6.03778e+06
       660.80000  1.15269e-07  6.03202e+06
       660.90000  1.15269e-07  6.02625e+06
       661.00000  1.15269e-07  6.01818e+06
       661.10000  1.15269e-07  6.01472e+06
       661.20000  1.15269e-07  6.01012e+06
       661.30000  1.14983e-07  5.99174e+06
       661.40000  1.14983e-07  5.98829e+06
       661.50000  1.01514e-07  5.28379e+06
       661.60000  1.01514e-07  5.28176e+06
       661.70000  1.01514e-07  5.27871e+06
       661.80000  1.01514e-07  5.27668e+06
       661.90000  1.01514e-07  5.27465e+06
       662.00000  1.01514e-07  5.27262e+06
       662.10000  1.01514e-07  5.27059e+06
       662.20000  1.01514e-07  5.26856e+06
       662.30000  1.01514e-07  5.26755e+06
       662.40000  1.01514e-07  5.26653e+06
       662.50000  8.70556e-08  4.51470e+06
       662.60000  8.70556e-08  4.51470e+06
       662.70000  8.70556e-08  4.51383e+06
       662.80000  8.70556e-08  4.51296e+06
       662.90000  8.70556e-08  4.51296e+06
       663.00000  8.70556e-08  4.51296e+06
       663.10000  8.70556e-08  4.51644e+06
       663.20000  8.70556e-08  4.51905e+06
       663.30000  8.70556e-08  4.52254e+06
       663.40000  8.70556e-08  4.52515e+06
       663.50000  7.20003e-08  3.74474e+06
       663.60000  7.20003e-08  3.74690e+06
       663.70000  7.20003e-08  3.74834e+06
       663.80000  7.18467e-08  3.74250e+06
       663.90000  7.18467e-08  3.74393e+06
       664.00000  7.18467e-08  3.74465e+06
       664.10000  7.18467e-08  3.74609e+06
       664.20000  7.18467e-08  3.74681e+06
       664.30000  7.18467e-08  3.74753e+06
       664.40000  7.18467e-08  3.74824e+06
       664.50000  5.55918e-08  2.90022e+06
       664.60000  5.55918e-08  2.90022e+06
       664.70000  5.55918e-08  2.90022e+06
       664.80000  5.55918e-08  2.90022e+06
       664.90000  5.55918e-08  2.90022e+06
       665.00000  5.55918e-08  2.89967e+06
       665.10000  5.55918e-08  2.89911e+06
       665.20000  5.55918e-08  2.89856e+06
       665.30000  5.55918e-08  2.89745e+06
       665.40000  5.55918e-08  2.89633e+06
       665.50000  5.73077e-08  2.98459e+06
       665.60000  5.73077e-08  2.98344e+06
       665.70000  5.73077e-08  2.98172e+06
       665.80000  5.73077e-08  2.98058e+06
       665.90000  5.73077e-08  2.97886e+06
       666.00000  5.73077e-08  2.97656e+06
       666.10000  5.73077e-08  2.97484e+06
       666.20000  5.73077e-08  2.97255e+06
       666.30000  5.71638e-08  2.96280e+06
       666.40000  5.71638e-08  2.96051e+06
       666.50000  3.92738e-08  2.03203e+06
       666.60000  3.92738e-08  2.03006e+06
       666.70000  3.92738e-08  2.02810e+06
       666.80000  3.92738e-08  2.02614e+06
       666.90000  3.92738e-08  2.02417e+06
       667.00000  3.92738e-08  2.02182e+06
       667.10000  3.92738e-08  2.02417e+06
       667.20000  3.92738e-08  2.02614e+06
       667.30000  3.92738e-08  2.02810e+06
       667.40000  3.92738e-08  2.03006e+06
       667.50000  4.06525e-08  2.10336e+06
       667.60000  4.06525e-08  2.10499e+06
       667.70000  4.06525e-08  2.10661e+06
       667.80000  4.06525e-08  2.10783e+06
       667.90000  4.06525e-08  2.10905e+06
       668.00000  4.06525e-08  2.11027e+06
       668.10000  4.06525e-08  2.11149e+06
       668.20000  4.06525e-08  2.11231e+06
       668.30000  4.06525e-08  2.11312e+06
       668.40000  4.06525e-08  2.11353e+06
       668.50000  4.19829e-08  2.18311e+06
       668.60000  4.19829e-08  2.18353e+06
       668.70000  4.19829e-08  2.18353e+06
       668.80000  4.19142e-08  2.17996e+06
       668.90000  4.19142e-08  2.17996e+06
       669.00000  4.19142e-08  2.17954e+06
       669.10000  4.19142e-08  2.17661e+06
       669.20000  4.19142e-08  2.17367e+06
       669.30000  4.19142e-08  2.17116e+06
       669.40000  4.19142e-08  2.16864e+06
       669.50000  4.31430e-08  2.22963e+06
       669.60000  4.31430e-08  2.22704e+06
       669.70000  4.31430e-08  2.22488e+06
       669.80000  4.31430e-08  2.22273e+06
       669.90000  4.31430e-08  2.22057e+06
       670.00000  4.31430e-08  2.21884e+06
       670.10000  4.31430e-08  2.21712e+06
       670.20000  4.31430e-08  2.21539e+06
       670.30000  4.31430e-08  2.21367e+06
       670.40000  4.31430e-08  2.21237e+06
       670.50000  2.22854e-08  1.14213e+06
       670.60000  2.22854e-08  1.14146e+06
       670.70000  2.22854e-08  1.14101e+06
       670.80000  2.22854e-08  1.14057e+06
       670.90000  2.22854e-08  1.14012e+06
       671.00000  2.22854e-08  1.13990e+06
       671.10000  2.22854e-08  1.13945e+06
       671.20000  2.22854e-08  1.13945e+06
       671.30000  2.22863e-08  1.13927e+06
       671.40000  2.22863e-08  1.13927e+06
       671.50000  2.29705e-08  1.17425e+06
       671.60000  2.29705e-08  1.17425e+06
       671.70000  2.29705e-08  1.17425e+06
       671.80000  2.29705e-08  1.17448e+06
       671.90000  2.29705e-08  1.17471e+06
       672.00000  2.29705e-08  1.17517e+06
       672.10000  2.29705e-08  1.17563e+06
       672.20000  2.29705e-08  1.17609e+06
       672.30000  2.29705e-08  1.17655e+06
       672.40000  2.29705e-08  1.17724e+06
       672.50000  2.37680e-08  1.21882e+06
       672.60000  2.37680e-08  1.21953e+06
       672.70000  2.37680e-08  1.22025e+06
       672.80000  2.37680e-08  1.22120e+06
       672.90000  2.37680e-08  1.22215e+06
       673.00000  2.37680e-08  1.22334e+06
       673.10000  2.37680e-08  1.22286e+06
       673.20000  2.37680e-08  1.22239e+06
       673.30000  2.37680e-08  1.22191e+06
       673.40000  2.37680e-08  1.22167e+06
       673.50000  2.44387e-08  1.25566e+06
       673.60000  2.44387e-08  1.25542e+06
       673.70000  2.44387e-08  1.25517e+06
       673.80000  2.44485e-08  1.25518e+06
       673.90000  2.44485e-08  1.25494e+06
       674.00000  2.44485e-08  1.25469e+06
       674.10000  2.44485e-08  1.25445e+06
       674.20000  2.44485e-08  1.25421e+06
       674.30000  2.44485e-08  1.25396e+06
       674.40000  2.44485e-08  1.25372e+06
       674.50000  2.36248e-08  1.21125e+06
       674.60000  2.36248e-08  1.21125e+06
       674.70000  2.36248e-08  1.21101e+06
       674.80000  2.36248e-08  1.21101e+06
       674.90000  2.36248e-08  1.21077e+06
       675.00000  2.36248e-08  1.21077e+06
       675.10000  2.36248e-08  1.21101e+06
       675.20000  2.36248e-08  1.21125e+06
       675.30000  2.36248e-08  1.21148e+06
       675.40000  2.36248e-08  1.21172e+06
       675.50000  2.54211e-08  1.30385e+06
       675.60000  2.54211e-08  1.30410e+06
       675.70000  2.54211e-08  1.30436e+06
       675.80000  2.54211e-08  1.30436e+06
       675.90000  2.54211e-08  1.30461e+06
       676.00000  2.54211e-08  1.30461e+06
       676.10000  2.54211e-08  1.30486e+06
       676.20000  2.54211e-08  1.30486e+06
       676.30000  2.53952e-08  1.30353e+06
       676.40000  2.53952e-08  1.30353e+06
       676.50000  2.39981e-08  1.23206e+06
       676.60000  2.39981e-08  1.23206e+06
       676.70000  2.39981e-08  1.23206e+06
       676.80000  2.39981e-08  1.23182e+06
       676.90000  2.39981e-08  1.23182e+06
       677.00000  2.39981e-08  1.23182e+06
       677.10000  2.39981e-08  1.23182e+06
       677.20000  2.39981e-08  1.23158e+06
       677.30000  2.39981e-08  1.23158e+06
       677.40000  2.39981e-08  1.23134e+06
       677.50000  2.42695e-08  1.24527e+06
       677.60000  2.42695e-08  1.24502e+06
       677.70000  2.42695e-08  1.24502e+06
       677.80000  2.42695e-08  1.24478e+06
       677.90000  2.42695e-08  1.24454e+06
       678.00000  2.42695e-08  1.24429e+06
       678.10000  2.42695e-08  1.24405e+06
       678.20000  2.42695e-08  1.24381e+06
       678.30000  2.42695e-08  1.24357e+06
       678.40000  2.42695e-08  1.24332e+06
       678.50000  2.54355e-08  1.30255e+06
       678.60000  2.54355e-08  1.30230e+06
       678.70000  2.54355e-08  1.30204e+06
       678.80000  2.54336e-08  1.30144e+06
       678.90000  2.54336e-08  1.30118e+06
       679.00000  2.54336e-08  1.30067e+06
       679.10000  2.54336e-08  1.30067e+06
       679.20000  2.54336e-08  1.30093e+06
       679.30000  2.54336e-08  1.30093e+06
       679.40000  2.54336e-08  1.30093e+06
       679.50000  2.47355e-08  1.26522e+06
       679.60000  2.47355e-08  1.26522e+06
       679.70000  2.47355e-08  1.26522e+06
       679.80000  2.47355e-08  1.26522e+06
       679.90000  2.47355e-08  1.26522e+06
       680.00000  2.47355e-08  1.26497e+06
       680.10000  2.47355e-08  1.26497e+06
       680.20000  2.47355e-08  1.26497e+06
       680.30000  2.47355e-08  1.26473e+06
       680.40000  2.47355e-08  1.26473e+06
       680.50000  2.36549e-08  1.20924e+06
       680.60000  2.36549e-08  1.20924e+06
       680.70000  2.36549e-08  1.20900e+06
       680.80000  2.36549e-08  1.20877e+06
       680.90000  2.36549e-08  1.20853e+06
       681.00000  2.36549e-08  1.20853e+06
       681.10000  2.36549e-08  1.20829e+06
       681.20000  2.36549e-08  1.20806e+06
       681.30000  2.36527e-08  1.20794e+06
       681.40000  2.36527e-08  1.20770e+06
       681.50000  2.61932e-08  1.33716e+06
       681.60000  2.61932e-08  1.33690e+06
       681.70000  2.61932e-08  1.33664e+06
       681.80000  2.61932e-08  1.33611e+06
       681.90000  2.61932e-08  1.33585e+06
       682.00000  2.61932e-08  1.33559e+06
       682.10000  2.61932e-08  1.33507e+06
       682.20000  2.61932e-08  1.33454e+06
       682.30000  2.61932e-08  1.33428e+06
       682.40000  2.61932e-08  1.33376e+06
       682.50000  2.65041e-08  1.34906e+06
       682.60000  2.65041e-08  1.34853e+06
       682.70000  2.65041e-08  1.34800e+06
       682.80000  2.65041e-08  1.34747e+06
       682.90000  2.65041e-08  1.34667e+06
       683.00000  2.65041e-08  1.34614e+06
       683.10000  2.65041e-08  1.34561e+06
       683.20000  2.65041e-08  1.34482e+06
       683.30000  2.65041e-08  1.34402e+06
       683.40000  2.65041e-08  1.34323e+06
       683.50000  2.54362e-08  1.28860e+06
       683.60000  2.54362e-08  1.28783e+06
       683.70000  2.54362e-08  1.28707e+06
       683.80000  2.54167e-08  1.28507e+06
       683.90000  2.54167e-08  1.28431e+06
       684.00000  2.54167e-08  1.28354e+06
       684.10000  2.54167e-08  1.28253e+06
       684.20000  2.54167e-08  1.28176e+06
       684.30000  2.54167e-08  1.28075e+06
       684.40000  2.54167e-08  1.27998e+06
       684.50000  2.73232e-08  1.37490e+06
       684.60000  2.73232e-08  1.37381e+06
       684.70000  2.73232e-08  1.37272e+06
       684.80000  2.73232e-08  1.37162e+06
       684.90000  2.73232e-08  1.37026e+06
       685.00000  2.73232e-08  1.36916e+06
       685.10000  2.73232e-08  1.37026e+06
       685.20000  2.73232e-08  1.37162e+06
       685.30000  2.73232e-08  1.37272e+06
       685.40000  2.73232e-08  1.37354e+06
       685.50000  2.61492e-08  1.31556e+06
       685.60000  2.61492e-08  1.31661e+06
       685.70000  2.61492e-08  1.31739e+06
       685.80000  2.61492e-08  1.31818e+06
       685.90000  2.61492e-08  1.31896e+06
       686.00000  2.61492e-08  1.31975e+06
       686.10000  2.61492e-08  1.32053e+06
       686.20000  2.61492e-08  1.32106e+06
       686.30000  2.61217e-08  1.32045e+06
       686.40000  2.61217e-08  1.32097e+06
       686.50000  2.34007e-08  1.18384e+06
       686.60000  2.34007e-08  1.18431e+06
       686.70000  2.34007e-08  1.18478e+06
       686.80000  2.34007e-08  1.18501e+06
       686.90000  2.34007e-08  1.18548e+06
       687.00000  2.34007e-08  1.18571e+06
       687.10000  2.34007e-08  1.18595e+06
       687.20000  2.34007e-08  1.18595e+06
       687.30000  2.34007e-08  1.18595e+06
       687.40000  2.34007e-08  1.18595e+06
       687.50000  2.41674e-08  1.22481e+06
       687.60000  2.41674e-08  1.22481e+06
       687.70000  2.41674e-08  1.22481e+06
       687.80000  2.41674e-08  1.22481e+06
       687.90000  2.41674e-08  1.22481e+06
       688.00000  2.41674e-08  1.22456e+06
       688.10000  2.41674e-08  1.22456e+06
       688.20000  2.41674e-08  1.22456e+06
       688.30000  2.41674e-08  1.22432e+06
       688.40000  2.41674e-08  1.22432e+06
       688.50000  1.89349e-08      959051.
       688.60000  1.89349e-08      958862.
       688.70000  1.89349e-08      958862.
       688.80000  1.89107e-08      957450.
       688.90000  1.89107e-08      957261.
       689.00000  1.89107e-08      957072.
       689.10000  1.89107e-08      956883.
       689.20000  1.89107e-08      956694.
       689.30000  1.89107e-08      956504.
       689.40000  1.89107e-08      956315.
       689.50000  1.83955e-08      930075.
       689.60000  1.83955e-08      929891.
       689.70000  1.83955e-08      929524.
       689.80000  1.83955e-08      929340.
       689.90000  1.83955e-08      929156.
       690.00000  1.83955e-08      928788.
       690.10000  1.83955e-08      928420.
       690.20000  1.83955e-08      928236.
       690.30000  1.83955e-08      927868.
       690.40000  1.83955e-08      927500.
       690.50000  1.63021e-08      821786.
       690.60000  1.63021e-08      821460.
       690.70000  1.63021e-08      821134.
       690.80000  1.63021e-08      820808.
       690.90000  1.63021e-08      820482.
       691.00000  1.63021e-08      820156.
       691.10000  1.63021e-08      820482.
       691.20000  1.63021e-08      820645.
       691.30000  1.62865e-08      820187.
       691.40000  1.62865e-08      820350.
       691.50000  1.28986e-08      649832.
       691.60000  1.28986e-08      650090.
       691.70000  1.28986e-08      650219.
       691.80000  1.28986e-08      650348.
       691.90000  1.28986e-08      650476.
       692.00000  1.28986e-08      650476.
       692.10000  1.28986e-08      650606.
       692.20000  1.28986e-08      650734.
       692.30000  1.28986e-08      650734.
       692.40000  1.28986e-08      650734.
       692.50000  1.47190e-08      742719.
       692.60000  1.47190e-08      742719.
       692.70000  1.47190e-08      742719.
       692.80000  1.47190e-08      742719.
       692.90000  1.47190e-08      742719.
       693.00000  1.47190e-08      742572.
       693.10000  1.47190e-08      742572.
       693.20000  1.47190e-08      742425.
       693.30000  1.47190e-08      742278.
       693.40000  1.47190e-08      742130.
       693.50000  1.11879e-08      563984.
       693.60000  1.11879e-08      563872.
       693.70000  1.11879e-08      563760.
       693.80000  1.11436e-08      561412.
       693.90000  1.11436e-08      561190.
       694.00000  1.11436e-08      561078.
       694.10000  1.11436e-08      560967.
       694.20000  1.11436e-08      560744.
       694.30000  1.11436e-08      560632.
       694.40000  1.11436e-08      560410.
       694.50000  8.52255e-09      428429.
       694.60000  8.52255e-09      428344.
       694.70000  8.52255e-09      428173.
       694.80000  8.52255e-09      428003.
       694.90000  8.52255e-09      427832.
       695.00000  8.52255e-09      427662.
       695.10000  8.52255e-09      427491.
       695.20000  8.52255e-09      427321.
       695.30000  8.52255e-09      427065.
       695.40000  8.52255e-09      426895.
       695.50000  1.03361e-08      517528.
       695.60000  1.03361e-08      517218.
       695.70000  1.03361e-08      517011.
       695.80000  1.03361e-08      516701.
       695.90000  1.03361e-08      516391.
       696.00000  1.03361e-08      516184.
       696.10000  1.03361e-08      515874.
       696.20000  1.03361e-08      515564.
       696.30000  1.03259e-08      514748.
       696.40000  1.03259e-08      514438.
       696.50000  1.46511e-08      729478.
       696.60000  1.46511e-08      729039.
       696.70000  1.46511e-08      728453.
       696.80000  1.46511e-08      728013.
       696.90000  1.46511e-08      727574.
       697.00000  1.46511e-08      726988.
       697.10000  1.46511e-08      728013.
       697.20000  1.46511e-08      728746.
       697.30000  1.46511e-08      729625.
       697.40000  1.46511e-08      730357.
       697.50000  1.16618e-08      581923.
       697.60000  1.16618e-08      582390.
       697.70000  1.16618e-08      582856.
       697.80000  1.16618e-08      583206.
       697.90000  1.16618e-08      583556.
       698.00000  1.16618e-08      583789.
       698.10000  1.16618e-08      584022.
       698.20000  1.16618e-08      584256.
       698.30000  1.16618e-08      584372.
       698.40000  1.16618e-08      584489.
       698.50000  1.39464e-08      699134.
       698.60000  1.39464e-08      699134.
       698.70000  1.39464e-08      698995.
       698.80000  1.39226e-08      697663.
       698.90000  1.39226e-08      697523.
       699.00000  1.39226e-08      697245.
       699.10000  1.39226e-08      695992.
       699.20000  1.39226e-08      694600.
       699.30000  1.39226e-08      693486.
       699.40000  1.39226e-08      692233.
       699.50000  1.22963e-08      610386.
       699.60000  1.22963e-08      609403.
       699.70000  1.22963e-08      608542.
       699.80000  1.22963e-08      607681.
       699.90000  1.22963e-08      606821.
       700.00000  1.22963e-08      606083.
       700.10000  1.22963e-08      605345.
       700.20000  1.22963e-08      604607.
       700.30000  1.22963e-08      603992.
       700.40000  1.22963e-08      603378.
       700.50000  9.35383e-09      458525.
       700.60000  9.35383e-09      458150.
       700.70000  9.35383e-09      457776.
       700.80000  9.35383e-09      457496.
       700.90000  9.35383e-09      457215.
       701.00000  9.35383e-09      456934.
       701.10000  9.35383e-09      456841.
       701.20000  9.35383e-09      456747.
       701.30000  9.34744e-09      456342.
       701.40000  9.34744e-09      456342.
       701.50000  1.31447e-08      641725.
       701.60000  1.31447e-08      641725.
       701.70000  1.31447e-08      641725.
       701.80000  1.31447e-08      641856.
       701.90000  1.31447e-08      641856.
       702.00000  1.31447e-08      641988.
       702.10000  1.31447e-08      642251.
       702.20000  1.31447e-08      642382.
       702.30000  1.31447e-08      642645.
       702.40000  1.31447e-08      642776.
       702.50000  1.32056e-08      646019.
       702.60000  1.32056e-08      646415.
       702.70000  1.32056e-08      646679.
       702.80000  1.32056e-08      647075.
       702.90000  1.32056e-08      647471.
       703.00000  1.32056e-08      647868.
       703.10000  1.32056e-08      649056.
       703.20000  1.32056e-08      650245.
       703.30000  1.32056e-08      651301.
       703.40000  1.32056e-08      652358.
       703.50000  8.90114e-09      440339.
       703.60000  8.90114e-09      441051.
       703.70000  8.90114e-09      441585.
       703.80000  8.87718e-09      441018.
       703.90000  8.87718e-09      441551.
       704.00000  8.87718e-09      441995.
       704.10000  8.87718e-09      442527.
       704.20000  8.87718e-09      442971.
       704.30000  8.87718e-09      443326.
       704.40000  8.87718e-09      443682.
       704.50000  1.54661e-08      773615.
       704.60000  1.54661e-08      774234.
       704.70000  1.54661e-08      774698.
       704.80000  1.54661e-08      775007.
       704.90000  1.54661e-08      775471.
       705.00000  1.54661e-08      775780.
       705.10000  1.54661e-08      775935.
       705.20000  1.54661e-08      776090.
       705.30000  1.54661e-08      776244.
       705.40000  1.54661e-08      776399.
       705.50000  1.39162e-08      698593.
       705.60000  1.39162e-08      698593.
       705.70000  1.39162e-08      698454.
       705.80000  1.39162e-08      698315.
       705.90000  1.39162e-08      698176.
       706.00000  1.39162e-08      697898.
       706.10000  1.39162e-08      697619.
       706.20000  1.39162e-08      697202.
       706.30000  1.39267e-08      697308.
       706.40000  1.39267e-08      696890.
       706.50000  7.43539e-09      371770.
       706.60000  7.43539e-09      371472.
       706.70000  7.43539e-09      371175.
       706.80000  7.43539e-09      370803.
       706.90000  7.43539e-09      370431.
       707.00000  7.43539e-09      370060.
       707.10000  7.43539e-09      369762.
       707.20000  7.43539e-09      369539.
       707.30000  7.43539e-09      369242.
       707.40000  7.43539e-09      369019.
       707.50000  1.55482e-08      771189.
       707.60000  1.55482e-08      770722.
       707.70000  1.55482e-08      770412.
       707.80000  1.55482e-08      769945.
       707.90000  1.55482e-08      769634.
       708.00000  1.55482e-08      769323.
       708.10000  1.55482e-08      769012.
       708.20000  1.55482e-08      768701.
       708.30000  1.55482e-08      768390.
       708.40000  1.55482e-08      768079.
       708.50000  9.50439e-09      469422.
       708.60000  9.50439e-09      469232.
       708.70000  9.50439e-09      469137.
       708.80000  9.47203e-09      467445.
       708.90000  9.47203e-09      467350.
       709.00000  9.47203e-09      467350.
       709.10000  9.47203e-09      467539.
       709.20000  9.47203e-09      467729.
       709.30000  9.47203e-09      467824.
       709.40000  9.47203e-09      468013.
       709.50000  1.67259e-08      826594.
       709.60000  1.67259e-08      826929.
       709.70000  1.67259e-08      827096.
       709.80000  1.67259e-08      827264.
       709.90000  1.67259e-08      827431.
       710.00000  1.67259e-08      827598.
       710.10000  1.67259e-08      827765.
       710.20000  1.67259e-08      827933.
       710.30000  1.67259e-08      827933.
       710.40000  1.67259e-08      828100.
       710.50000  1.24464e-08      616219.
       710.60000  1.24464e-08      616219.
       710.70000  1.24464e-08      616219.
       710.80000  1.24464e-08      616219.
       710.90000  1.24464e-08      616219.
       711.00000  1.24464e-08      616219.
       711.10000  1.24464e-08      616219.
       711.20000  1.24464e-08      616095.
       711.30000  1.24490e-08      616228.
       711.40000  1.24490e-08      616103.
       711.50000  1.55218e-08      768017.
       711.60000  1.55218e-08      767862.
       711.70000  1.55218e-08      767707.
       711.80000  1.55218e-08      767552.
       711.90000  1.55218e-08      767396.
       712.00000  1.55218e-08      767086.
       712.10000  1.55218e-08      766931.
       712.20000  1.55218e-08      766620.
       712.30000  1.55218e-08      766465.
       712.40000  1.55218e-08      766154.
       712.50000  1.50683e-08      743468.
       712.60000  1.50683e-08      743166.
       712.70000  1.50683e-08      742714.
       712.80000  1.50683e-08      742413.
       712.90000  1.50683e-08      742112.
       713.00000  1.50683e-08      741660.
       713.10000  1.50683e-08      741660.
       713.20000  1.50683e-08      741660.
       713.30000  1.50683e-08      741660.
       713.40000  1.50683e-08      741509.
       713.50000  1.56518e-08      770225.
       713.60000  1.56518e-08      770225.
       713.70000  1.56518e-08      770069.
       713.80000  1.56481e-08      769889.
       713.90000  1.56481e-08      769732.
       714.00000  1.56481e-08      769732.
       714.10000  1.56481e-08      769576.
       714.20000  1.56481e-08      769420.
       714.30000  1.56481e-08      769420.
       714.40000  1.56481e-08      769263.
       714.50000  1.36255e-08      669695.
       714.60000  1.36255e-08      669558.
       714.70000  1.36255e-08      669558.
       714.80000  1.36255e-08      669422.
       714.90000  1.36255e-08      669286.
       715.00000  1.36255e-08      669150.
       715.10000  1.36255e-08      669013.
       715.20000  1.36255e-08      669013.
       715.30000  1.36255e-08      669013.
       715.40000  1.36255e-08      668877.
       715.50000  1.92029e-08      942479.
       715.60000  1.92029e-08      942287.
       715.70000  1.92029e-08      942095.
       715.80000  1.92029e-08      941903.
       715.90000  1.92029e-08      941711.
       716.00000  1.92029e-08      941327.
       716.10000  1.92029e-08      941135.
       716.20000  1.92029e-08      940751.
       716.30000  1.91752e-08      939011.
       716.40000  1.91752e-08      938628.
       716.50000  1.35164e-08      661359.
       716.60000  1.35164e-08      661088.
       716.70000  1.35164e-08      660818.
       716.80000  1.35164e-08      660413.
       716.90000  1.35164e-08      660142.
       717.00000  1.35164e-08      659737.
       717.10000  1.35164e-08      659331.
       717.20000  1.35164e-08      658926.
       717.30000  1.35164e-08      658520.
       717.40000  1.35164e-08      658115.
       717.50000  1.44838e-08      704781.
       717.60000  1.44838e-08      704202.
       717.70000  1.44838e-08      703767.
       717.80000  1.44838e-08      703188.
       717.90000  1.44838e-08      702608.
       718.00000  1.44838e-08      702029.
       718.10000  1.44838e-08      701450.
       718.20000  1.44838e-08      700870.
       718.30000  1.44838e-08      700291.
       718.40000  1.44838e-08      699567.
       718.50000  2.11316e-08  1.01981e+06
       718.60000  2.11316e-08  1.01875e+06
       718.70000  2.11316e-08  1.01770e+06
       718.80000  2.10448e-08  1.01246e+06
       718.90000  2.10448e-08  1.01141e+06
       719.00000  2.10448e-08  1.01036e+06
       719.10000  2.10448e-08  1.01036e+06
       719.20000  2.10448e-08  1.01036e+06
       719.30000  2.10448e-08  1.01036e+06
       719.40000  2.10448e-08  1.01057e+06
       719.50000  1.80318e-08      865888.
       719.60000  1.80318e-08      866068.
       719.70000  1.80318e-08      866068.
       719.80000  1.80318e-08      866249.
       719.90000  1.80318e-08      866429.
       720.00000  1.80318e-08      866790.
       720.10000  1.80318e-08      866970.
       720.20000  1.80318e-08      867150.
       720.30000  1.80318e-08      867511.
       720.40000  1.80318e-08      867691.
       720.50000  3.78142e-08  1.82037e+06
       720.60000  3.78142e-08  1.82113e+06
       720.70000  3.78142e-08  1.82189e+06
       720.80000  3.78142e-08  1.82264e+06
       720.90000  3.78142e-08  1.82378e+06
       721.00000  3.78142e-08  1.82453e+06
       721.10000  3.78142e-08  1.82642e+06
       721.20000  3.78142e-08  1.82831e+06
       721.30000  3.77372e-08  1.82648e+06
       721.40000  3.77372e-08  1.82799e+06
       721.50000  5.67945e-08  2.75396e+06
       721.60000  5.67945e-08  2.75624e+06
       721.70000  5.67945e-08  2.75851e+06
       721.80000  5.67945e-08  2.76135e+06
       721.90000  5.67945e-08  2.76362e+06
       722.00000  5.67945e-08  2.76532e+06
       722.10000  5.67945e-08  2.76759e+06
       722.20000  5.67945e-08  2.76987e+06
       722.30000  5.67945e-08  2.77157e+06
       722.40000  5.67945e-08  2.77327e+06
       722.50000  9.10182e-08  4.44715e+06
       722.60000  9.10182e-08  4.45079e+06
       722.70000  9.10182e-08  4.45261e+06
       722.80000  9.10182e-08  4.45534e+06
       722.90000  9.10182e-08  4.45807e+06
       723.00000  9.10182e-08  4.45989e+06
       723.10000  9.10182e-08  4.46262e+06
       723.20000  9.10182e-08  4.46444e+06
       723.30000  9.10182e-08  4.46626e+06
       723.40000  9.10182e-08  4.46808e+06
       723.50000  1.11448e-07  5.47322e+06
       723.60000  1.11448e-07  5.47434e+06
       723.70000  1.11448e-07  5.47656e+06
       723.80000  1.11106e-07  5.46087e+06
       723.90000  1.11106e-07  5.46198e+06
       724.00000  1.11106e-07  5.46309e+06
       724.10000  1.11106e-07  5.46421e+06
       724.20000  1.11106e-07  5.46532e+06
       724.30000  1.11106e-07  5.46643e+06
       724.40000  1.11106e-07  5.46754e+06
       724.50000  2.28267e-07  1.12330e+07
       724.60000  2.28267e-07  1.12330e+07
       724.70000  2.28267e-07  1.12330e+07
       724.80000  2.28267e-07  1.12330e+07
       724.90000  2.28267e-07  1.12330e+07
       725.00000  2.28267e-07  1.12330e+07
       725.10000  2.28267e-07  1.12376e+07
       725.20000  2.28267e-07  1.12422e+07
       725.30000  2.28267e-07  1.12444e+07
       725.40000  2.28267e-07  1.12490e+07
       725.50000  2.33031e-07  1.14861e+07
       725.60000  2.33031e-07  1.14884e+07
       725.70000  2.33031e-07  1.14884e+07
       725.80000  2.33031e-07  1.14907e+07
       725.90000  2.33031e-07  1.14907e+07
       726.00000  2.33031e-07  1.14907e+07
       726.10000  2.33031e-07  1.14907e+07
       726.20000  2.33031e-07  1.14907e+07
       726.30000  2.32424e-07  1.14585e+07
       726.40000  2.32424e-07  1.14562e+07
       726.50000  2.37893e-07  1.17233e+07
       726.60000  2.37893e-07  1.17210e+07
       726.70000  2.37893e-07  1.17186e+07
       726.80000  2.37893e-07  1.17138e+07
       726.90000  2.37893e-07  1.17091e+07
       727.00000  2.37893e-07  1.17043e+07
       727.10000  2.37893e-07  1.16877e+07
       727.20000  2.37893e-07  1.16710e+07
       727.30000  2.37893e-07  1.16544e+07
       727.40000  2.37893e-07  1.16401e+07
       727.50000  2.42551e-07  1.18535e+07
       727.60000  2.42551e-07  1.18389e+07
       727.70000  2.42551e-07  1.18268e+07
       727.80000  2.42551e-07  1.18147e+07
       727.90000  2.42551e-07  1.18025e+07
       728.00000  2.42551e-07  1.17928e+07
       728.10000  2.42551e-07  1.17831e+07
       728.20000  2.42551e-07  1.17734e+07
       728.30000  2.42551e-07  1.17637e+07
       728.40000  2.42551e-07  1.17564e+07
       728.50000  2.48234e-07  1.20244e+07
       728.60000  2.48234e-07  1.20195e+07
       728.70000  2.48234e-07  1.20120e+07
       728.80000  2.48286e-07  1.20121e+07
       728.90000  2.48286e-07  1.20071e+07
       729.00000  2.48286e-07  1.20046e+07
       729.10000  2.48286e-07  1.20021e+07
       729.20000  2.48286e-07  1.19997e+07
       729.30000  2.48286e-07  1.19997e+07
       729.40000  2.48286e-07  1.19972e+07
       729.50000  1.27113e-07  6.14337e+06
       729.60000  1.27113e-07  6.14337e+06
       729.70000  1.27113e-07  6.14464e+06
       729.80000  1.27113e-07  6.14591e+06
       729.90000  1.27113e-07  6.14846e+06
       730.00000  1.27113e-07  6.15100e+06
       730.10000  1.27113e-07  6.15354e+06
       730.20000  1.27113e-07  6.15608e+06
       730.30000  1.27113e-07  6.15990e+06
       730.40000  1.27113e-07  6.16371e+06
       730.50000  1.29875e-07  6.30153e+06
       730.60000  1.29875e-07  6.30672e+06
       730.70000  1.29875e-07  6.31192e+06
       730.80000  1.29875e-07  6.31711e+06
       730.90000  1.29875e-07  6.32361e+06
       731.00000  1.29875e-07  6.33010e+06
       731.10000  1.29875e-07  6.32880e+06
       731.20000  1.29875e-07  6.32750e+06
       731.30000  1.29779e-07  6.32155e+06
       731.40000  1.29779e-07  6.32155e+06
       731.50000  1.19519e-07  5.82059e+06
       731.60000  1.19519e-07  5.81940e+06
       731.70000  1.19519e-07  5.81820e+06
       731.80000  1.19519e-07  5.81820e+06
       731.90000  1.19519e-07  5.81701e+06
       732.00000  1.19519e-07  5.81581e+06
       732.10000  1.19519e-07  5.81462e+06
       732.20000  1.19519e-07  5.81342e+06
       732.30000  1.19519e-07  5.81342e+06
       732.40000  1.19519e-07  5.81223e+06
       732.50000  1.17319e-07  5.70406e+06
       732.60000  1.17319e-07  5.70289e+06
       732.70000  1.17319e-07  5.70172e+06
       732.80000  1.17319e-07  5.70054e+06
       732.90000  1.17319e-07  5.69937e+06
       733.00000  1.17319e-07  5.69820e+06
       733.10000  1.17319e-07  5.69702e+06
       733.20000  1.17319e-07  5.69468e+06
       733.30000  1.17319e-07  5.69350e+06
       733.40000  1.17319e-07  5.69116e+06
       733.50000  1.20204e-07  5.82989e+06
       733.60000  1.20204e-07  5.82869e+06
       733.70000  1.20204e-07  5.82629e+06
       733.80000  1.20005e-07  5.81547e+06
       733.90000  1.20005e-07  5.81427e+06
       734.00000  1.20005e-07  5.81307e+06
       734.10000  1.20005e-07  5.81187e+06
       734.20000  1.20005e-07  5.81067e+06
       734.30000  1.20005e-07  5.80946e+06
       734.40000  1.20005e-07  5.80946e+06
       734.50000  1.40437e-07  6.79713e+06
       734.60000  1.40437e-07  6.79573e+06
       734.70000  1.40437e-07  6.79573e+06
       734.80000  1.40437e-07  6.79432e+06
       734.90000  1.40437e-07  6.79432e+06
       735.00000  1.40437e-07  6.79292e+06
       735.10000  1.40437e-07  6.79292e+06
       735.20000  1.40437e-07  6.79292e+06
       735.30000  1.40437e-07  6.79292e+06
       735.40000  1.40437e-07  6.79151e+06
       735.50000  1.43399e-07  6.93476e+06
       735.60000  1.43399e-07  6.93476e+06
       735.70000  1.43399e-07  6.93476e+06
       735.80000  1.43399e-07  6.93619e+06
       735.90000  1.43399e-07  6.93619e+06
       736.00000  1.43399e-07  6.93619e+06
       736.10000  1.43399e-07  6.93619e+06
       736.20000  1.43399e-07  6.93762e+06
       736.30000  1.43125e-07  6.92438e+06
       736.40000  1.43125e-07  6.92581e+06
       736.50000  2.92412e-07  1.41498e+07
       736.60000  2.92412e-07  1.41527e+07
       736.70000  2.92412e-07  1.41556e+07
       736.80000  2.92412e-07  1.41556e+07
       736.90000  2.92412e-07  1.41586e+07
       737.00000  2.92412e-07  1.41615e+07
       737.10000  2.92412e-07  1.41469e+07
       737.20000  2.92412e-07  1.41293e+07
       737.30000  2.92412e-07  1.41147e+07
       737.40000  2.92412e-07  1.41001e+07
       737.50000  2.98649e-07  1.43829e+07
       737.60000  2.98649e-07  1.43680e+07
       737.70000  2.98649e-07  1.43531e+07
       737.80000  2.98649e-07  1.43381e+07
       737.90000  2.98649e-07  1.43262e+07
       738.00000  2.98649e-07  1.43112e+07
       738.10000  2.98649e-07  1.42963e+07
       738.20000  2.98649e-07  1.42814e+07
       738.30000  2.98649e-07  1.42694e+07
       738.40000  2.98649e-07  1.42575e+07
       738.50000  3.04343e-07  1.45141e+07
       738.60000  3.04343e-07  1.45019e+07
       738.70000  3.04343e-07  1.44898e+07
       738.80000  3.03064e-07  1.44168e+07
       738.90000  3.03064e-07  1.44046e+07
       739.00000  3.03064e-07  1.43925e+07
       739.10000  3.03064e-07  1.43683e+07
       739.20000  3.03064e-07  1.43471e+07
       739.30000  3.03064e-07  1.43289e+07
       739.40000  3.03064e-07  1.43107e+07
       739.50000  3.08536e-07  1.45506e+07
       739.60000  3.08536e-07  1.45351e+07
       739.70000  3.08536e-07  1.45228e+07
       739.80000  3.08536e-07  1.45074e+07
       739.90000  3.08536e-07  1.44981e+07
       740.00000  3.08536e-07  1.44858e+07
       740.10000  3.08536e-07  1.44796e+07
       740.20000  3.08536e-07  1.44703e+07
       740.30000  3.08536e-07  1.44642e+07
       740.40000  3.08536e-07  1.44611e+07
       740.50000  4.73226e-07  2.21754e+07
       740.60000  4.73226e-07  2.21706e+07
       740.70000  4.73226e-07  2.21706e+07
       740.80000  4.73226e-07  2.21706e+07
       740.90000  4.73226e-07  2.21754e+07
       741.00000  4.73226e-07  2.21801e+07
       741.10000  4.73226e-07  2.21896e+07
       741.20000  4.73226e-07  2.21990e+07
       741.30000  4.72904e-07  2.21934e+07
       741.40000  4.72904e-07  2.22076e+07
       741.50000  3.21582e-07  1.51111e+07
       741.60000  3.21582e-07  1.51240e+07
       741.70000  3.21582e-07  1.51401e+07
       741.80000  3.21582e-07  1.51529e+07
       741.90000  3.21582e-07  1.51722e+07
       742.00000  3.21582e-07  1.51883e+07
       742.10000  3.21582e-07  1.52076e+07
       742.20000  3.21582e-07  1.52301e+07
       742.30000  3.21582e-07  1.52526e+07
       742.40000  3.21582e-07  1.52751e+07
       742.50000  3.28555e-07  1.56327e+07
       742.60000  3.28555e-07  1.56589e+07
       742.70000  3.28555e-07  1.56885e+07
       742.80000  3.28555e-07  1.57181e+07
       742.90000  3.28555e-07  1.57509e+07
       743.00000  3.28555e-07  1.57838e+07
       743.10000  3.28555e-07  1.57772e+07
       743.20000  3.28555e-07  1.57739e+07
       743.30000  3.28555e-07  1.57706e+07
       743.40000  3.28555e-07  1.57641e+07
       743.50000  3.33676e-07  1.60065e+07
       743.60000  3.33676e-07  1.60031e+07
       743.70000  3.33676e-07  1.59998e+07
       743.80000  3.33527e-07  1.59893e+07
       743.90000  3.33527e-07  1.59860e+07
       744.00000  3.33527e-07  1.59826e+07
       744.10000  3.33527e-07  1.59826e+07
       744.20000  3.33527e-07  1.59793e+07
       744.30000  3.33527e-07  1.59793e+07
       744.40000  3.33527e-07  1.59793e+07
       744.50000  1.70663e-07  8.17478e+06
       744.60000  1.70663e-07  8.17478e+06
       744.70000  1.70663e-07  8.17478e+06
       744.80000  1.70663e-07  8.17478e+06
       744.90000  1.70663e-07  8.17648e+06
       745.00000  1.70663e-07  8.17648e+06
       745.10000  1.70663e-07  8.18160e+06
       745.20000  1.70663e-07  8.18672e+06
       745.30000  1.70663e-07  8.19014e+06
       745.40000  1.70663e-07  8.19526e+06
       745.50000  1.72610e-07  8.29220e+06
       745.60000  1.72610e-07  8.29565e+06
       745.70000  1.72610e-07  8.29911e+06
       745.80000  1.72610e-07  8.30256e+06
       745.90000  1.72610e-07  8.30428e+06
       746.00000  1.72610e-07  8.30774e+06
       746.10000  1.72610e-07  8.30946e+06
       746.20000  1.72610e-07  8.31119e+06
       746.30000  1.71823e-07  8.27501e+06
       746.40000  1.71823e-07  8.27672e+06
       746.50000  1.30771e-07  6.30057e+06
       746.60000  1.30771e-07  6.30057e+06
       746.70000  1.30771e-07  6.30188e+06
       746.80000  1.30771e-07  6.30188e+06
       746.90000  1.30771e-07  6.30188e+06
       747.00000  1.30771e-07  6.30188e+06
       747.10000  1.30771e-07  6.29795e+06
       747.20000  1.30771e-07  6.29534e+06
       747.30000  1.30771e-07  6.29272e+06
       747.40000  1.30771e-07  6.29011e+06
       747.50000  1.09431e-07  5.26142e+06
       747.60000  1.09431e-07  5.25923e+06
       747.70000  1.09431e-07  5.25704e+06
       747.80000  1.09431e-07  5.25485e+06
       747.90000  1.09431e-07  5.25266e+06
       748.00000  1.09431e-07  5.25048e+06
       748.10000  1.09431e-07  5.24938e+06
       748.20000  1.09431e-07  5.24719e+06
       748.30000  1.09431e-07  5.24500e+06
       748.40000  1.09431e-07  5.24391e+06
       748.50000  1.02383e-07  4.90415e+06
       748.60000  1.02383e-07  4.90210e+06
       748.70000  1.02383e-07  4.90108e+06
       748.80000  1.02022e-07  4.88176e+06
       748.90000  1.02022e-07  4.88074e+06
       749.00000  1.02022e-07  4.87972e+06
       749.10000  1.02022e-07  4.87768e+06
       749.20000  1.02022e-07  4.87666e+06
       749.30000  1.02022e-07  4.87564e+06
       749.40000  1.02022e-07  4.87462e+06
       749.50000  7.57780e-08  3.61991e+06
       749.60000  7.57780e-08  3.61916e+06
       749.70000  7.57780e-08  3.61764e+06
       749.80000  7.57780e-08  3.61688e+06
       749.90000  7.57780e-08  3.61688e+06
       750.00000  7.57780e-08  3.61613e+06
       750.10000  7.57780e-08  3.61537e+06
       750.20000  7.57780e-08  3.61461e+06
       750.30000  7.57780e-08  3.61385e+06
       750.40000  7.57780e-08  3.61385e+06
       750.50000  7.17543e-08  3.42124e+06
       750.60000  7.17543e-08  3.42053e+06
       750.70000  7.17543e-08  3.42053e+06
       750.80000  7.17543e-08  3.41981e+06
       750.90000  7.17543e-08  3.41981e+06
       751.00000  7.17543e-08  3.41909e+06
       751.10000  7.17543e-08  3.41909e+06
       751.20000  7.17543e-08  3.41909e+06
       751.30000  7.15937e-08  3.41072e+06
       751.40000  7.15937e-08  3.41072e+06
       751.50000  6.20617e-08  2.95662e+06
       751.60000  6.20617e-08  2.95662e+06
       751.70000  6.20617e-08  2.95662e+06
       751.80000  6.20617e-08  2.95662e+06
       751.90000  6.20617e-08  2.95662e+06
       752.00000  6.20617e-08  2.95662e+06
       752.10000  6.20617e-08  2.95662e+06
       752.20000  6.20617e-08  2.95662e+06
       752.30000  6.20617e-08  2.95662e+06
       752.40000  6.20617e-08  2.95662e+06
       752.50000  5.88762e-08  2.80545e+06
       752.60000  5.88762e-08  2.80545e+06
       752.70000  5.88762e-08  2.80545e+06
       752.80000  5.88762e-08  2.80604e+06
       752.90000  5.88762e-08  2.80604e+06
       753.00000  5.88762e-08  2.80663e+06
       753.10000  5.88762e-08  2.80663e+06
       753.20000  5.88762e-08  2.80663e+06
       753.30000  5.88762e-08  2.80663e+06
       753.40000  5.88762e-08  2.80663e+06
       753.50000  6.94158e-08  3.30905e+06
       753.60000  6.94158e-08  3.30905e+06
       753.70000  6.94158e-08  3.30905e+06
       753.80000  6.93808e-08  3.30738e+06
       753.90000  6.93808e-08  3.30738e+06
       754.00000  6.93808e-08  3.30738e+06
       754.10000  6.93808e-08  3.30738e+06
       754.20000  6.93808e-08  3.30669e+06
       754.30000  6.93808e-08  3.30669e+06
       754.40000  6.93808e-08  3.30669e+06
       754.50000  6.56184e-08  3.12737e+06
       754.60000  6.56184e-08  3.12737e+06
       754.70000  6.56184e-08  3.12672e+06
       754.80000  6.56184e-08  3.12672e+06
       754.90000  6.56184e-08  3.12606e+06
       755.00000  6.56184e-08  3.12606e+06
       755.10000  6.56184e-08  3.12540e+06
       755.20000  6.56184e-08  3.12540e+06
       755.30000  6.56184e-08  3.12475e+06
       755.40000  6.56184e-08  3.12475e+06
       755.50000  4.85133e-08  2.30972e+06
       755.60000  4.85133e-08  2.30923e+06
       755.70000  4.85133e-08  2.30923e+06
       755.80000  4.85133e-08  2.30875e+06
       755.90000  4.85133e-08  2.30826e+06
       756.00000  4.85133e-08  2.30826e+06
       756.10000  4.85133e-08  2.30778e+06
       756.20000  4.85133e-08  2.30729e+06
       756.30000  4.84360e-08  2.30313e+06
       756.40000  4.84360e-08  2.30313e+06
       756.50000  5.73756e-08  2.72764e+06
       756.60000  5.73756e-08  2.72706e+06
       756.70000  5.73756e-08  2.72649e+06
       756.80000  5.73756e-08  2.72649e+06
       756.90000  5.73756e-08  2.72592e+06
       757.00000  5.73756e-08  2.72534e+06
       757.10000  5.73756e-08  2.72477e+06
       757.20000  5.73756e-08  2.72420e+06
       757.30000  5.73756e-08  2.72420e+06
       757.40000  5.73756e-08  2.72362e+06
       757.50000  6.69913e-08  3.17941e+06
       757.60000  6.69913e-08  3.17874e+06
       757.70000  6.69913e-08  3.17807e+06
       757.80000  6.69913e-08  3.17740e+06
       757.90000  6.69913e-08  3.17673e+06
       758.00000  6.69913e-08  3.17673e+06
       758.10000  6.69913e-08  3.17606e+06
       758.20000  6.69913e-08  3.17539e+06
       758.30000  6.69913e-08  3.17472e+06
       758.40000  6.69913e-08  3.17405e+06
       758.50000  6.47118e-08  3.06540e+06
       758.60000  6.47118e-08  3.06475e+06
       758.70000  6.47118e-08  3.06410e+06
       758.80000  6.45372e-08  3.05519e+06
       758.90000  6.45372e-08  3.05454e+06
       759.00000  6.45372e-08  3.05390e+06
       759.10000  6.45372e-08  3.05390e+06
       759.20000  6.45372e-08  3.05325e+06
       759.30000  6.45372e-08  3.05325e+06
       759.40000  6.45372e-08  3.05261e+06
       759.50000  8.50838e-08  4.02446e+06
       759.60000  8.50838e-08  4.02446e+06
       759.70000  8.50838e-08  4.02361e+06
       759.80000  8.50838e-08  4.02361e+06
       759.90000  8.50838e-08  4.02361e+06
       760.00000  8.50838e-08  4.02361e+06
       760.10000  8.50838e-08  4.02361e+06
       760.20000  8.50838e-08  4.02361e+06
       760.30000  8.50838e-08  4.02446e+06
       760.40000  8.50838e-08  4.02446e+06
       760.50000  8.92633e-08  4.22215e+06
       760.60000  8.92633e-08  4.22304e+06
       760.70000  8.92633e-08  4.22304e+06
       760.80000  8.92633e-08  4.22394e+06
       760.90000  8.92633e-08  4.22394e+06
       761.00000  8.92633e-08  4.22483e+06
       761.10000  8.92633e-08  4.22840e+06
       761.20000  8.92633e-08  4.23108e+06
       761.30000  8.90777e-08  4.22495e+06
       761.40000  8.90777e-08  4.22763e+06
       761.50000  8.44300e-08  4.00958e+06
       761.60000  8.44300e-08  4.01127e+06
       761.70000  8.44300e-08  4.01296e+06
       761.80000  8.44300e-08  4.01464e+06
       761.90000  8.44300e-08  4.01633e+06
       762.00000  8.44300e-08  4.01718e+06
       762.10000  8.44300e-08  4.01887e+06
       762.20000  8.44300e-08  4.01971e+06
       762.30000  8.44300e-08  4.02056e+06
       762.40000  8.44300e-08  4.02056e+06
       762.50000  8.28739e-08  3.94645e+06
       762.60000  8.28739e-08  3.94728e+06
       762.70000  8.28739e-08  3.94728e+06
       762.80000  8.28739e-08  3.94645e+06
       762.90000  8.28739e-08  3.94645e+06
       763.00000  8.28739e-08  3.94563e+06
       763.10000  8.28739e-08  3.94480e+06
       763.20000  8.28739e-08  3.94397e+06
       763.30000  8.28739e-08  3.94231e+06
       763.40000  8.28739e-08  3.94065e+06
       763.50000  9.44613e-08  4.48974e+06
       763.60000  9.44613e-08  4.48786e+06
       763.70000  9.44613e-08  4.48597e+06
       763.80000  9.42195e-08  4.47166e+06
       763.90000  9.42195e-08  4.46883e+06
       764.00000  9.42195e-08  4.46600e+06
       764.10000  9.42195e-08  4.46318e+06
       764.20000  9.42195e-08  4.45941e+06
       764.30000  9.42195e-08  4.45564e+06
       764.40000  9.42195e-08  4.45187e+06
       764.50000  9.30233e-08  4.39163e+06
       764.60000  9.30233e-08  4.38791e+06
       764.70000  9.30233e-08  4.38326e+06
       764.80000  9.30233e-08  4.37861e+06
       764.90000  9.30233e-08  4.37396e+06
       765.00000  9.30233e-08  4.36837e+06
       765.10000  9.30233e-08  4.35814e+06
       765.20000  9.30233e-08  4.34791e+06
       765.30000  9.30233e-08  4.33861e+06
       765.40000  9.30233e-08  4.32930e+06
       765.50000  8.71262e-08  4.04701e+06
       765.60000  8.71262e-08  4.04004e+06
       765.70000  8.71262e-08  4.03220e+06
       765.80000  8.71262e-08  4.02610e+06
       765.90000  8.71262e-08  4.02000e+06
       766.00000  8.71262e-08  4.01390e+06
       766.10000  8.71262e-08  4.00868e+06
       766.20000  8.71262e-08  4.00345e+06
       766.30000  8.71239e-08  3.99899e+06
       766.40000  8.71239e-08  3.99550e+06
       766.50000  9.64258e-08  4.41823e+06
       766.60000  9.64258e-08  4.41437e+06
       766.70000  9.64258e-08  4.41244e+06
       766.80000  9.64258e-08  4.40955e+06
       766.90000  9.64258e-08  4.40762e+06
       767.00000  9.64258e-08  4.40666e+06
       767.10000  9.64258e-08  4.41148e+06
       767.20000  9.64258e-08  4.41727e+06
       767.30000  9.64258e-08  4.42209e+06
       767.40000  9.64258e-08  4.42691e+06
       767.50000  1.25991e-07  5.79054e+06
       767.60000  1.25991e-07  5.79684e+06
       767.70000  1.25991e-07  5.80314e+06
       767.80000  1.25991e-07  5.80818e+06
       767.90000  1.25991e-07  5.81448e+06
       768.00000  1.25991e-07  5.81952e+06
       768.10000  1.25991e-07  5.82456e+06
       768.20000  1.25991e-07  5.82960e+06
       768.30000  1.25991e-07  5.83338e+06
       768.40000  1.25991e-07  5.83842e+06
       768.50000  1.37363e-07  6.36954e+06
       768.60000  1.37363e-07  6.37366e+06
       768.70000  1.37363e-07  6.37778e+06
       768.80000  1.37290e-07  6.37851e+06
       768.90000  1.37290e-07  6.38263e+06
       769.00000  1.37290e-07  6.38537e+06
       769.10000  1.37290e-07  6.38949e+06
       769.20000  1.37290e-07  6.39224e+06
       769.30000  1.37290e-07  6.39498e+06
       769.40000  1.37290e-07  6.39773e+06
       769.50000  1.52482e-07  7.10720e+06
       769.60000  1.52482e-07  7.11025e+06
       769.70000  1.52482e-07  7.11177e+06
       769.80000  1.52482e-07  7.11482e+06
       769.90000  1.52482e-07  7.11635e+06
       770.00000  1.52482e-07  7.11635e+06
       770.10000  1.52482e-07  7.11787e+06
       770.20000  1.52482e-07  7.11940e+06
       770.30000  1.52482e-07  7.11940e+06
       770.40000  1.52482e-07  7.11940e+06
       770.50000  2.00184e-07  9.34657e+06
       770.60000  2.00184e-07  9.34657e+06
       770.70000  2.00184e-07  9.34657e+06
       770.80000  2.00184e-07  9.34657e+06
       770.90000  2.00184e-07  9.34457e+06
       771.00000  2.00184e-07  9.34257e+06
       771.10000  2.00184e-07  9.35058e+06
       771.20000  2.00184e-07  9.35658e+06
       771.30000  1.99571e-07  9.33394e+06
       771.40000  1.99571e-07  9.33992e+06
       771.50000  2.37661e-07  1.11297e+07
       771.60000  2.37661e-07  1.11344e+07
       771.70000  2.37661e-07  1.11416e+07
       771.80000  2.37661e-07  1.11463e+07
       771.90000  2.37661e-07  1.11487e+07
       772.00000  2.37661e-07  1.11534e+07
       772.10000  2.37661e-07  1.11558e+07
       772.20000  2.37661e-07  1.11582e+07
       772.30000  2.37661e-07  1.11606e+07
       772.40000  2.37661e-07  1.11629e+07
       772.50000  2.75381e-07  1.29346e+07
       772.60000  2.75381e-07  1.29346e+07
       772.70000  2.75381e-07  1.29346e+07
       772.80000  2.75381e-07  1.29319e+07
       772.90000  2.75381e-07  1.29319e+07
       773.00000  2.75381e-07  1.29291e+07
       773.10000  2.75381e-07  1.29126e+07
       773.20000  2.75381e-07  1.28988e+07
       773.30000  2.75381e-07  1.28823e+07
       773.40000  2.75381e-07  1.28685e+07
       773.50000  2.79940e-07  1.30676e+07
       773.60000  2.79940e-07  1.30564e+07
       773.70000  2.79940e-07  1.30452e+07
       773.80000  2.78832e-07  1.29824e+07
       773.90000  2.78832e-07  1.29713e+07
       774.00000  2.78832e-07  1.29601e+07
       774.10000  2.78832e-07  1.29518e+07
       774.20000  2.78832e-07  1.29434e+07
       774.30000  2.78832e-07  1.29378e+07
       774.40000  2.78832e-07  1.29294e+07
       774.50000  2.83282e-07  1.31301e+07
       774.60000  2.83282e-07  1.31273e+07
       774.70000  2.83282e-07  1.31216e+07
       774.80000  2.83282e-07  1.31188e+07
       774.90000  2.83282e-07  1.31160e+07
       775.00000  2.83282e-07  1.31131e+07
       775.10000  2.83282e-07  1.31131e+07
       775.20000  2.83282e-07  1.31131e+07
       775.30000  2.83282e-07  1.31131e+07
       775.40000  2.83282e-07  1.31131e+07
       775.50000  5.79452e-07  2.68286e+07
       775.60000  5.79452e-07  2.68344e+07
       775.70000  5.79452e-07  2.68402e+07
       775.80000  5.79452e-07  2.68460e+07
       775.90000  5.79452e-07  2.68576e+07
       776.00000  5.79452e-07  2.68692e+07
       776.10000  5.79452e-07  2.68808e+07
       776.20000  5.79452e-07  2.68982e+07
       776.30000  5.77983e-07  2.68473e+07
       776.40000  5.77983e-07  2.68646e+07
       776.50000  5.89376e-07  2.74119e+07
       776.60000  5.89376e-07  2.74355e+07
       776.70000  5.89376e-07  2.74590e+07
       776.80000  5.89376e-07  2.74826e+07
       776.90000  5.89376e-07  2.75121e+07
       777.00000  5.89376e-07  2.75357e+07
       777.10000  5.89376e-07  2.75239e+07
       777.20000  5.89376e-07  2.75180e+07
       777.30000  5.89376e-07  2.75062e+07
       777.40000  5.89376e-07  2.74944e+07
       777.50000  5.99429e-07  2.79514e+07
       777.60000  5.99429e-07  2.79454e+07
       777.70000  5.99429e-07  2.79334e+07
       777.80000  5.99429e-07  2.79274e+07
       777.90000  5.99429e-07  2.79214e+07
       778.00000  5.99429e-07  2.79094e+07
       778.10000  5.99429e-07  2.79034e+07
       778.20000  5.99429e-07  2.78974e+07
       778.30000  5.99429e-07  2.78914e+07
       778.40000  5.99429e-07  2.78854e+07
       778.50000  6.08179e-07  2.82925e+07
       778.60000  6.08179e-07  2.82864e+07
       778.70000  6.08179e-07  2.82803e+07
       778.80000  6.06638e-07  2.82087e+07
       778.90000  6.06638e-07  2.82087e+07
       779.00000  6.06638e-07  2.82026e+07
       779.10000  6.06638e-07  2.82147e+07
       779.20000  6.06638e-07  2.82208e+07
       779.30000  6.06638e-07  2.82329e+07
       779.40000  6.06638e-07  2.82390e+07
       779.50000  9.22341e-07  4.29442e+07
       779.60000  9.22341e-07  4.29534e+07
       779.70000  9.22341e-07  4.29626e+07
       779.80000  9.22341e-07  4.29719e+07
       779.90000  9.22341e-07  4.29811e+07
       780.00000  9.22341e-07  4.29903e+07
       780.10000  9.22341e-07  4.29903e+07
       780.20000  9.22341e-07  4.29995e+07
       780.30000  9.22341e-07  4.29995e+07
       780.40000  9.22341e-07  4.29995e+07
       780.50000  9.41524e-07  4.38939e+07
       780.60000  9.41524e-07  4.38939e+07
       780.70000  9.41524e-07  4.38939e+07
       780.80000  9.41524e-07  4.38939e+07
       780.90000  9.41524e-07  4.38939e+07
       781.00000  9.41524e-07  4.38844e+07
       781.10000  9.41524e-07  4.38844e+07
       781.20000  9.41524e-07  4.38750e+07
       781.30000  9.36289e-07  4.36217e+07
       781.40000  9.36289e-07  4.36124e+07
       781.50000  9.51692e-07  4.43203e+07
       781.60000  9.51692e-07  4.43108e+07
       781.70000  9.51692e-07  4.43013e+07
       781.80000  9.51692e-07  4.42918e+07
       781.90000  9.51692e-07  4.42727e+07
       782.00000  9.51692e-07  4.42632e+07
       782.10000  9.51692e-07  4.42442e+07
       782.20000  9.51692e-07  4.42251e+07
       782.30000  9.51692e-07  4.42156e+07
       782.40000  9.51692e-07  4.41966e+07
       782.50000  9.70861e-07  4.50674e+07
       782.60000  9.70861e-07  4.50383e+07
       782.70000  9.70861e-07  4.50188e+07
       782.80000  9.70861e-07  4.49994e+07
       782.90000  9.70861e-07  4.49703e+07
       783.00000  9.70861e-07  4.49509e+07
       783.10000  9.70861e-07  4.49703e+07
       783.20000  9.70861e-07  4.49897e+07
       783.30000  9.70861e-07  4.50091e+07
       783.40000  9.70861e-07  4.50188e+07
       783.50000  6.58026e-07  3.05258e+07
       783.60000  6.58026e-07  3.05390e+07
       783.70000  6.58026e-07  3.05456e+07
       783.80000  6.54672e-07  3.04030e+07
       783.90000  6.54672e-07  3.04160e+07
       784.00000  6.54672e-07  3.04226e+07
       784.10000  6.54672e-07  3.04291e+07
       784.20000  6.54672e-07  3.04422e+07
       784.30000  6.54672e-07  3.04488e+07
       784.40000  6.54672e-07  3.04553e+07
       784.50000  6.64361e-07  3.09127e+07
       784.60000  6.64361e-07  3.09194e+07
       784.70000  6.64361e-07  3.09260e+07
       784.80000  6.64361e-07  3.09327e+07
       784.90000  6.64361e-07  3.09393e+07
       785.00000  6.64361e-07  3.09393e+07
       785.10000  6.64361e-07  3.09393e+07
       785.20000  6.64361e-07  3.09393e+07
       785.30000  6.64361e-07  3.09393e+07
       785.40000  6.64361e-07  3.09393e+07
       785.50000  3.38291e-07  1.57542e+07
       785.60000  3.38291e-07  1.57542e+07
       785.70000  3.38291e-07  1.57542e+07
       785.80000  3.38291e-07  1.57542e+07
       785.90000  3.38291e-07  1.57542e+07
       786.00000  3.38291e-07  1.57542e+07
       786.10000  3.38291e-07  1.57542e+07
       786.20000  3.38291e-07  1.57542e+07
       786.30000  3.37724e-07  1.57278e+07
       786.40000  3.37724e-07  1.57278e+07
       786.50000  3.34641e-07  1.55843e+07
       786.60000  3.34641e-07  1.55843e+07
       786.70000  3.34641e-07  1.55843e+07
       786.80000  3.34641e-07  1.55843e+07
       786.90000  3.34641e-07  1.55843e+07
       787.00000  3.34641e-07  1.55843e+07
       787.10000  3.34641e-07  1.55843e+07
       787.20000  3.34641e-07  1.55843e+07
       787.30000  3.34641e-07  1.55843e+07
       787.40000  3.34641e-07  1.55843e+07
       787.50000  2.27517e-07  1.05955e+07
       787.60000  2.27517e-07  1.05955e+07
       787.70000  2.27517e-07  1.05955e+07
       787.80000  2.27517e-07  1.05955e+07
       787.90000  2.27517e-07  1.05955e+07
       788.00000  2.27517e-07  1.05955e+07
       788.10000  2.27517e-07  1.05955e+07
       788.20000  2.27517e-07  1.05955e+07
       788.30000  2.27517e-07  1.05955e+07
       788.40000  2.27517e-07  1.05955e+07
       788.50000  1.94407e-07  9.05352e+06
       788.60000  1.94407e-07  9.05352e+06
       788.70000  1.94407e-07  9.05352e+06
       788.80000  1.94441e-07  9.05511e+06
       788.90000  1.94441e-07  9.05511e+06
       789.00000  1.94441e-07  9.05511e+06
       789.10000  1.94441e-07  9.05122e+06
       789.20000  1.94441e-07  9.04538e+06
       789.30000  1.94441e-07  9.03955e+06
       789.40000  1.94441e-07  9.03566e+06
       789.50000  1.63904e-07  7.61169e+06
       789.60000  1.63904e-07  7.60677e+06
       789.70000  1.63904e-07  7.60349e+06
       789.80000  1.63904e-07  7.59858e+06
       789.90000  1.63904e-07  7.59366e+06
       790.00000  1.63904e-07  7.59038e+06
       790.10000  1.63904e-07  7.58546e+06
       790.20000  1.63904e-07  7.58218e+06
       790.30000  1.63904e-07  7.57727e+06
       790.40000  1.63904e-07  7.57399e+06
       790.50000  1.15323e-07  5.32559e+06
       790.60000  1.15323e-07  5.32213e+06
       790.70000  1.15323e-07  5.31983e+06
       790.80000  1.15323e-07  5.31637e+06
       790.90000  1.15323e-07  5.31406e+06
       791.00000  1.15323e-07  5.31060e+06
       791.10000  1.15323e-07  5.30714e+06
       791.20000  1.15323e-07  5.30484e+06
       791.30000  1.14986e-07  5.28592e+06
       791.40000  1.14986e-07  5.28247e+06
       791.50000  1.45348e-07  6.67293e+06
       791.60000  1.45348e-07  6.66857e+06
       791.70000  1.45348e-07  6.66567e+06
       791.80000  1.45348e-07  6.66131e+06
       791.90000  1.45348e-07  6.65840e+06
       792.00000  1.45348e-07  6.65404e+06
       792.10000  1.45348e-07  6.65113e+06
       792.20000  1.45348e-07  6.64822e+06
       792.30000  1.45348e-07  6.64386e+06
       792.40000  1.45348e-07  6.64096e+06
       792.50000  1.20431e-07  5.50008e+06
       792.60000  1.20431e-07  5.49767e+06
       792.70000  1.20431e-07  5.49526e+06
       792.80000  1.20431e-07  5.49285e+06
       792.90000  1.20431e-07  5.49044e+06
       793.00000  1.20431e-07  5.48804e+06
       793.10000  1.20431e-07  5.48442e+06
       793.20000  1.20431e-07  5.47960e+06
       793.30000  1.20431e-07  5.47599e+06
       793.40000  1.20431e-07  5.47238e+06
       793.50000  1.12669e-07  5.11632e+06
       793.60000  1.12669e-07  5.11406e+06
       793.70000  1.12669e-07  5.11068e+06
       793.80000  1.12348e-07  5.09498e+06
       793.90000  1.12348e-07  5.09273e+06
       794.00000  1.12348e-07  5.09161e+06
       794.10000  1.12348e-07  5.08936e+06
       794.20000  1.12348e-07  5.08936e+06
       794.30000  1.12348e-07  5.08824e+06
       794.40000  1.12348e-07  5.08824e+06
       794.50000  1.28538e-07  5.82151e+06
       794.60000  1.28538e-07  5.82151e+06
       794.70000  1.28538e-07  5.82279e+06
       794.80000  1.28538e-07  5.82279e+06
       794.90000  1.28538e-07  5.82408e+06
       795.00000  1.28538e-07  5.82665e+06
       795.10000  1.28538e-07  5.83564e+06
       795.20000  1.28538e-07  5.84464e+06
       795.30000  1.28538e-07  5.85364e+06
       795.40000  1.28538e-07  5.86264e+06
       795.50000  1.10448e-07  5.04417e+06
       795.60000  1.10448e-07  5.05080e+06
       795.70000  1.10448e-07  5.05632e+06
       795.80000  1.10448e-07  5.06184e+06
       795.90000  1.10448e-07  5.06737e+06
       796.00000  1.10448e-07  5.07178e+06
       796.10000  1.10448e-07  5.07620e+06
       796.20000  1.10448e-07  5.08062e+06
       796.30000  1.10301e-07  5.07717e+06
       796.40000  1.10301e-07  5.08048e+06
       796.50000  8.80721e-08  4.05924e+06
       796.60000  8.80721e-08  4.06101e+06
       796.70000  8.80721e-08  4.06277e+06
       796.80000  8.80721e-08  4.06365e+06
       796.90000  8.80721e-08  4.06453e+06
       797.00000  8.80721e-08  4.06541e+06
       797.10000  8.80721e-08  4.06629e+06
       797.20000  8.80721e-08  4.06629e+06
       797.30000  8.80721e-08  4.06629e+06
       797.40000  8.80721e-08  4.06541e+06
       797.50000  9.49809e-08  4.38337e+06
       797.60000  9.49809e-08  4.38242e+06
       797.70000  9.49809e-08  4.38052e+06
       797.80000  9.49809e-08  4.37862e+06
       797.90000  9.49809e-08  4.37672e+06
       798.00000  9.49809e-08  4.37387e+06
       798.10000  9.49809e-08  4.37102e+06
       798.20000  9.49809e-08  4.36817e+06
       798.30000  9.49809e-08  4.36437e+06
       798.40000  9.49809e-08  4.36057e+06
       798.50000  7.90191e-08  3.62461e+06
       798.60000  7.90191e-08  3.62066e+06
       798.70000  7.90191e-08  3.61670e+06
       798.80000  7.88385e-08  3.60450e+06
       798.90000  7.88385e-08  3.59976e+06
       799.00000  7.88385e-08  3.59503e+06
       799.10000  7.88385e-08  3.59740e+06
       799.20000  7.88385e-08  3.60055e+06
       799.30000  7.88385e-08  3.60371e+06
       799.40000  7.88385e-08  3.60607e+06
       799.50000  6.05781e-08  2.77266e+06
       799.60000  6.05781e-08  2.77447e+06
       799.70000  6.05781e-08  2.77629e+06
       799.80000  6.05781e-08  2.77750e+06
       799.90000  6.05781e-08  2.77872e+06
       800.00000  6.05781e-08  2.77993e+06
