PDS_VERSION_ID         = PDS3
RECORD_TYPE            = STREAM
OBJECT                 = TEXT
  PUBLICATION_DATE     = 2014-04-25
  INTERCHANGE_FORMAT   = ASCII
  NOTE                 = "System transmission vs. wavelength."
END_OBJECT             = TEXT
END
    
The systrans directory contains the non-wavelength-integrated system 
transmission values (QE*optics*filter1*filter2) for each filter combination. 
The naming convention for these files is as follows:

<camera><filter 1><filter 2>_systrans.tab

where <camera> is "issna" or "isswa," and <filter 1> and <filter 2> represent
the filter names. For polarized filter combinations, values are given for the
parallel orientation of the filter (full transmission), with values for the 
perpendicular (blocking) orientation provided in files with subscript 
"_b_systrans.tab". 

Columns in systrans files are as follows:

 1st column: Wavelength (nm)  
 2nd column: Transmitted Flux
 3rd column: Transmitted Flux * Solar Flux (phot per cm^2-s-angstrom at 1 AU)

The solar spectrum used for this calculation is provided in solarflux.tab.

\begindata
       299.00000  1.38463e-10      1009.81
       299.10000  1.38463e-10      1013.13
       299.20000  1.38463e-10      1014.66
       299.30000  1.38463e-10      1014.52
       299.40000  1.38463e-10      1012.72
       299.50000  9.80179e-11      714.354
       299.60000  9.80179e-11      710.630
       299.70000  9.80179e-11      705.631
       299.80000  9.80179e-11      699.456
       299.90000  9.80179e-11      692.104
       300.00000  9.80179e-11      683.479
       300.10000  9.80179e-11      673.579
       300.20000  9.80179e-11      662.503
       300.30000  9.80179e-11      650.251
       300.40000  9.80179e-11      636.724
       300.50000  4.40098e-10      2792.86
       300.60000  4.40098e-10      2817.95
       300.70000  4.40098e-10      2843.04
       300.80000  4.40098e-10      2867.68
       300.90000  4.40098e-10      2892.77
       301.00000  4.40098e-10      2917.41
       301.10000  4.40098e-10      2942.06
       301.20000  4.40098e-10      2966.26
       301.30000  4.39341e-10      2985.32
       301.40000  4.39341e-10      3009.48
       301.50000  5.25223e-10      3626.67
       301.60000  5.25223e-10      3619.31
       301.70000  5.25223e-10      3619.31
       301.80000  5.25223e-10      3627.72
       301.90000  5.25223e-10      3644.00
       302.00000  5.25223e-10      3668.16
       302.10000  5.25223e-10      3699.67
       302.20000  5.25223e-10      3739.59
       302.30000  5.25223e-10      3787.38
       302.40000  5.25223e-10      3843.06
       302.50000  2.46012e-10      1829.59
       302.60000  2.46012e-10      1904.87
       302.70000  2.46012e-10      1974.49
       302.80000  2.46012e-10      2038.70
       302.90000  2.46012e-10      2097.00
       303.00000  2.46012e-10      2149.90
       303.10000  2.46012e-10      2197.13
       303.20000  2.46012e-10      2238.71
       303.30000  2.46012e-10      2274.62
       303.40000  2.46012e-10      2304.88
       303.50000  2.80877e-10      2659.90
       303.60000  2.80877e-10      2650.91
       303.70000  2.80877e-10      2642.49
       303.80000  2.81173e-10      2637.41
       303.90000  2.81173e-10      2629.82
       304.00000  2.81173e-10      2622.50
       304.10000  2.81173e-10      2616.04
       304.20000  2.81173e-10      2609.57
       304.30000  2.81173e-10      2603.95
       304.40000  2.81173e-10      2598.61
       304.50000  1.95023e-11      179.889
       304.60000  1.95023e-11      179.577
       304.70000  1.95023e-11      179.304
       304.80000  1.95023e-11      179.050
       304.90000  1.95023e-11      178.836
       305.00000  1.95023e-11      178.641
       305.10000  1.95023e-11      178.485
       305.20000  1.95023e-11      178.368
       305.30000  1.95023e-11      178.270
       305.40000  1.95023e-11      178.212
       305.50000  7.33415e-10      6700.48
       305.60000  7.33415e-10      6608.80
       305.70000  7.33415e-10      6527.39
       305.80000  7.33415e-10      6457.71
       305.90000  7.33415e-10      6399.04
       306.00000  7.33415e-10      6351.37
       306.10000  7.33415e-10      6315.43
       306.20000  7.33415e-10      6289.76
       306.30000  7.31679e-10      6260.98
       306.40000  7.31679e-10      6258.05
       306.50000  1.47686e-10      1264.78
       306.60000  1.47686e-10      1285.17
       306.70000  1.47686e-10      1304.07
       306.80000  1.47686e-10      1321.64
       306.90000  1.47686e-10      1337.74
       307.00000  1.47686e-10      1352.36
       307.10000  1.47686e-10      1365.65
       307.20000  1.47686e-10      1377.47
       307.30000  1.47686e-10      1387.81
       307.40000  1.47686e-10      1396.82
       307.50000  3.50998e-10      3337.29
       307.60000  3.50998e-10      3352.03
       307.70000  3.50998e-10      3362.91
       307.80000  3.50998e-10      3370.63
       307.90000  3.50998e-10      3374.85
       308.00000  3.50998e-10      3375.55
       308.10000  3.50998e-10      3373.09
       308.20000  3.50998e-10      3367.12
       308.30000  3.50998e-10      3357.65
       308.40000  3.50998e-10      3345.01
       308.50000  9.56803e-10      9073.36
       308.60000  9.56803e-10      8744.22
       308.70000  9.56803e-10      8450.49
       308.80000  9.53705e-10      8166.57
       308.90000  9.53705e-10      7945.31
       309.00000  9.53705e-10      7759.34
       309.10000  9.53705e-10      7609.61
       309.20000  9.53705e-10      7496.12
       309.30000  9.53705e-10      7417.92
       309.40000  9.53705e-10      7375.00
       309.50000  1.17941e-09      9112.14
       309.60000  1.17941e-09      9362.17
       309.70000  1.17941e-09      9608.67
       309.80000  1.17941e-09      9851.63
       309.90000  1.17941e-09      10092.2
       310.00000  1.17941e-09      10328.1
       310.10000  1.17941e-09      10561.6
       310.20000  1.17941e-09      10791.6
       310.30000  1.17941e-09      11016.9
       310.40000  1.17941e-09      11241.0
       310.50000  4.64860e-10      4517.04
       310.60000  4.64860e-10      4602.11
       310.70000  4.64860e-10      4685.79
       310.80000  4.64860e-10      4769.46
       310.90000  4.64860e-10      4848.49
       311.00000  4.64860e-10      4927.51
       311.10000  4.64860e-10      5006.54
       311.20000  4.64860e-10      5085.56
       311.30000  4.63585e-10      5145.79
       311.40000  4.63585e-10      5219.97
       311.50000  1.14472e-09      13072.8
       311.60000  1.14472e-09      12855.3
       311.70000  1.14472e-09      12649.2
       311.80000  1.14472e-09      12466.1
       311.90000  1.14472e-09      12305.8
       312.00000  1.14472e-09      12168.4
       312.10000  1.14472e-09      12054.0
       312.20000  1.14472e-09      11962.4
       312.30000  1.14472e-09      11882.2
       312.40000  1.14472e-09      11825.0
       312.50000  6.41128e-10      6610.03
       312.60000  6.41128e-10      6693.38
       312.70000  6.41128e-10      6763.90
       312.80000  6.41128e-10      6834.42
       312.90000  6.41128e-10      6892.12
       313.00000  6.41128e-10      6943.42
       313.10000  6.41128e-10      6981.88
       313.20000  6.41128e-10      7020.35
       313.30000  6.41128e-10      7046.00
       313.40000  6.41128e-10      7065.23
       313.50000  1.26709e-09      13976.0
       313.60000  1.26709e-09      13976.0
       313.70000  1.26709e-09      13963.3
       313.80000  1.26578e-09      13923.6
       313.90000  1.26578e-09      13885.6
       314.00000  1.26578e-09      13822.4
       314.10000  1.26578e-09      13746.4
       314.20000  1.26578e-09      13645.1
       314.30000  1.26578e-09      13531.2
       314.40000  1.26578e-09      13404.6
       314.50000  2.26449e-10      2373.19
       314.60000  2.26449e-10      2359.60
       314.70000  2.26449e-10      2346.02
       314.80000  2.26449e-10      2332.43
       314.90000  2.26449e-10      2321.11
       315.00000  2.26449e-10      2309.78
       315.10000  2.26449e-10      2300.73
       315.20000  2.26449e-10      2291.67
       315.30000  2.26449e-10      2284.87
       315.40000  2.26449e-10      2278.08
       315.50000  4.88700e-11      490.655
       315.60000  4.88700e-11      485.963
       315.70000  4.88700e-11      482.298
       315.80000  4.88700e-11      479.708
       315.90000  4.88700e-11      478.242
       316.00000  4.88700e-11      477.851
       316.10000  4.88700e-11      478.584
       316.20000  4.88700e-11      480.392
       316.30000  4.89343e-11      483.961
       316.40000  4.89343e-11      487.973
       316.50000  7.22993e-10      7287.77
       316.60000  7.22993e-10      7374.53
       316.70000  7.22993e-10      7482.98
       316.80000  7.22993e-10      7605.89
       316.90000  7.22993e-10      7750.49
       317.00000  7.22993e-10      7902.31
       317.10000  7.22993e-10      8075.83
       317.20000  7.22993e-10      8271.04
       317.30000  7.22993e-10      8473.48
       317.40000  7.22993e-10      8697.61
       317.50000  7.84956e-10      9694.21
       317.60000  7.84956e-10      9474.42
       317.70000  7.84956e-10      9278.18
       317.80000  7.84956e-10      9089.79
       317.90000  7.84956e-10      8924.95
       318.00000  7.84956e-10      8783.66
       318.10000  7.84956e-10      8658.07
       318.20000  7.84956e-10      8556.02
       318.30000  7.84956e-10      8469.68
       318.40000  7.84956e-10      8406.88
       318.50000  1.48415e-10      1580.62
       318.60000  1.48415e-10      1586.56
       318.70000  1.48415e-10      1593.98
       318.80000  1.48409e-10      1601.33
       318.90000  1.48409e-10      1611.72
       319.00000  1.48409e-10      1622.11
       319.10000  1.48409e-10      1633.98
       319.20000  1.48409e-10      1647.34
       319.30000  1.48409e-10      1662.18
       319.40000  1.48409e-10      1677.02
       319.50000  6.32947e-10      7221.92
       319.60000  6.32947e-10      7297.88
       319.70000  6.32947e-10      7380.16
       319.80000  6.32947e-10      7468.77
       319.90000  6.32947e-10      7557.39
       320.00000  6.32947e-10      7652.33
       320.10000  6.32947e-10      7753.60
       320.20000  6.32947e-10      7861.20
       320.30000  6.32947e-10      7975.13
       320.40000  6.32947e-10      8089.06
       320.50000  7.83588e-10      10163.1
       320.60000  7.83588e-10      9982.91
       320.70000  7.83588e-10      9810.52
       320.80000  7.83588e-10      9645.97
       320.90000  7.83588e-10      9497.08
       321.00000  7.83588e-10      9363.87
       321.10000  7.83588e-10      9238.50
       321.20000  7.83588e-10      9128.80
       321.30000  7.83210e-10      9022.57
       321.40000  7.83210e-10      8936.42
       321.50000  7.23234e-10      8179.78
       321.60000  7.23234e-10      8179.78
       321.70000  7.23234e-10      8172.54
       321.80000  7.23234e-10      8165.31
       321.90000  7.23234e-10      8158.08
       322.00000  7.23234e-10      8150.85
       322.10000  7.23234e-10      8136.38
       322.20000  7.23234e-10      8129.15
       322.30000  7.23234e-10      8114.68
       322.40000  7.23234e-10      8092.99
       322.50000  8.95601e-10      10003.9
       322.60000  8.95601e-10      9977.00
       322.70000  8.95601e-10      9950.13
       322.80000  8.95601e-10      9914.30
       322.90000  8.95601e-10      9878.48
       323.00000  8.95601e-10      9842.66
       323.10000  8.95601e-10      9806.83
       323.20000  8.95601e-10      9771.01
       323.30000  8.95601e-10      9726.23
       323.40000  8.95601e-10      9681.45
       323.50000  1.53027e-10      1646.57
       323.60000  1.53027e-10      1669.53
       323.70000  1.53027e-10      1694.01
       323.80000  1.53300e-10      1721.56
       323.90000  1.53300e-10      1746.09
       324.00000  1.53300e-10      1770.62
       324.10000  1.53300e-10      1796.68
       324.20000  1.53300e-10      1822.74
       324.30000  1.53300e-10      1848.80
       324.40000  1.53300e-10      1876.39
       324.50000  1.07183e-09      13301.4
       324.60000  1.07183e-09      13515.7
       324.70000  1.07183e-09      13730.1
       324.80000  1.07183e-09      13944.5
       324.90000  1.07183e-09      14148.1
       325.00000  1.07183e-09      14351.8
       325.10000  1.07183e-09      14566.1
       325.20000  1.07183e-09      14769.8
       325.30000  1.07183e-09      14962.7
       325.40000  1.07183e-09      15166.4
       325.50000  1.37872e-10      1975.70
       325.60000  1.37872e-10      2012.92
       325.70000  1.37872e-10      2047.39
       325.80000  1.37872e-10      2079.10
       325.90000  1.37872e-10      2108.06
       326.00000  1.37872e-10      2132.87
       326.10000  1.37872e-10      2156.31
       326.20000  1.37872e-10      2175.61
       326.30000  1.38474e-10      2201.74
       326.40000  1.38474e-10      2215.59
       326.50000  6.43303e-10      10344.3
       326.60000  6.43303e-10      10325.0
       326.70000  6.43303e-10      10299.3
       326.80000  6.43303e-10      10280.0
       326.90000  6.43303e-10      10254.3
       327.00000  6.43303e-10      10228.5
       327.10000  6.43303e-10      10202.8
       327.20000  6.43303e-10      10177.1
       327.30000  6.43303e-10      10151.3
       327.40000  6.43303e-10      10119.2
       327.50000  8.11916e-10      12739.0
       327.60000  8.11916e-10      12698.4
       327.70000  8.11916e-10      12657.8
       327.80000  8.11916e-10      12617.2
       327.90000  8.11916e-10      12576.6
       328.00000  8.11916e-10      12536.0
       328.10000  8.11916e-10      12495.4
       328.20000  8.11916e-10      12446.7
       328.30000  8.11916e-10      12398.0
       328.40000  8.11916e-10      12357.4
       328.50000  6.44887e-10      9776.49
       328.60000  6.44887e-10      10021.5
       328.70000  6.44887e-10      10247.3
       328.80000  6.46289e-10      10476.3
       328.90000  6.46289e-10      10663.8
       329.00000  6.46289e-10      10831.8
       329.10000  6.46289e-10      10974.0
       329.20000  6.46289e-10      11103.2
       329.30000  6.46289e-10      11206.7
       329.40000  6.46289e-10      11297.1
       329.50000  5.00195e-10      8793.42
       329.60000  5.00195e-10      8758.41
       329.70000  5.00195e-10      8728.40
       329.80000  5.00195e-10      8693.38
       329.90000  5.00195e-10      8658.37
       330.00000  5.00195e-10      8623.36
       330.10000  5.00195e-10      8588.34
       330.20000  5.00195e-10      8553.33
       330.30000  5.00195e-10      8518.32
       330.40000  5.00195e-10      8483.30
       330.50000  3.92838e-10      6631.10
       330.60000  3.92838e-10      6603.61
       330.70000  3.92838e-10      6572.18
       330.80000  3.92838e-10      6544.68
       330.90000  3.92838e-10      6513.25
       331.00000  3.92838e-10      6481.83
       331.10000  3.92838e-10      6450.40
       331.20000  3.92838e-10      6418.97
       331.30000  3.92870e-10      6388.06
       331.40000  3.92870e-10      6356.63
       331.50000  4.11724e-10      6628.75
       331.60000  4.11724e-10      6628.75
       331.70000  4.11724e-10      6628.75
       331.80000  4.11724e-10      6628.75
       331.90000  4.11724e-10      6624.63
       332.00000  4.11724e-10      6620.52
       332.10000  4.11724e-10      6612.28
       332.20000  4.11724e-10      6604.05
       332.30000  4.11724e-10      6595.81
       332.40000  4.11724e-10      6583.46
       332.50000  3.87235e-10      6180.27
       332.60000  3.87235e-10      6141.54
       332.70000  3.87235e-10      6106.69
       332.80000  3.87235e-10      6075.71
       332.90000  3.87235e-10      6048.61
       333.00000  3.87235e-10      6025.37
       333.10000  3.87235e-10      6009.88
       333.20000  3.87235e-10      5994.40
       333.30000  3.87235e-10      5986.65
       333.40000  3.87235e-10      5982.78
       333.50000  3.23371e-10      4996.08
       333.60000  3.23371e-10      5002.54
       333.70000  3.23371e-10      5009.01
       333.80000  3.22959e-10      5015.56
       333.90000  3.22959e-10      5031.71
       334.00000  3.22959e-10      5051.09
       334.10000  3.22959e-10      5076.92
       334.20000  3.22959e-10      5102.76
       334.30000  3.22959e-10      5135.06
       334.40000  3.22959e-10      5170.58
       334.50000  3.22778e-11      520.642
       334.60000  3.22778e-11      522.901
       334.70000  3.22778e-11      524.192
       334.80000  3.22778e-11      525.161
       334.90000  3.22778e-11      525.483
       335.00000  3.22778e-11      525.161
       335.10000  3.22778e-11      524.192
       335.20000  3.22778e-11      522.578
       335.30000  3.22778e-11      520.319
       335.40000  3.22778e-11      517.414
       335.50000  6.16158e-10      9803.07
       335.60000  6.16158e-10      9593.58
       335.70000  6.16158e-10      9396.41
       335.80000  6.16158e-10      9211.56
       335.90000  6.16158e-10      9051.36
       336.00000  6.16158e-10      8903.48
       336.10000  6.16158e-10      8780.25
       336.20000  6.16158e-10      8669.34
       336.30000  6.17057e-10      8589.43
       336.40000  6.17057e-10      8509.22
       336.50000  3.26894e-10      4478.45
       336.60000  3.26894e-10      4455.57
       336.70000  3.26894e-10      4442.50
       336.80000  3.26894e-10      4439.23
       336.90000  3.26894e-10      4442.50
       337.00000  3.26894e-10      4458.84
       337.10000  3.26894e-10      4481.72
       337.20000  3.26894e-10      4514.41
       337.30000  3.26894e-10      4556.91
       337.40000  3.26894e-10      4609.21
       337.50000  4.27330e-10      6106.54
       337.60000  4.27330e-10      6179.19
       337.70000  4.27330e-10      6247.56
       337.80000  4.27330e-10      6315.93
       337.90000  4.27330e-10      6380.03
       338.00000  4.27330e-10      6439.86
       338.10000  4.27330e-10      6499.68
       338.20000  4.27330e-10      6555.24
       338.30000  4.27330e-10      6606.52
       338.40000  4.27330e-10      6657.80
       338.50000  1.32484e-10      2077.35
       338.60000  1.32484e-10      2085.30
       338.70000  1.32484e-10      2093.25
       338.80000  1.32580e-10      2102.71
       338.90000  1.32580e-10      2112.00
       339.00000  1.32580e-10      2119.95
       339.10000  1.32580e-10      2129.23
       339.20000  1.32580e-10      2138.51
       339.30000  1.32580e-10      2147.79
       339.40000  1.32580e-10      2158.40
       339.50000  5.48259e-10      8964.04
       339.60000  5.48259e-10      9007.90
       339.70000  5.48259e-10      9051.76
       339.80000  5.48259e-10      9101.11
       339.90000  5.48259e-10      9144.97
       340.00000  5.48259e-10      9194.31
       340.10000  5.48259e-10      9243.65
       340.20000  5.48259e-10      9293.00
       340.30000  5.48259e-10      9347.82
       340.40000  5.48259e-10      9397.17
       340.50000  6.13005e-10      10568.2
       340.60000  6.13005e-10      10408.8
       340.70000  6.13005e-10      10274.0
       340.80000  6.13005e-10      10145.2
       340.90000  6.13005e-10      10034.9
       341.00000  6.13005e-10      9942.94
       341.10000  6.13005e-10      9869.38
       341.20000  6.13005e-10      9808.08
       341.30000  6.14237e-10      9784.79
       341.40000  6.14237e-10      9754.08
       341.50000  7.90752e-10      12541.3
       341.60000  7.90752e-10      12707.4
       341.70000  7.90752e-10      12857.6
       341.80000  7.90752e-10      13000.0
       341.90000  7.90752e-10      13118.6
       342.00000  7.90752e-10      13221.4
       342.10000  7.90752e-10      13316.3
       342.20000  7.90752e-10      13387.4
       342.30000  7.90752e-10      13450.7
       342.40000  7.90752e-10      13490.2
       342.50000  2.29563e-10      3925.53
       342.60000  2.29563e-10      3930.12
       342.70000  2.29563e-10      3930.12
       342.80000  2.29563e-10      3925.53
       342.90000  2.29563e-10      3916.35
       343.00000  2.29563e-10      3902.57
       343.10000  2.29563e-10      3884.21
       343.20000  2.29563e-10      3861.25
       343.30000  2.29563e-10      3836.00
       343.40000  2.29563e-10      3803.86
       343.50000  5.53511e-10      9088.66
       343.60000  5.53511e-10      8811.90
       343.70000  5.53511e-10      8568.36
       343.80000  5.54119e-10      8356.11
       343.90000  5.54119e-10      8167.71
       344.00000  5.54119e-10      8007.01
       344.10000  5.54119e-10      7879.57
       344.20000  5.54119e-10      7774.28
       344.30000  5.54119e-10      7702.25
       344.40000  5.54119e-10      7652.38
       344.50000  4.40176e-10      6065.63
       344.60000  4.40176e-10      6232.90
       344.70000  4.40176e-10      6386.96
       344.80000  4.40176e-10      6527.82
       344.90000  4.40176e-10      6655.47
       345.00000  4.40176e-10      6774.32
       345.10000  4.40176e-10      6879.96
       345.20000  4.40176e-10      6972.40
       345.30000  4.40176e-10      7056.03
       345.40000  4.40176e-10      7122.05
       345.50000  7.91408e-10      12915.8
       345.60000  7.91408e-10      12994.9
       345.70000  7.91408e-10      13058.2
       345.80000  7.91408e-10      13097.8
       345.90000  7.91408e-10      13113.6
       346.00000  7.91408e-10      13113.6
       346.10000  7.91408e-10      13082.0
       346.20000  7.91408e-10      13042.4
       346.30000  7.91959e-10      12980.2
       346.40000  7.91959e-10      12893.1
       346.50000  1.45113e-09      23421.3
       346.60000  1.45113e-09      23334.2
       346.70000  1.45113e-09      23261.7
       346.80000  1.45113e-09      23203.6
       346.90000  1.45113e-09      23131.1
       347.00000  1.45113e-09      23073.0
       347.10000  1.45113e-09      23029.5
       347.20000  1.45113e-09      22971.4
       347.30000  1.45113e-09      22927.9
       347.40000  1.45113e-09      22898.9
       347.50000  5.46752e-10      8611.34
       347.60000  5.46752e-10      8611.34
       347.70000  5.46752e-10      8611.34
       347.80000  5.46752e-10      8611.34
       347.90000  5.46752e-10      8611.34
       348.00000  5.46752e-10      8605.88
       348.10000  5.46752e-10      8605.88
       348.20000  5.46752e-10      8605.88
       348.30000  5.46752e-10      8600.41
       348.40000  5.46752e-10      8600.41
       348.50000  1.39580e-09      21942.0
       348.60000  1.39580e-09      21746.5
       348.70000  1.39580e-09      21593.0
       348.80000  1.39549e-09      21476.6
       348.90000  1.39549e-09      21392.8
       349.00000  1.39549e-09      21364.9
       349.10000  1.39549e-09      21378.9
       349.20000  1.39549e-09      21420.8
       349.30000  1.39549e-09      21518.4
       349.40000  1.39549e-09      21644.0
       349.50000  1.42679e-09      22315.0
       349.60000  1.42679e-09      22985.6
       349.70000  1.42679e-09      23584.9
       349.80000  1.42679e-09      24141.3
       349.90000  1.42679e-09      24640.7
       350.00000  1.42679e-09      25083.0
       350.10000  1.42679e-09      25454.0
       350.20000  1.42679e-09      25782.1
       350.30000  1.42679e-09      26053.2
       350.40000  1.42679e-09      26253.0
       350.50000  1.16477e-09      21548.3
       350.60000  1.16477e-09      21629.8
       350.70000  1.16477e-09      21653.1
       350.80000  1.16477e-09      21629.8
       350.90000  1.16477e-09      21559.9
       351.00000  1.16477e-09      21455.1
       351.10000  1.16477e-09      21292.0
       351.20000  1.16477e-09      21082.4
       351.30000  1.16637e-09      20843.0
       351.40000  1.16637e-09      20539.8
       351.50000  1.40633e-09      24343.7
       351.60000  1.40633e-09      23949.9
       351.70000  1.40633e-09      23612.4
       351.80000  1.40633e-09      23317.0
       351.90000  1.40633e-09      23063.9
       352.00000  1.40633e-09      22867.0
       352.10000  1.40633e-09      22726.4
       352.20000  1.40633e-09      22627.9
       352.30000  1.40633e-09      22585.7
       352.40000  1.40633e-09      22585.7
       352.50000  1.14724e-09      18459.1
       352.60000  1.14724e-09      18768.9
       352.70000  1.14724e-09      19055.7
       352.80000  1.14724e-09      19342.5
       352.90000  1.14724e-09      19617.8
       353.00000  1.14724e-09      19881.7
       353.10000  1.14724e-09      20134.1
       353.20000  1.14724e-09      20386.5
       353.30000  1.14724e-09      20615.9
       353.40000  1.14724e-09      20845.4
       353.50000  1.82060e-09      33426.2
       353.60000  1.82060e-09      33753.9
       353.70000  1.82060e-09      34063.4
       353.80000  1.82274e-09      34413.4
       353.90000  1.82274e-09      34705.0
       354.00000  1.82274e-09      34960.2
       354.10000  1.82274e-09      35215.4
       354.20000  1.82274e-09      35470.6
       354.30000  1.82274e-09      35689.3
       354.40000  1.82274e-09      35908.1
       354.50000  1.90192e-09      37657.9
       354.60000  1.90192e-09      37543.8
       354.70000  1.90192e-09      37410.7
       354.80000  1.90192e-09      37258.5
       354.90000  1.90192e-09      37087.4
       355.00000  1.90192e-09      36878.1
       355.10000  1.90192e-09      36649.9
       355.20000  1.90192e-09      36402.7
       355.30000  1.90192e-09      36136.4
       355.40000  1.90192e-09      35851.1
       355.50000  2.12706e-10      3973.34
       355.60000  2.12706e-10      3920.16
       355.70000  2.12706e-10      3869.11
       355.80000  2.12706e-10      3818.06
       355.90000  2.12706e-10      3767.02
       356.00000  2.12706e-10      3718.09
       356.10000  2.12706e-10      3669.17
       356.20000  2.12706e-10      3620.25
       356.30000  2.13391e-10      3582.84
       356.40000  2.13391e-10      3535.89
       356.50000  2.09849e-09      34310.4
       356.60000  2.09849e-09      33848.7
       356.70000  2.09849e-09      33408.0
       356.80000  2.09849e-09      32967.3
       356.90000  2.09849e-09      32526.6
       357.00000  2.09849e-09      32085.9
       357.10000  2.09849e-09      31666.2
       357.20000  2.09849e-09      31246.6
       357.30000  2.09849e-09      30826.9
       357.40000  2.09849e-09      30428.1
       357.50000  8.64133e-10      12365.7
       357.60000  8.64133e-10      11925.0
       357.70000  8.64133e-10      11553.5
       357.80000  8.64133e-10      11242.4
       357.90000  8.64133e-10      10991.8
       358.00000  8.64133e-10      10801.7
       358.10000  8.64133e-10      10680.7
       358.20000  8.64133e-10      10620.2
       358.30000  8.64133e-10      10620.2
       358.40000  8.64133e-10      10680.7
       358.50000  2.18869e-10      2735.86
       358.60000  2.18869e-10      2910.95
       358.70000  2.18869e-10      3072.91
       358.80000  2.19043e-10      3226.50
       358.90000  2.19043e-10      3362.31
       359.00000  2.19043e-10      3487.17
       359.10000  2.19043e-10      3601.07
       359.20000  2.19043e-10      3699.64
       359.30000  2.19043e-10      3787.25
       359.40000  2.19043e-10      3861.73
       359.50000  1.15849e-09      20748.6
       359.60000  1.15849e-09      20783.3
       359.70000  1.15849e-09      20806.5
       359.80000  1.15849e-09      20806.5
       359.90000  1.15849e-09      20783.3
       360.00000  1.15849e-09      20760.2
       360.10000  1.15849e-09      20713.8
       360.20000  1.15849e-09      20655.9
       360.30000  1.15849e-09      20586.4
       360.40000  1.15849e-09      20493.7
       360.50000  1.25677e-09      22119.1
       360.60000  1.25677e-09      21691.8
       360.70000  1.25677e-09      21314.8
       360.80000  1.25677e-09      20988.0
       360.90000  1.25677e-09      20711.6
       361.00000  1.25677e-09      20485.3
       361.10000  1.25677e-09      20296.8
       361.20000  1.25677e-09      20171.1
       361.30000  1.25988e-09      20132.9
       361.40000  1.25988e-09      20095.1
       361.50000  4.77729e-10      7624.55
       361.60000  4.77729e-10      7648.44
       361.70000  4.77729e-10      7691.43
       361.80000  4.77729e-10      7748.76
       361.90000  4.77729e-10      7829.97
       362.00000  4.77729e-10      7925.52
       362.10000  4.77729e-10      8040.17
       362.20000  4.77729e-10      8173.94
       362.30000  4.77729e-10      8326.81
       362.40000  4.77729e-10      8498.79
       362.50000  1.74524e-10      3174.60
       362.60000  1.74524e-10      3172.85
       362.70000  1.74524e-10      3171.11
       362.80000  1.74524e-10      3169.36
       362.90000  1.74524e-10      3169.36
       363.00000  1.74524e-10      3169.36
       363.10000  1.74524e-10      3171.11
       363.20000  1.74524e-10      3172.85
       363.30000  1.74524e-10      3174.60
       363.40000  1.74524e-10      3176.34
       363.50000  8.92916e-10      16268.9
       363.60000  8.92916e-10      16206.4
       363.70000  8.92916e-10      16170.7
       363.80000  8.92847e-10      16151.6
       363.90000  8.92847e-10      16151.6
       364.00000  8.92847e-10      16169.5
       364.10000  8.92847e-10      16214.1
       364.20000  8.92847e-10      16267.7
       364.30000  8.92847e-10      16357.0
       364.40000  8.92847e-10      16455.2
       364.50000  1.73555e-09      32229.2
       364.60000  1.73555e-09      32489.5
       364.70000  1.73555e-09      32819.3
       364.80000  1.73555e-09      33166.4
       364.90000  1.73555e-09      33565.6
       365.00000  1.73555e-09      33999.5
       365.10000  1.73555e-09      34468.1
       365.20000  1.73555e-09      34971.4
       365.30000  1.73555e-09      35526.8
       365.40000  1.73555e-09      36116.8
       365.50000  8.08109e-10      17107.7
       365.60000  8.08109e-10      17325.8
       365.70000  8.08109e-10      17519.8
       365.80000  8.08109e-10      17689.5
       365.90000  8.08109e-10      17851.1
       366.00000  8.08109e-10      17980.4
       366.10000  8.08109e-10      18101.6
       366.20000  8.08109e-10      18190.5
       366.30000  8.10576e-10      18327.1
       366.40000  8.10576e-10      18383.9
       366.50000  4.25516e-11      966.773
       366.60000  4.25516e-11      963.794
       366.70000  4.25516e-11      960.815
       366.80000  4.25516e-11      957.411
       366.90000  4.25516e-11      953.582
       367.00000  4.25516e-11      949.752
       367.10000  4.25516e-11      945.922
       367.20000  4.25516e-11      941.667
       367.30000  4.25516e-11      937.412
       367.40000  4.25516e-11      932.731
       367.50000  3.27558e-09      71407.7
       367.60000  3.27558e-09      71014.6
       367.70000  3.27558e-09      70621.5
       367.80000  3.27558e-09      70195.7
       367.90000  3.27558e-09      69769.9
       368.00000  3.27558e-09      69311.3
       368.10000  3.27558e-09      68852.7
       368.20000  3.27558e-09      68361.4
       368.30000  3.27558e-09      67870.0
       368.40000  3.27558e-09      67346.0
       368.50000  5.65563e-10      11537.5
       368.60000  5.65563e-10      11769.4
       368.70000  5.65563e-10      11984.3
       368.80000  5.66803e-10      12203.3
       368.90000  5.66803e-10      12367.7
       369.00000  5.66803e-10      12515.0
       369.10000  5.66803e-10      12639.7
       369.20000  5.66803e-10      12741.7
       369.30000  5.66803e-10      12821.1
       369.40000  5.66803e-10      12877.8
       369.50000  8.72649e-10      19878.9
       369.60000  8.72649e-10      19652.1
       369.70000  8.72649e-10      19442.6
       369.80000  8.72649e-10      19259.4
       369.90000  8.72649e-10      19093.6
       370.00000  8.72649e-10      18945.2
       370.10000  8.72649e-10      18823.0
       370.20000  8.72649e-10      18718.3
       370.30000  8.72649e-10      18631.1
       370.40000  8.72649e-10      18561.2
       370.50000  5.41459e-10      11489.8
       370.60000  5.41459e-10      11598.0
       370.70000  5.41459e-10      11695.5
       370.80000  5.41459e-10      11771.3
       370.90000  5.41459e-10      11836.3
       371.00000  5.41459e-10      11885.0
       371.10000  5.41459e-10      11917.5
       371.20000  5.41459e-10      11933.8
       371.30000  5.42360e-10      11953.6
       371.40000  5.42360e-10      11937.4
       371.50000  3.09258e-09      67882.2
       371.60000  3.09258e-09      67232.7
       371.70000  3.09258e-09      66583.3
       371.80000  3.09258e-09      65902.9
       371.90000  3.09258e-09      65222.6
       372.00000  3.09258e-09      64573.1
       372.10000  3.09258e-09      63861.8
       372.20000  3.09258e-09      63181.4
       372.30000  3.09258e-09      62470.2
       372.40000  3.09258e-09      61758.9
       372.50000  7.18988e-10      14192.8
       372.60000  7.18988e-10      14027.4
       372.70000  7.18988e-10      13854.9
       372.80000  7.18988e-10      13682.3
       372.90000  7.18988e-10      13509.8
       373.00000  7.18988e-10      13330.0
       373.10000  7.18988e-10      13150.3
       373.20000  7.18988e-10      12977.7
       373.30000  7.18988e-10      12790.8
       373.40000  7.18988e-10      12611.0
       373.50000  2.73937e-10      4733.63
       373.60000  2.73937e-10      4681.58
       373.70000  2.73937e-10      4640.49
       373.80000  2.74239e-10      4612.70
       373.90000  2.74239e-10      4590.76
       374.00000  2.74239e-10      4577.04
       374.10000  2.74239e-10      4571.56
       374.20000  2.74239e-10      4577.04
       374.30000  2.74239e-10      4593.50
       374.40000  2.74239e-10      4615.44
       374.50000  9.59154e-10      16257.7
       374.60000  9.59154e-10      16670.1
       374.70000  9.59154e-10      17053.8
       374.80000  9.59154e-10      17418.2
       374.90000  9.59154e-10      17753.9
       375.00000  9.59154e-10      18060.9
       375.10000  9.59154e-10      18339.0
       375.20000  9.59154e-10      18598.0
       375.30000  9.59154e-10      18837.8
       375.40000  9.59154e-10      19048.8
       375.50000  1.65800e-09      33242.9
       375.60000  1.65800e-09      33524.7
       375.70000  1.65800e-09      33756.9
       375.80000  1.65800e-09      33939.2
       375.90000  1.65800e-09      34088.5
       376.00000  1.65800e-09      34187.9
       376.10000  1.65800e-09      34254.3
       376.20000  1.65800e-09      34270.8
       376.30000  1.65763e-09      34230.0
       376.40000  1.65763e-09      34163.7
       376.50000  2.21751e-10      4554.78
       376.60000  2.21751e-10      4667.87
       376.70000  2.21751e-10      4774.31
       376.80000  2.21751e-10      4874.10
       376.90000  2.21751e-10      4967.23
       377.00000  2.21751e-10      5055.93
       377.10000  2.21751e-10      5135.76
       377.20000  2.21751e-10      5211.16
       377.30000  2.21751e-10      5277.69
       377.40000  2.21751e-10      5339.78
       377.50000  6.90102e-15     0.167902
       377.60000  6.90102e-15     0.170386
       377.70000  6.90102e-15     0.172387
       377.80000  6.90102e-15     0.174044
       377.90000  6.90102e-15     0.175286
       378.00000  6.90102e-15     0.176114
       378.10000  6.90102e-15     0.176597
       378.20000  6.90102e-15     0.176597
       378.30000  6.90102e-15     0.176252
       378.40000  6.90102e-15     0.175424
       378.50000  1.78779e-10      4514.17
       378.60000  1.78779e-10      4474.84
       378.70000  1.78779e-10      4422.99
       378.80000  1.78501e-10      4353.63
       378.90000  1.78501e-10      4282.23
       379.00000  1.78501e-10      4200.12
       379.10000  1.78501e-10      4107.30
       379.20000  1.78501e-10      4003.77
       379.30000  1.78501e-10      3889.53
       379.40000  1.78501e-10      3764.58
       379.50000  1.52047e-09      30926.3
       379.60000  1.52047e-09      31671.3
       379.70000  1.52047e-09      32325.1
       379.80000  1.52047e-09      32918.1
       379.90000  1.52047e-09      33435.0
       380.00000  1.52047e-09      33876.0
       380.10000  1.52047e-09      34240.9
       380.20000  1.52047e-09      34529.8
       380.30000  1.52047e-09      34757.8
       380.40000  1.52047e-09      34894.7
       380.50000  1.50649e-10      3464.93
       380.60000  1.50649e-10      3452.88
       380.70000  1.50649e-10      3436.31
       380.80000  1.50649e-10      3415.22
       380.90000  1.50649e-10      3388.10
       381.00000  1.50649e-10      3357.97
       381.10000  1.50649e-10      3321.81
       381.20000  1.50649e-10      3279.63
       381.30000  1.50725e-10      3236.07
       381.40000  1.50725e-10      3184.82
       381.50000  7.79755e-10      16179.9
       381.60000  7.79755e-10      15868.0
       381.70000  7.79755e-10      15524.9
       381.80000  7.79755e-10      15158.4
       381.90000  7.79755e-10      14760.8
       382.00000  7.79755e-10      14347.5
       382.10000  7.79755e-10      13903.0
       382.20000  7.79755e-10      13427.4
       382.30000  7.79755e-10      12936.1
       382.40000  7.79755e-10      12413.7
       382.50000  1.31383e-09      19996.5
       382.60000  1.31383e-09      19287.0
       382.70000  1.31383e-09      18682.6
       382.80000  1.31383e-09      18170.2
       382.90000  1.31383e-09      17762.9
       383.00000  1.31383e-09      17447.6
       383.10000  1.31383e-09      17237.4
       383.20000  1.31383e-09      17106.0
       383.30000  1.31383e-09      17092.9
       383.40000  1.31383e-09      17158.6
       383.50000  7.19336e-11      948.804
       383.60000  7.19336e-11      1001.32
       383.70000  7.19336e-11      1050.95
       383.80000  7.19873e-11      1098.53
       383.90000  7.19873e-11      1141.72
       384.00000  7.19873e-11      1182.03
       384.10000  7.19873e-11      1218.74
       384.20000  7.19873e-11      1252.58
       384.30000  7.19873e-11      1283.53
       384.40000  7.19873e-11      1310.89
       384.50000  3.53954e-11      656.584
       384.60000  3.53954e-11      667.203
       384.70000  3.53954e-11      676.052
       384.80000  3.53954e-11      683.485
       384.90000  3.53954e-11      689.148
       385.00000  3.53954e-11      693.396
       385.10000  3.53954e-11      696.227
       385.20000  3.53954e-11      697.289
       385.30000  3.53954e-11      696.935
       385.40000  3.53954e-11      695.165
       385.50000  9.03572e-10      17655.8
       385.60000  9.03572e-10      17655.8
       385.70000  9.03572e-10      17664.8
       385.80000  9.03572e-10      17664.8
       385.90000  9.03572e-10      17673.9
       386.00000  9.03572e-10      17673.9
       386.10000  9.03572e-10      17673.9
       386.20000  9.03572e-10      17673.9
       386.30000  9.04946e-10      17709.8
       386.40000  9.04946e-10      17709.8
       386.50000  1.26950e-09      24844.1
       386.60000  1.26950e-09      24856.8
       386.70000  1.26950e-09      24869.5
       386.80000  1.26950e-09      24882.2
       386.90000  1.26950e-09      24882.2
       387.00000  1.26950e-09      24894.9
       387.10000  1.26950e-09      24882.2
       387.20000  1.26950e-09      24882.2
       387.30000  1.26950e-09      24869.5
       387.40000  1.26950e-09      24856.8
       387.50000  2.01747e-10      3946.17
       387.60000  2.01747e-10      3942.13
       387.70000  2.01747e-10      3938.10
       387.80000  2.01747e-10      3934.06
       387.90000  2.01747e-10      3928.01
       388.00000  2.01747e-10      3919.94
       388.10000  2.01747e-10      3913.89
       388.20000  2.01747e-10      3905.82
       388.30000  2.01747e-10      3897.75
       388.40000  2.01747e-10      3889.68
       388.50000  5.60692e-10      10782.1
       388.60000  5.60692e-10      11051.2
       388.70000  5.60692e-10      11303.6
       388.80000  5.62170e-10      11575.1
       388.90000  5.62170e-10      11811.2
       389.00000  5.62170e-10      12024.8
       389.10000  5.62170e-10      12232.8
       389.20000  5.62170e-10      12424.0
       389.30000  5.62170e-10      12603.8
       389.40000  5.62170e-10      12772.5
       389.50000  3.24538e-11      746.113
       389.60000  3.24538e-11      750.332
       389.70000  3.24538e-11      754.551
       389.80000  3.24538e-11      759.094
       389.90000  3.24538e-11      763.962
       390.00000  3.24538e-11      768.506
       390.10000  3.24538e-11      773.374
       390.20000  3.24538e-11      778.566
       390.30000  3.24538e-11      783.759
       390.40000  3.24538e-11      788.952
       390.50000  9.86383e-10      24146.7
       390.60000  9.86383e-10      24324.2
       390.70000  9.86383e-10      24501.8
       390.80000  9.86383e-10      24679.3
       390.90000  9.86383e-10      24856.9
       391.00000  9.86383e-10      25054.1
       391.10000  9.86383e-10      25241.5
       391.20000  9.86383e-10      25438.8
       391.30000  9.88980e-10      25703.6
       391.40000  9.88980e-10      25911.3
       391.50000  6.84721e-10      18090.3
       391.60000  6.84721e-10      17727.4
       391.70000  6.84721e-10      17350.8
       391.80000  6.84721e-10      16953.7
       391.90000  6.84721e-10      16549.7
       392.00000  6.84721e-10      16125.2
       392.10000  6.84721e-10      15687.0
       392.20000  6.84721e-10      15228.2
       392.30000  6.84721e-10      14755.7
       392.40000  6.84721e-10      14269.6
       392.50000  6.07689e-11      1222.06
       392.60000  6.07689e-11      1122.40
       392.70000  6.07689e-11      1033.07
       392.80000  6.07689e-11      954.071
       392.90000  6.07689e-11      886.010
       393.00000  6.07689e-11      828.887
       393.10000  6.07689e-11      782.095
       393.20000  6.07689e-11      745.634
       393.30000  6.07689e-11      720.111
       393.40000  6.07689e-11      704.919
       393.50000  3.26899e-10      3765.88
       393.60000  3.26899e-10      4099.31
       393.70000  3.26899e-10      4422.94
       393.80000  3.27447e-10      4744.70
       393.90000  3.27447e-10      5049.23
       394.00000  3.27447e-10      5343.93
       394.10000  3.27447e-10      5628.81
       394.20000  3.27447e-10      5900.59
       394.30000  3.27447e-10      6165.82
       394.40000  3.27447e-10      6421.23
       394.50000  9.28707e-10      18899.2
       394.60000  9.28707e-10      20060.1
       394.70000  9.28707e-10      21081.7
       394.80000  9.28707e-10      21963.9
       394.90000  9.28707e-10      22706.9
       395.00000  9.28707e-10      23310.6
       395.10000  9.28707e-10      23774.9
       395.20000  9.28707e-10      24109.2
       395.30000  9.28707e-10      24295.0
       395.40000  9.28707e-10      24350.7
       395.50000  5.65126e-10      14766.7
       395.60000  5.65126e-10      14631.1
       395.70000  5.65126e-10      14410.7
       395.80000  5.65126e-10      14105.5
       395.90000  5.65126e-10      13721.2
       396.00000  5.65126e-10      13246.5
       396.10000  5.65126e-10      12692.7
       396.20000  5.65126e-10      12048.5
       396.30000  5.66240e-10      11347.5
       396.40000  5.66240e-10      10537.7
       396.50000  3.84941e-10      6559.39
       396.60000  3.84941e-10      6436.21
       396.70000  3.84941e-10      6355.37
       396.80000  3.84941e-10      6313.03
       396.90000  3.84941e-10      6313.03
       397.00000  3.84941e-10      6351.52
       397.10000  3.84941e-10      6428.51
       397.20000  3.84941e-10      6547.84
       397.30000  3.84941e-10      6709.52
       397.40000  3.84941e-10      6905.84
       397.50000  2.94782e-10      5471.15
       397.60000  2.94782e-10      5942.80
       397.70000  2.94782e-10      6387.92
       397.80000  2.94782e-10      6806.52
       397.90000  2.94782e-10      7198.57
       398.00000  2.94782e-10      7564.10
       398.10000  2.94782e-10      7900.16
       398.20000  2.94782e-10      8212.62
       398.30000  2.94782e-10      8498.56
       398.40000  2.94782e-10      8757.97
       398.50000  6.26137e-10      19090.9
       398.60000  6.26137e-10      19529.2
       398.70000  6.26137e-10      19911.2
       398.80000  6.26473e-10      20247.6
       398.90000  6.26473e-10      20510.7
       399.00000  6.26473e-10      20723.7
       399.10000  6.26473e-10      20874.1
       399.20000  6.26473e-10      20974.3
       399.30000  6.26473e-10      21011.9
       399.40000  6.26473e-10      20999.4
       399.50000  4.04856e-10      13522.2
       399.60000  4.04856e-10      13526.3
       399.70000  4.04856e-10      13530.3
       399.80000  4.04856e-10      13542.4
       399.90000  4.04856e-10      13554.6
       400.00000  4.04856e-10      13570.8
       400.10000  4.04856e-10      13591.0
       400.20000  4.04856e-10      13615.3
       400.30000  4.04856e-10      13643.7
       400.40000  4.04856e-10      13676.1
       400.50000  4.91531e-10      16648.2
       400.60000  4.91531e-10      16736.6
       400.70000  4.91531e-10      16825.1
       400.80000  4.91531e-10      16903.8
       400.90000  4.91531e-10      16977.5
       401.00000  4.91531e-10      17051.2
       401.10000  4.91531e-10      17115.1
       401.20000  4.91531e-10      17174.1
       401.30000  4.91958e-10      17243.1
       401.40000  4.91958e-10      17297.2
       401.50000  2.62907e-10      9267.47
       401.60000  2.62907e-10      9288.50
       401.70000  2.62907e-10      9306.90
       401.80000  2.62907e-10      9322.68
       401.90000  2.62907e-10      9335.82
       402.00000  2.62907e-10      9346.34
       402.10000  2.62907e-10      9354.23
       402.20000  2.62907e-10      9359.48
       402.30000  2.62907e-10      9362.11
       402.40000  2.62907e-10      9362.11
       402.50000  3.93113e-10      13994.8
       402.60000  3.93113e-10      13912.3
       402.70000  3.93113e-10      13841.5
       402.80000  3.93113e-10      13770.8
       402.90000  3.93113e-10      13707.9
       403.00000  3.93113e-10      13648.9
       403.10000  3.93113e-10      13593.9
       403.20000  3.93113e-10      13546.7
       403.30000  3.93113e-10      13503.4
       403.40000  3.93113e-10      13464.1
       403.50000  2.23982e-11      765.121
       403.60000  2.23982e-11      764.897
       403.70000  2.23982e-11      764.673
       403.80000  2.24098e-11      764.623
       403.90000  2.24098e-11      764.399
       404.00000  2.24098e-11      764.174
       404.10000  2.24098e-11      763.950
       404.20000  2.24098e-11      763.726
       404.30000  2.24098e-11      763.278
       404.40000  2.24098e-11      763.278
       404.50000  3.26043e-10      11101.8
       404.60000  3.26043e-10      11098.5
       404.70000  3.26043e-10      11095.2
       404.80000  3.26043e-10      11092.0
       404.90000  3.26043e-10      11092.0
       405.00000  3.26043e-10      11088.7
       405.10000  3.26043e-10      11085.5
       405.20000  3.26043e-10      11085.5
       405.30000  3.26043e-10      11082.2
       405.40000  3.26043e-10      11082.2
       405.50000  2.95166e-10      10032.7
       405.60000  2.95166e-10      9955.96
       405.70000  2.95166e-10      9885.12
       405.80000  2.95166e-10      9823.14
       405.90000  2.95166e-10      9770.01
       406.00000  2.95166e-10      9719.83
       406.10000  2.95166e-10      9678.51
       406.20000  2.95166e-10      9646.04
       406.30000  2.95529e-10      9631.28
       406.40000  2.95529e-10      9610.59
       406.50000  3.06670e-10      9960.65
       406.60000  3.06670e-10      9966.79
       406.70000  3.06670e-10      9979.05
       406.80000  3.06670e-10      9994.39
       406.90000  3.06670e-10      10015.9
       407.00000  3.06670e-10      10040.4
       407.10000  3.06670e-10      10071.1
       407.20000  3.06670e-10      10104.8
       407.30000  3.06670e-10      10141.6
       407.40000  3.06670e-10      10184.5
       407.50000  3.68270e-15     0.122855
       407.60000  3.68270e-15     0.123444
       407.70000  3.68270e-15     0.124107
       407.80000  3.68270e-15     0.124807
       407.90000  3.68270e-15     0.125580
       408.00000  3.68270e-15     0.126390
       408.10000  3.68270e-15     0.127274
       408.20000  3.68270e-15     0.128158
       408.30000  3.68270e-15     0.129152
       408.40000  3.68270e-15     0.130147
       408.50000  9.58098e-11      3413.70
       408.60000  9.58098e-11      3425.20
       408.70000  9.58098e-11      3433.82
       408.80000  9.58153e-11      3438.81
       408.90000  9.58153e-11      3440.73
       409.00000  9.58153e-11      3438.81
       409.10000  9.58153e-11      3434.02
       409.20000  9.58153e-11      3426.35
       409.30000  9.58153e-11      3415.81
       409.40000  9.58153e-11      3400.48
       409.50000  1.05631e-09      37298.5
       409.60000  1.05631e-09      36453.4
       409.70000  1.05631e-09      35703.4
       409.80000  1.05631e-09      35059.1
       409.90000  1.05631e-09      34509.8
       410.00000  1.05631e-09      34076.7
       410.10000  1.05631e-09      33738.7
       410.20000  1.05631e-09      33495.7
       410.30000  1.05631e-09      33369.0
       410.40000  1.05631e-09      33326.7
       410.50000  1.61378e-10      5102.77
       410.60000  1.61378e-10      5128.59
       410.70000  1.61378e-10      5170.55
       410.80000  1.61378e-10      5228.64
       410.90000  1.61378e-10      5301.26
       411.00000  1.61378e-10      5390.02
       411.10000  1.61378e-10      5493.30
       411.20000  1.61378e-10      5614.34
       411.30000  1.61326e-10      5748.04
       411.40000  1.61326e-10      5898.08
       411.50000  2.95542e-10      11109.4
       411.60000  2.95542e-10      11097.6
       411.70000  2.95542e-10      11082.8
       411.80000  2.95542e-10      11071.0
       411.90000  2.95542e-10      11056.2
       412.00000  2.95542e-10      11041.5
       412.10000  2.95542e-10      11026.7
       412.20000  2.95542e-10      11011.9
       412.30000  2.95542e-10      10997.1
       412.40000  2.95542e-10      10982.3
       412.50000  6.70874e-11      2488.94
       412.60000  6.70874e-11      2484.25
       412.70000  6.70874e-11      2479.55
       412.80000  6.70874e-11      2474.86
       412.90000  6.70874e-11      2470.83
       413.00000  6.70874e-11      2466.81
       413.10000  6.70874e-11      2462.78
       413.20000  6.70874e-11      2459.43
       413.30000  6.70874e-11      2455.40
       413.40000  6.70874e-11      2452.05
       413.50000  6.84038e-10      24974.2
       413.60000  6.84038e-10      24940.0
       413.70000  6.84038e-10      24912.7
       413.80000  6.84304e-10      24901.8
       413.90000  6.84304e-10      24874.4
       414.00000  6.84304e-10      24853.9
       414.10000  6.84304e-10      24833.4
       414.20000  6.84304e-10      24812.9
       414.30000  6.84304e-10      24799.2
       414.40000  6.84304e-10      24785.5
       414.50000  7.88246e-11      2853.45
       414.60000  7.88246e-11      2845.57
       414.70000  7.88246e-11      2839.26
       414.80000  7.88246e-11      2834.53
       414.90000  7.88246e-11      2832.17
       415.00000  7.88246e-11      2831.38
       415.10000  7.88246e-11      2832.96
       415.20000  7.88246e-11      2835.32
       415.30000  7.88246e-11      2840.05
       415.40000  7.88246e-11      2847.14
       415.50000  2.24490e-10      8131.02
       415.60000  2.24490e-10      8245.51
       415.70000  2.24490e-10      8344.29
       415.80000  2.24490e-10      8431.84
       415.90000  2.24490e-10      8503.67
       416.00000  2.24490e-10      8564.29
       416.10000  2.24490e-10      8609.18
       416.20000  2.24490e-10      8642.86
       416.30000  2.24437e-10      8658.79
       416.40000  2.24437e-10      8665.52
       416.50000  3.17854e-10      12259.6
       416.60000  3.17854e-10      12088.0
       416.70000  3.17854e-10      11925.9
       416.80000  3.17854e-10      11779.7
       416.90000  3.17854e-10      11643.0
       417.00000  3.17854e-10      11522.2
       417.10000  3.17854e-10      11414.1
       417.20000  3.17854e-10      11318.8
       417.30000  3.17854e-10      11236.1
       417.40000  3.17854e-10      11166.2
       417.50000  6.30085e-10      22021.5
       417.60000  6.30085e-10      22053.0
       417.70000  6.30085e-10      22084.5
       417.80000  6.30085e-10      22116.0
       417.90000  6.30085e-10      22147.5
       418.00000  6.30085e-10      22179.0
       418.10000  6.30085e-10      22210.5
       418.20000  6.30085e-10      22235.7
       418.30000  6.30085e-10      22267.2
       418.40000  6.30085e-10      22298.7
       418.50000  1.77969e-10      6305.44
       418.60000  1.77969e-10      6314.34
       418.70000  1.77969e-10      6323.24
       418.80000  1.78936e-10      6364.75
       418.90000  1.78936e-10      6373.70
       419.00000  1.78936e-10      6380.86
       419.10000  1.78936e-10      6389.80
       419.20000  1.78936e-10      6396.96
       419.30000  1.78936e-10      6404.12
       419.40000  1.78936e-10      6413.06
       419.50000  2.02652e-10      7271.16
       419.60000  2.02652e-10      7299.53
       419.70000  2.02652e-10      7327.90
       419.80000  2.02652e-10      7354.25
       419.90000  2.02652e-10      7382.62
       420.00000  2.02652e-10      7406.94
       420.10000  2.02652e-10      7433.28
       420.20000  2.02652e-10      7457.60
       420.30000  2.02652e-10      7481.92
       420.40000  2.02652e-10      7506.24
       420.50000  8.50953e-10      31612.9
       420.60000  8.50953e-10      31893.7
       420.70000  8.50953e-10      32140.5
       420.80000  8.50953e-10      32336.2
       420.90000  8.50953e-10      32480.9
       421.00000  8.50953e-10      32583.0
       421.10000  8.50953e-10      32642.6
       421.20000  8.50953e-10      32651.1
       421.30000  8.55363e-10      32786.1
       421.40000  8.55363e-10      32700.5
       421.50000  2.99164e-10      11392.2
       421.60000  2.99164e-10      11332.3
       421.70000  2.99164e-10      11254.5
       421.80000  2.99164e-10      11161.8
       421.90000  2.99164e-10      11051.1
       422.00000  2.99164e-10      10925.5
       422.10000  2.99164e-10      10784.9
       422.20000  2.99164e-10      10626.3
       422.30000  2.99164e-10      10449.8
       422.40000  2.99164e-10      10261.3
       422.50000  2.63291e-10      8849.19
       422.60000  2.63291e-10      8941.35
       422.70000  2.63291e-10      9030.87
       422.80000  2.63291e-10      9115.12
       422.90000  2.63291e-10      9194.11
       423.00000  2.63291e-10      9270.46
       423.10000  2.63291e-10      9344.18
       423.20000  2.63291e-10      9412.64
       423.30000  2.63291e-10      9475.83
       423.40000  2.63291e-10      9536.38
       423.50000  2.40804e-10      8772.51
       423.60000  2.40804e-10      8832.71
       423.70000  2.40804e-10      8888.09
       423.80000  2.42261e-10      8987.88
       423.90000  2.42261e-10      9029.06
       424.00000  2.42261e-10      9065.40
       424.10000  2.42261e-10      9092.05
       424.20000  2.42261e-10      9113.85
       424.30000  2.42261e-10      9128.39
       424.40000  2.42261e-10      9135.66
       424.50000  5.30785e-10      20015.9
       424.60000  5.30785e-10      20005.3
       424.70000  5.30785e-10      19978.7
       424.80000  5.30785e-10      19941.6
       424.90000  5.30785e-10      19883.2
       425.00000  5.30785e-10      19814.2
       425.10000  5.30785e-10      19729.3
       425.20000  5.30785e-10      19628.4
       425.30000  5.30785e-10      19517.0
       425.40000  5.30785e-10      19389.6
       425.50000  3.80978e-10      13814.3
       425.60000  3.80978e-10      13867.6
       425.70000  3.80978e-10      13913.3
       425.80000  3.80978e-10      13943.8
       425.90000  3.80978e-10      13966.6
       426.00000  3.80978e-10      13978.1
       426.10000  3.80978e-10      13978.1
       426.20000  3.80978e-10      13966.6
       426.30000  3.82137e-10      13990.0
       426.40000  3.82137e-10      13955.6
       426.50000  2.00659e-10      7305.99
       426.60000  2.00659e-10      7223.72
       426.70000  2.00659e-10      7147.47
       426.80000  2.00659e-10      7077.24
       426.90000  2.00659e-10      7015.04
       427.00000  2.00659e-10      6956.85
       427.10000  2.00659e-10      6906.68
       427.20000  2.00659e-10      6862.54
       427.30000  2.00659e-10      6824.41
       427.40000  2.00659e-10      6792.31
       427.50000  6.43617e-10      21702.8
       427.60000  6.43617e-10      21644.8
       427.70000  6.43617e-10      21599.8
       427.80000  6.43617e-10      21580.5
       427.90000  6.43617e-10      21580.5
       428.00000  6.43617e-10      21599.8
       428.10000  6.43617e-10      21644.8
       428.20000  6.43617e-10      21702.8
       428.30000  6.43617e-10      21786.4
       428.40000  6.43617e-10      21883.0
       428.50000  3.62977e-10      12410.2
       428.60000  3.62977e-10      12406.6
       428.70000  3.62977e-10      12384.8
       428.80000  3.63592e-10      12365.8
       428.90000  3.63592e-10      12307.6
       429.00000  3.63592e-10      12231.2
       429.10000  3.63592e-10      12136.7
       429.20000  3.63592e-10      12024.0
       429.30000  3.63592e-10      11896.7
       429.40000  3.63592e-10      11747.6
       429.50000  4.52091e-10      14399.1
       429.60000  4.52091e-10      13680.3
       429.70000  4.52091e-10      13042.8
       429.80000  4.52091e-10      12495.8
       429.90000  4.52091e-10      12034.7
       430.00000  4.52091e-10      11663.9
       430.10000  4.52091e-10      11379.1
       430.20000  4.52091e-10      11180.2
       430.30000  4.52091e-10      11067.2
       430.40000  4.52091e-10      11044.6
       430.50000  5.43372e-11      1335.07
       430.60000  5.43372e-11      1353.00
       430.70000  5.43372e-11      1381.80
       430.80000  5.43372e-11      1420.38
       430.90000  5.43372e-11      1470.37
       431.00000  5.43372e-11      1530.14
       431.10000  5.43372e-11      1600.78
       431.20000  5.43372e-11      1681.74
       431.30000  5.44488e-11      1776.66
       431.40000  5.44488e-11      1879.03
       431.50000  5.87662e-10      21496.7
       431.60000  5.87662e-10      21379.1
       431.70000  5.87662e-10      21273.4
       431.80000  5.87662e-10      21191.1
       431.90000  5.87662e-10      21120.6
       432.00000  5.87662e-10      21067.7
       432.10000  5.87662e-10      21026.5
       432.20000  5.87662e-10      21003.0
       432.30000  5.87662e-10      20997.2
       432.40000  5.87662e-10      21008.9
       432.50000  3.29213e-10      11782.5
       432.60000  3.29213e-10      11894.5
       432.70000  3.29213e-10      11993.2
       432.80000  3.29213e-10      12085.4
       432.90000  3.29213e-10      12164.4
       433.00000  3.29213e-10      12233.5
       433.10000  3.29213e-10      12292.8
       433.20000  3.29213e-10      12338.9
       433.30000  3.29213e-10      12378.4
       433.40000  3.29213e-10      12404.7
       433.50000  2.64825e-10      9991.86
       433.60000  2.64825e-10      9997.16
       433.70000  2.64825e-10      9991.86
       433.80000  2.64948e-10      9985.90
       433.90000  2.64948e-10      9964.71
       434.00000  2.64948e-10      9935.56
       434.10000  2.64948e-10      9898.47
       434.20000  2.64948e-10      9853.43
       434.30000  2.64948e-10      9800.44
       434.40000  2.64948e-10      9736.85
       434.50000  3.26189e-10      11899.4
       434.60000  3.26189e-10      11892.8
       434.70000  3.26189e-10      11892.8
       434.80000  3.26189e-10      11905.9
       434.90000  3.26189e-10      11932.0
       435.00000  3.26189e-10      11967.9
       435.10000  3.26189e-10      12013.5
       435.20000  3.26189e-10      12069.0
       435.30000  3.26189e-10      12137.5
       435.40000  3.26189e-10      12215.8
       435.50000  4.80798e-10      18140.5
       435.60000  4.80798e-10      18515.5
       435.70000  4.80798e-10      18861.7
       435.80000  4.80798e-10      19169.4
       435.90000  4.80798e-10      19443.5
       436.00000  4.80798e-10      19679.1
       436.10000  4.80798e-10      19885.8
       436.20000  4.80798e-10      20054.1
       436.30000  4.80663e-10      20183.1
       436.40000  4.80663e-10      20284.0
       436.50000  2.88824e-10      12225.9
       436.60000  2.88824e-10      12246.1
       436.70000  2.88824e-10      12243.2
       436.80000  2.88824e-10      12220.1
       436.90000  2.88824e-10      12176.8
       437.00000  2.88824e-10      12110.4
       437.10000  2.88824e-10      12026.6
       437.20000  2.88824e-10      11919.8
       437.30000  2.88824e-10      11792.7
       437.40000  2.88824e-10      11642.5
       437.50000  1.78811e-10      7104.16
       437.60000  1.78811e-10      6923.56
       437.70000  1.78811e-10      6760.84
       437.80000  1.78811e-10      6619.58
       437.90000  1.78811e-10      6497.99
       438.00000  1.78811e-10      6396.06
       438.10000  1.78811e-10      6312.02
       438.20000  1.78811e-10      6249.44
       438.30000  1.78811e-10      6206.52
       438.40000  1.78811e-10      6181.49
       438.50000  4.21048e-10      14547.2
       438.60000  4.21048e-10      14943.0
       438.70000  4.21048e-10      15309.3
       438.80000  4.21111e-10      15640.0
       438.90000  4.21111e-10      15934.8
       439.00000  4.21111e-10      16195.9
       439.10000  4.21111e-10      16423.3
       439.20000  4.21111e-10      16612.8
       439.30000  4.21111e-10      16772.8
       439.40000  4.21111e-10      16895.0
       439.50000  1.84782e-11      745.225
       439.60000  1.84782e-11      734.692
       439.70000  1.84782e-11      725.638
       439.80000  1.84782e-11      717.692
       439.90000  1.84782e-11      711.225
       440.00000  1.84782e-11      706.236
       440.10000  1.84782e-11      702.540
       440.20000  1.84782e-11      700.138
       440.30000  1.84782e-11      699.029
       440.40000  1.84782e-11      699.399
       440.50000  9.71848e-11      3687.19
       440.60000  9.71848e-11      3751.33
       440.70000  9.71848e-11      3811.59
       440.80000  9.71848e-11      3868.93
       440.90000  9.71848e-11      3922.38
       441.00000  9.71848e-11      3971.94
       441.10000  9.71848e-11      4017.62
       441.20000  9.71848e-11      4060.38
       441.30000  9.71262e-11      4096.78
       441.40000  9.71262e-11      4131.75
       441.50000  2.90961e-10      12470.6
       441.60000  2.90961e-10      12554.9
       441.70000  2.90961e-10      12627.7
       441.80000  2.90961e-10      12688.8
       441.90000  2.90961e-10      12741.2
       442.00000  2.90961e-10      12781.9
       442.10000  2.90961e-10      12811.0
       442.20000  2.90961e-10      12828.5
       442.30000  2.90961e-10      12834.3
       442.40000  2.90961e-10      12831.4
       442.50000  3.26188e-10      14368.6
       442.60000  3.26188e-10      14277.3
       442.70000  3.26188e-10      14192.5
       442.80000  3.26188e-10      14120.7
       442.90000  3.26188e-10      14058.7
       443.00000  3.26188e-10      14003.3
       443.10000  3.26188e-10      13960.9
       443.20000  3.26188e-10      13928.2
       443.30000  3.26188e-10      13902.2
       443.40000  3.26188e-10      13889.1
       443.50000  5.26173e-11      2239.92
       443.60000  5.26173e-11      2259.39
       443.70000  5.26173e-11      2276.23
       443.80000  5.25787e-11      2288.75
       443.90000  5.25787e-11      2300.85
       444.00000  5.25787e-11      2310.31
       444.10000  5.25787e-11      2316.62
       444.20000  5.25787e-11      2320.83
       444.30000  5.25787e-11      2322.93
       444.40000  5.25787e-11      2321.88
       444.50000  3.72166e-10      16408.8
       444.60000  3.72166e-10      16367.9
       444.70000  3.72166e-10      16308.3
       444.80000  3.72166e-10      16230.2
       444.90000  3.72166e-10      16133.4
       445.00000  3.72166e-10      16021.7
       445.10000  3.72166e-10      15887.8
       445.20000  3.72166e-10      15738.9
       445.30000  3.72166e-10      15571.4
       445.40000  3.72166e-10      15385.3
       445.50000  2.61430e-10      10663.7
       445.60000  2.61430e-10      10676.8
       445.70000  2.61430e-10      10695.1
       445.80000  2.61430e-10      10721.3
       445.90000  2.61430e-10      10755.2
       446.00000  2.61430e-10      10794.5
       446.10000  2.61430e-10      10841.5
       446.20000  2.61430e-10      10896.4
       446.30000  2.61127e-10      10943.8
       446.40000  2.61127e-10      11011.7
       446.50000  6.12899e-11      2601.75
       446.60000  6.12899e-11      2645.88
       446.70000  6.12899e-11      2686.33
       446.80000  6.12899e-11      2722.50
       446.90000  6.12899e-11      2754.98
       447.00000  6.12899e-11      2783.17
       447.10000  6.12899e-11      2807.08
       447.20000  6.12899e-11      2827.30
       447.30000  6.12899e-11      2843.85
       447.40000  6.12899e-11      2856.11
       447.50000  1.62439e-10      7590.79
       447.60000  1.62439e-10      7602.16
       447.70000  1.62439e-10      7603.78
       447.80000  1.62439e-10      7592.41
       447.90000  1.62439e-10      7572.92
       448.00000  1.62439e-10      7542.06
       448.10000  1.62439e-10      7499.82
       448.20000  1.62439e-10      7447.84
       448.30000  1.62439e-10      7384.49
       448.40000  1.62439e-10      7311.39
       448.50000  3.33716e-10      14847.0
       448.60000  3.33716e-10      14870.4
       448.70000  3.33716e-10      14897.1
       448.80000  3.33726e-10      14930.9
       448.90000  3.33726e-10      14967.6
       449.00000  3.33726e-10      15007.6
       449.10000  3.33726e-10      15054.4
       449.20000  3.33726e-10      15104.4
       449.30000  3.33726e-10      15161.2
       449.40000  3.33726e-10      15221.2
       449.50000  2.22490e-10      10192.3
       449.60000  2.22490e-10      10287.9
       449.70000  2.22490e-10      10376.9
       449.80000  2.22490e-10      10457.0
       449.90000  2.22490e-10      10528.2
       450.00000  2.22490e-10      10595.0
       450.10000  2.22490e-10      10650.6
       450.20000  2.22490e-10      10701.8
       450.30000  2.22490e-10      10744.0
       450.40000  2.22490e-10      10777.4
       450.50000  2.23733e-10      10864.5
       450.60000  2.23733e-10      10880.1
       450.70000  2.23733e-10      10889.1
       450.80000  2.23733e-10      10889.1
       450.90000  2.23733e-10      10884.6
       451.00000  2.23733e-10      10873.4
       451.10000  2.23733e-10      10853.3
       451.20000  2.23733e-10      10828.7
       451.30000  2.23581e-10      10790.0
       451.40000  2.23581e-10      10749.8
       451.50000  1.26201e-10      6042.51
       451.60000  1.26201e-10      5969.31
       451.70000  1.26201e-10      5902.43
       451.80000  1.26201e-10      5841.85
       451.90000  1.26201e-10      5786.32
       452.00000  1.26201e-10      5737.10
       452.10000  1.26201e-10      5692.93
       452.20000  1.26201e-10      5653.81
       452.30000  1.26201e-10      5622.26
       452.40000  1.26201e-10      5594.49
       452.50000  4.10928e-10      18146.6
       452.60000  4.10928e-10      18093.1
       452.70000  4.10928e-10      18060.3
       452.80000  4.10928e-10      18047.9
       452.90000  4.10928e-10      18052.1
       453.00000  4.10928e-10      18072.6
       453.10000  4.10928e-10      18113.7
       453.20000  4.10928e-10      18171.2
       453.30000  4.10928e-10      18249.3
       453.40000  4.10928e-10      18343.8
       453.50000  5.68176e-11      2552.25
       453.60000  5.68176e-11      2551.11
       453.70000  5.68176e-11      2551.11
       453.80000  5.68034e-11      2550.47
       453.90000  5.68034e-11      2551.04
       454.00000  5.68034e-11      2552.74
       454.10000  5.68034e-11      2555.02
       454.20000  5.68034e-11      2557.29
       454.30000  5.68034e-11      2560.70
       454.40000  5.68034e-11      2564.67
       454.50000  1.03440e-10      4677.55
       454.60000  1.03440e-10      4693.07
       454.70000  1.03440e-10      4708.58
       454.80000  1.03440e-10      4723.06
       454.90000  1.03440e-10      4737.55
       455.00000  1.03440e-10      4752.03
       455.10000  1.03440e-10      4765.47
       455.20000  1.03440e-10      4778.92
       455.30000  1.03440e-10      4792.37
       455.40000  1.03440e-10      4805.82
       455.50000  4.22239e-10      19667.9
       455.60000  4.22239e-10      19718.5
       455.70000  4.22239e-10      19769.2
       455.80000  4.22239e-10      19819.9
       455.90000  4.22239e-10      19866.3
       456.00000  4.22239e-10      19912.8
       456.10000  4.22239e-10      19959.2
       456.20000  4.22239e-10      20001.4
       456.30000  4.22228e-10      20047.4
       456.40000  4.22228e-10      20089.6
       456.50000  9.97788e-11      4756.46
       456.60000  9.97788e-11      4778.41
       456.70000  9.97788e-11      4797.36
       456.80000  9.97788e-11      4812.33
       456.90000  9.97788e-11      4824.30
       457.00000  9.97788e-11      4832.29
       457.10000  9.97788e-11      4836.28
       457.20000  9.97788e-11      4837.28
       457.30000  9.97788e-11      4835.28
       457.40000  9.97788e-11      4829.29
       457.50000  1.52134e-10      7349.62
       457.60000  1.52134e-10      7279.64
       457.70000  1.52134e-10      7214.22
       457.80000  1.52134e-10      7156.41
       457.90000  1.52134e-10      7104.68
       458.00000  1.52134e-10      7057.52
       458.10000  1.52134e-10      7016.44
       458.20000  1.52134e-10      6981.45
       458.30000  1.52134e-10      6952.55
       458.40000  1.52134e-10      6929.73
       458.50000  1.71402e-10      7788.50
       458.60000  1.71402e-10      7774.79
       458.70000  1.71402e-10      7767.93
       458.80000  1.71634e-10      7780.19
       458.90000  1.71634e-10      7787.06
       459.00000  1.71634e-10      7799.07
       459.10000  1.71634e-10      7819.67
       459.20000  1.71634e-10      7847.13
       459.30000  1.71634e-10      7879.74
       459.40000  1.71634e-10      7919.21
       459.50000  5.19791e-11      2412.35
       459.60000  5.19791e-11      2417.55
       459.70000  5.19791e-11      2422.74
       459.80000  5.19791e-11      2427.42
       459.90000  5.19791e-11      2432.10
       460.00000  5.19791e-11      2436.26
       460.10000  5.19791e-11      2440.42
       460.20000  5.19791e-11      2444.58
       460.30000  5.19791e-11      2448.21
       460.40000  5.19791e-11      2451.85
       460.50000  1.10120e-10      5200.95
       460.60000  1.10120e-10      5202.05
       460.70000  1.10120e-10      5204.25
       460.80000  1.10120e-10      5207.56
       460.90000  1.10120e-10      5210.86
       461.00000  1.10120e-10      5215.26
       461.10000  1.10120e-10      5220.77
       461.20000  1.10120e-10      5227.38
       461.30000  1.10275e-10      5241.36
       461.40000  1.10275e-10      5249.08
       461.50000  2.03361e-10      9696.27
       461.60000  2.03361e-10      9747.11
       461.70000  2.03361e-10      9789.82
       461.80000  2.03361e-10      9828.45
       461.90000  2.03361e-10      9863.03
       462.00000  2.03361e-10      9889.46
       462.10000  2.03361e-10      9911.83
       462.20000  2.03361e-10      9930.13
       462.30000  2.03361e-10      9942.34
       462.40000  2.03361e-10      9948.44
       462.50000  2.59996e-10      12721.6
       462.60000  2.59996e-10      12685.2
       462.70000  2.59996e-10      12648.8
       462.80000  2.59996e-10      12612.4
       462.90000  2.59996e-10      12576.0
       463.00000  2.59996e-10      12539.6
       463.10000  2.59996e-10      12505.8
       463.20000  2.59996e-10      12469.4
       463.30000  2.59996e-10      12433.0
       463.40000  2.59996e-10      12396.6
       463.50000  2.14438e-11      1019.44
       463.60000  2.14438e-11      1016.44
       463.70000  2.14438e-11      1013.44
       463.80000  2.14642e-11      1011.39
       463.90000  2.14642e-11      1008.60
       464.00000  2.14642e-11      1005.60
       464.10000  2.14642e-11      1002.59
       464.20000  2.14642e-11      999.589
       464.30000  2.14642e-11      996.584
       464.40000  2.14642e-11      993.579
       464.50000  1.14110e-10      5266.18
       464.60000  1.14110e-10      5307.26
       464.70000  1.14110e-10      5343.77
       464.80000  1.14110e-10      5374.58
       464.90000  1.14110e-10      5400.83
       465.00000  1.14110e-10      5422.51
       465.10000  1.14110e-10      5438.48
       465.20000  1.14110e-10      5449.89
       465.30000  1.14110e-10      5455.60
       465.40000  1.14110e-10      5457.88
       465.50000  3.82785e-10      18293.3
       465.60000  3.82785e-10      18101.9
       465.70000  3.82785e-10      17929.7
       465.80000  3.82785e-10      17776.6
       465.90000  3.82785e-10      17642.6
       466.00000  3.82785e-10      17527.7
       466.10000  3.82785e-10      17435.9
       466.20000  3.82785e-10      17359.3
       466.30000  3.82595e-10      17293.3
       466.40000  3.82595e-10      17255.0
       466.50000  2.61049e-10      11762.8
       466.60000  2.61049e-10      11762.8
       466.70000  2.61049e-10      11775.9
       466.80000  2.61049e-10      11804.6
       466.90000  2.61049e-10      11843.8
       467.00000  2.61049e-10      11898.6
       467.10000  2.61049e-10      11966.5
       467.20000  2.61049e-10      12044.8
       467.30000  2.61049e-10      12138.8
       467.40000  2.61049e-10      12245.8
       467.50000  1.41148e-10      6684.75
       467.60000  1.41148e-10      6677.69
       467.70000  1.41148e-10      6669.22
       467.80000  1.41148e-10      6662.17
       467.90000  1.41148e-10      6656.52
       468.00000  1.41148e-10      6650.88
       468.10000  1.41148e-10      6645.23
       468.20000  1.41148e-10      6640.99
       468.30000  1.41148e-10      6636.76
       468.40000  1.41148e-10      6632.53
       468.50000  3.59818e-10      16900.7
       468.60000  3.59818e-10      16943.8
       468.70000  3.59818e-10      16976.2
       468.80000  3.59666e-10      16990.6
       468.90000  3.59666e-10      17005.0
       469.00000  3.59666e-10      17012.2
       469.10000  3.59666e-10      17005.0
       469.20000  3.59666e-10      16990.6
       469.30000  3.59666e-10      16969.1
       469.40000  3.59666e-10      16936.7
       469.50000  1.48883e-10      6994.50
       469.60000  1.48883e-10      6972.17
       469.70000  1.48883e-10      6948.35
       469.80000  1.48883e-10      6918.57
       469.90000  1.48883e-10      6887.30
       470.00000  1.48883e-10      6850.08
       470.10000  1.48883e-10      6809.89
       470.20000  1.48883e-10      6766.71
       470.30000  1.48883e-10      6717.58
       470.40000  1.48883e-10      6666.96
       470.50000  2.85855e-11      1269.19
       470.60000  2.85855e-11      1282.63
       470.70000  2.85855e-11      1295.21
       470.80000  2.85855e-11      1307.21
       470.90000  2.85855e-11      1318.08
       471.00000  2.85855e-11      1328.37
       471.10000  2.85855e-11      1337.80
       471.20000  2.85855e-11      1346.37
       471.30000  2.85011e-11      1350.38
       471.40000  2.85011e-11      1357.22
       471.50000  5.75378e-11      2752.61
       471.60000  5.75378e-11      2760.66
       471.70000  5.75378e-11      2768.14
       471.80000  5.75378e-11      2774.47
       471.90000  5.75378e-11      2779.65
       472.00000  5.75378e-11      2783.68
       472.10000  5.75378e-11      2787.13
       472.20000  5.75378e-11      2789.43
       472.30000  5.75378e-11      2790.58
       472.40000  5.75378e-11      2790.58
       472.50000  1.44797e-10      7021.22
       472.60000  1.44797e-10      7016.88
       472.70000  1.44797e-10      7009.64
       472.80000  1.44797e-10      6999.50
       472.90000  1.44797e-10      6987.92
       473.00000  1.44797e-10      6973.44
       473.10000  1.44797e-10      6956.06
       473.20000  1.44797e-10      6937.24
       473.30000  1.44797e-10      6915.52
       473.40000  1.44797e-10      6890.90
       473.50000  1.32250e-10      6268.66
       473.60000  1.32250e-10      6301.72
       473.70000  1.32250e-10      6333.46
       473.80000  1.32135e-10      6355.69
       473.90000  1.32135e-10      6379.48
       474.00000  1.32135e-10      6401.94
       474.10000  1.32135e-10      6420.44
       474.20000  1.32135e-10      6436.30
       474.30000  1.32135e-10      6449.51
       474.40000  1.32135e-10      6458.76
       474.50000  7.43722e-11      3639.03
       474.60000  7.43722e-11      3635.31
       474.70000  7.43722e-11      3631.59
       474.80000  7.43722e-11      3627.13
       474.90000  7.43722e-11      3622.67
       475.00000  7.43722e-11      3617.46
       475.10000  7.43722e-11      3611.51
       475.20000  7.43722e-11      3605.56
       475.30000  7.43722e-11      3598.87
       475.40000  7.43722e-11      3592.18
       475.50000  1.12973e-10      5445.28
       475.60000  1.12973e-10      5432.85
       475.70000  1.12973e-10      5420.43
       475.80000  1.12973e-10      5406.87
       475.90000  1.12973e-10      5393.31
       476.00000  1.12973e-10      5378.63
       476.10000  1.12973e-10      5362.81
       476.20000  1.12973e-10      5346.99
       476.30000  1.12817e-10      5322.69
       476.40000  1.12817e-10      5304.64
       476.50000  4.60799e-11      2159.31
       476.60000  4.60799e-11      2182.35
       476.70000  4.60799e-11      2203.08
       476.80000  4.60799e-11      2221.51
       476.90000  4.60799e-11      2238.56
       477.00000  4.60799e-11      2252.85
       477.10000  4.60799e-11      2265.75
       477.20000  4.60799e-11      2276.35
       477.30000  4.60799e-11      2284.64
       477.40000  4.60799e-11      2291.09
       477.50000  2.12397e-10      10581.6
       477.60000  2.12397e-10      10517.9
       477.70000  2.12397e-10      10462.7
       477.80000  2.12397e-10      10415.9
       477.90000  2.12397e-10      10373.5
       478.00000  2.12397e-10      10339.5
       478.10000  2.12397e-10      10309.7
       478.20000  2.12397e-10      10288.5
       478.30000  2.12397e-10      10273.6
       478.40000  2.12397e-10      10267.3
       478.50000  1.62526e-10      7854.87
       478.60000  1.62526e-10      7859.75
       478.70000  1.62526e-10      7869.50
       478.80000  1.62766e-10      7895.80
       478.90000  1.62766e-10      7916.96
       479.00000  1.62766e-10      7941.37
       479.10000  1.62766e-10      7972.30
       479.20000  1.62766e-10      8008.11
       479.30000  1.62766e-10      8048.80
       479.40000  1.62766e-10      8094.38
       479.50000  2.30952e-10      11559.2
       479.60000  2.30952e-10      11515.3
       479.70000  2.30952e-10      11476.0
       479.80000  2.30952e-10      11441.4
       479.90000  2.30952e-10      11413.7
       480.00000  2.30952e-10      11390.6
       480.10000  2.30952e-10      11372.1
       480.20000  2.30952e-10      11360.5
       480.30000  2.30952e-10      11353.6
       480.40000  2.30952e-10      11351.3
       480.50000  7.32392e-11      3600.44
       480.60000  7.32392e-11      3620.94
       480.70000  7.32392e-11      3639.25
       480.80000  7.32392e-11      3654.63
       480.90000  7.32392e-11      3668.55
       481.00000  7.32392e-11      3680.27
       481.10000  7.32392e-11      3689.79
       481.20000  7.32392e-11      3697.11
       481.30000  7.34629e-11      3713.55
       481.40000  7.34629e-11      3716.49
       481.50000  1.71987e-10      8702.53
       481.60000  1.71987e-10      8699.09
       481.70000  1.71987e-10      8690.49
       481.80000  1.71987e-10      8676.73
       481.90000  1.71987e-10      8657.81
       482.00000  1.71987e-10      8635.46
       482.10000  1.71987e-10      8606.22
       482.20000  1.71987e-10      8571.82
       482.30000  1.71987e-10      8533.98
       482.40000  1.71987e-10      8489.27
       482.50000  1.06767e-10      5240.12
       482.60000  1.06767e-10      5245.46
       482.70000  1.06767e-10      5249.73
       482.80000  1.06767e-10      5252.93
       482.90000  1.06767e-10      5254.00
       483.00000  1.06767e-10      5255.07
       483.10000  1.06767e-10      5254.00
       483.20000  1.06767e-10      5252.93
       483.30000  1.06767e-10      5249.73
       483.40000  1.06767e-10      5245.46
       483.50000  1.16783e-10      5731.72
       483.60000  1.16783e-10      5730.55
       483.70000  1.16783e-10      5725.88
       483.80000  1.16986e-10      5729.97
       483.90000  1.16986e-10      5720.61
       484.00000  1.16986e-10      5708.91
       484.10000  1.16986e-10      5693.70
       484.20000  1.16986e-10      5677.32
       484.30000  1.16986e-10      5657.44
       484.40000  1.16986e-10      5635.21
       484.50000  7.19196e-11      3449.27
       484.60000  7.19196e-11      3431.29
       484.70000  7.19196e-11      3411.87
       484.80000  7.19196e-11      3391.01
       484.90000  7.19196e-11      3368.72
       485.00000  7.19196e-11      3345.70
       485.10000  7.19196e-11      3321.25
       485.20000  7.19196e-11      3296.08
       485.30000  7.19196e-11      3269.47
       485.40000  7.19196e-11      3241.42
       485.50000  1.62914e-11      727.736
       485.60000  1.62914e-11      712.422
       485.70000  1.62914e-11      698.574
       485.80000  1.62914e-11      686.519
       485.90000  1.62914e-11      676.092
       486.00000  1.62914e-11      667.295
       486.10000  1.62914e-11      659.964
       486.20000  1.62914e-11      654.425
       486.30000  1.62878e-11      650.373
       486.40000  1.62878e-11      648.092
       486.50000  2.50076e-11      994.052
       486.60000  2.50076e-11      995.552
       486.70000  2.50076e-11      999.553
       486.80000  2.50076e-11      1006.06
       486.90000  2.50076e-11      1015.06
       487.00000  2.50076e-11      1026.56
       487.10000  2.50076e-11      1040.57
       487.20000  2.50076e-11      1057.07
       487.30000  2.50076e-11      1076.08
       487.40000  2.50076e-11      1097.58
       487.50000  1.87311e-10      8402.79
       487.60000  1.87311e-10      8449.62
       487.70000  1.87311e-10      8496.45
       487.80000  1.87311e-10      8541.40
       487.90000  1.87311e-10      8584.48
       488.00000  1.87311e-10      8625.69
       488.10000  1.87311e-10      8665.03
       488.20000  1.87311e-10      8702.49
       488.30000  1.87311e-10      8738.08
       488.40000  1.87311e-10      8773.67
       488.50000  2.61105e-10      12274.5
       488.60000  2.61105e-10      12305.9
       488.70000  2.61105e-10      12337.2
       488.80000  2.60926e-10      12362.7
       488.90000  2.60926e-10      12394.0
       489.00000  2.60926e-10      12425.3
       489.10000  2.60926e-10      12456.6
       489.20000  2.60926e-10      12490.5
       489.30000  2.60926e-10      12521.8
       489.40000  2.60926e-10      12553.1
       489.50000  6.19492e-11      2988.43
       489.60000  6.19492e-11      2995.86
       489.70000  6.19492e-11      3003.91
       489.80000  6.19492e-11      3011.35
       489.90000  6.19492e-11      3019.40
       490.00000  6.19492e-11      3026.84
       490.10000  6.19492e-11      3034.89
       490.20000  6.19492e-11      3042.94
       490.30000  6.19492e-11      3050.38
       490.40000  6.19492e-11      3058.43
       490.50000  5.07188e-10      25105.8
       490.60000  5.07188e-10      24908.0
       490.70000  5.07188e-10      24725.4
       490.80000  5.07188e-10      24558.1
       490.90000  5.07188e-10      24400.8
       491.00000  5.07188e-10      24258.8
       491.10000  5.07188e-10      24132.0
       491.20000  5.07188e-10      24020.4
       491.30000  5.07534e-10      23935.3
       491.40000  5.07534e-10      23849.0
       491.50000  8.73946e-12      409.444
       491.60000  8.73946e-12      409.619
       491.70000  8.73946e-12      409.793
       491.80000  8.73946e-12      409.881
       491.90000  8.73946e-12      410.056
       492.00000  8.73946e-12      410.143
       492.10000  8.73946e-12      410.230
       492.20000  8.73946e-12      410.230
       492.30000  8.73946e-12      410.318
       492.40000  8.73946e-12      410.318
       492.50000  2.16310e-10      10155.7
       492.60000  2.16310e-10      10155.7
       492.70000  2.16310e-10      10155.7
       492.80000  2.16310e-10      10153.6
       492.90000  2.16310e-10      10151.4
       493.00000  2.16310e-10      10149.2
       493.10000  2.16310e-10      10147.1
       493.20000  2.16310e-10      10144.9
       493.30000  2.16310e-10      10140.6
       493.40000  2.16310e-10      10138.4
       493.50000  1.59447e-10      7470.10
       493.60000  1.59447e-10      7592.87
       493.70000  1.59447e-10      7702.89
       493.80000  1.59694e-10      7813.83
       493.90000  1.59694e-10      7901.67
       494.00000  1.59694e-10      7976.72
       494.10000  1.59694e-10      8039.00
       494.20000  1.59694e-10      8090.11
       494.30000  1.59694e-10      8128.43
       494.40000  1.59694e-10      8155.58
       494.50000  2.61504e-10      13381.1
       494.60000  2.61504e-10      13232.1
       494.70000  2.61504e-10      13098.7
       494.80000  2.61504e-10      12978.4
       494.90000  2.61504e-10      12873.8
       495.00000  2.61504e-10      12782.3
       495.10000  2.61504e-10      12706.5
       495.20000  2.61504e-10      12646.3
       495.30000  2.61504e-10      12599.2
       495.40000  2.61504e-10      12565.2
       495.50000  1.19983e-10      5756.76
       495.60000  1.19983e-10      5797.56
       495.70000  1.19983e-10      5835.95
       495.80000  1.19983e-10      5870.74
       495.90000  1.19983e-10      5903.14
       496.00000  1.19983e-10      5933.14
       496.10000  1.19983e-10      5959.53
       496.20000  1.19983e-10      5984.73
       496.30000  1.20059e-10      6010.13
       496.40000  1.20059e-10      6029.34
       496.50000  9.42466e-12      474.532
       496.60000  9.42466e-12      476.322
       496.70000  9.42466e-12      477.642
       496.80000  9.42466e-12      478.679
       496.90000  9.42466e-12      479.338
       497.00000  9.42466e-12      479.621
       497.10000  9.42466e-12      479.621
       497.20000  9.42466e-12      479.150
       497.30000  9.42466e-12      478.396
       497.40000  9.42466e-12      477.265
       497.50000  1.73183e-10      8742.29
       497.60000  1.73183e-10      8707.65
       497.70000  1.73183e-10      8666.09
       497.80000  1.73183e-10      8619.33
       497.90000  1.73183e-10      8563.91
       498.00000  1.73183e-10      8503.30
       498.10000  1.73183e-10      8435.75
       498.20000  1.73183e-10      8363.02
       498.30000  1.73183e-10      8281.62
       498.40000  1.73183e-10      8193.30
       498.50000  7.80302e-11      3649.47
       498.60000  7.80302e-11      3690.05
       498.70000  7.80302e-11      3725.94
       498.80000  7.80868e-11      3759.88
       498.90000  7.80868e-11      3787.99
       499.00000  7.80868e-11      3810.64
       499.10000  7.80868e-11      3830.16
       499.20000  7.80868e-11      3845.00
       499.30000  7.80868e-11      3855.15
       499.40000  7.80868e-11      3861.39
       499.50000  5.97054e-11      2953.63
       499.60000  5.97054e-11      2932.73
       499.70000  5.97054e-11      2913.03
       499.80000  5.97054e-11      2893.92
       499.90000  5.97054e-11      2876.01
       500.00000  5.97054e-11      2859.29
       500.10000  5.97054e-11      2843.17
       500.20000  5.97054e-11      2828.84
       500.30000  5.97054e-11      2814.51
       500.40000  5.97054e-11      2801.98
       500.50000  1.51735e-10      7090.57
       500.60000  1.51735e-10      7063.26
       500.70000  1.51735e-10      7038.98
       500.80000  1.51735e-10      7016.22
       500.90000  1.51735e-10      6996.49
       501.00000  1.51735e-10      6979.80
       501.10000  1.51735e-10      6964.63
       501.20000  1.51735e-10      6952.49
       501.30000  1.51997e-10      6955.40
       501.40000  1.51997e-10      6949.32
       501.50000  2.16131e-10      9875.03
       501.60000  2.16131e-10      9931.23
       501.70000  2.16131e-10      9987.42
       501.80000  2.16131e-10      10039.3
       501.90000  2.16131e-10      10089.0
       502.00000  2.16131e-10      10136.5
       502.10000  2.16131e-10      10181.9
       502.20000  2.16131e-10      10225.2
       502.30000  2.16131e-10      10266.2
       502.40000  2.16131e-10      10305.1
       502.50000  6.27665e-11      3003.38
       502.60000  6.27665e-11      3017.81
       502.70000  6.27665e-11      3031.00
       502.80000  6.27665e-11      3041.67
       502.90000  6.27665e-11      3051.08
       503.00000  6.27665e-11      3059.24
       503.10000  6.27665e-11      3065.52
       503.20000  6.27665e-11      3069.91
       503.30000  6.27665e-11      3072.42
       503.40000  6.27665e-11      3073.68
       503.50000  1.48615e-10      7276.18
       503.60000  1.48615e-10      7270.24
       503.70000  1.48615e-10      7261.32
       503.80000  1.48818e-10      7257.84
       503.90000  1.48818e-10      7241.47
       504.00000  1.48818e-10      7220.63
       504.10000  1.48818e-10      7195.34
       504.20000  1.48818e-10      7165.57
       504.30000  1.48818e-10      7132.83
       504.40000  1.48818e-10      7095.63
       504.50000  2.59268e-10      12291.9
       504.60000  2.59268e-10      12421.5
       504.70000  2.59268e-10      12540.8
       504.80000  2.59268e-10      12652.3
       504.90000  2.59268e-10      12750.8
       505.00000  2.59268e-10      12841.6
       505.10000  2.59268e-10      12919.3
       505.20000  2.59268e-10      12989.3
       505.30000  2.59268e-10      13046.4
       505.40000  2.59268e-10      13095.6
       505.50000  1.31594e-10      6665.25
       505.60000  1.31594e-10      6659.99
       505.70000  1.31594e-10      6653.41
       505.80000  1.31594e-10      6645.51
       505.90000  1.31594e-10      6637.62
       506.00000  1.31594e-10      6628.41
       506.10000  1.31594e-10      6619.20
       506.20000  1.31594e-10      6608.67
       506.30000  1.31781e-10      6606.17
       506.40000  1.31781e-10      6594.31
       506.50000  5.86167e-10      29273.2
       506.60000  5.86167e-10      29150.1
       506.70000  5.86167e-10      29038.7
       506.80000  5.86167e-10      28939.0
       506.90000  5.86167e-10      28845.3
       507.00000  5.86167e-10      28763.2
       507.10000  5.86167e-10      28692.8
       507.20000  5.86167e-10      28628.4
       507.30000  5.86167e-10      28581.5
       507.40000  5.86167e-10      28540.4
       507.50000  1.14720e-10      5578.84
       507.60000  1.14720e-10      5586.87
       507.70000  1.14720e-10      5592.61
       507.80000  1.14720e-10      5599.49
       507.90000  1.14720e-10      5605.23
       508.00000  1.14720e-10      5609.82
       508.10000  1.14720e-10      5614.41
       508.20000  1.14720e-10      5619.00
       508.30000  1.14720e-10      5622.44
       508.40000  1.14720e-10      5625.88
       508.50000  1.90885e-10      9364.81
       508.60000  1.90885e-10      9368.63
       508.70000  1.90885e-10      9372.45
       508.80000  1.90981e-10      9379.08
       508.90000  1.90981e-10      9380.99
       509.00000  1.90981e-10      9380.99
       509.10000  1.90981e-10      9380.99
       509.20000  1.90981e-10      9380.99
       509.30000  1.90981e-10      9379.08
       509.40000  1.90981e-10      9377.17
       509.50000  7.51296e-11      3687.36
       509.60000  7.51296e-11      3692.62
       509.70000  7.51296e-11      3697.88
       509.80000  7.51296e-11      3703.89
       509.90000  7.51296e-11      3709.90
       510.00000  7.51296e-11      3716.66
       510.10000  7.51296e-11      3723.42
       510.20000  7.51296e-11      3730.18
       510.30000  7.51296e-11      3738.45
       510.40000  7.51296e-11      3745.96
       510.50000  1.96408e-10      9814.49
       510.60000  1.96408e-10      9883.24
       510.70000  1.96408e-10      9942.16
       510.80000  1.96408e-10      9993.22
       510.90000  1.96408e-10      10032.5
       511.00000  1.96408e-10      10065.9
       511.10000  1.96408e-10      10087.5
       511.20000  1.96408e-10      10101.2
       511.30000  1.96468e-10      10108.3
       511.40000  1.96468e-10      10104.3
       511.50000  1.32746e-10      6817.82
       511.60000  1.32746e-10      6801.89
       511.70000  1.32746e-10      6780.65
       511.80000  1.32746e-10      6752.78
       511.90000  1.32746e-10      6718.26
       512.00000  1.32746e-10      6678.44
       512.10000  1.32746e-10      6631.98
       512.20000  1.32746e-10      6580.21
       512.30000  1.32746e-10      6521.80
       512.40000  1.32746e-10      6456.75
       512.50000  1.12198e-11      539.783
       512.60000  1.12198e-11      539.447
       512.70000  1.12198e-11      539.222
       512.80000  1.12198e-11      538.998
       512.90000  1.12198e-11      538.886
       513.00000  1.12198e-11      538.774
       513.10000  1.12198e-11      538.661
       513.20000  1.12198e-11      538.661
       513.30000  1.12198e-11      538.774
       513.40000  1.12198e-11      538.886
       513.50000  2.62339e-10      12605.4
       513.60000  2.62339e-10      12613.2
       513.70000  2.62339e-10      12621.1
       513.80000  2.62078e-10      12616.4
       513.90000  2.62078e-10      12626.9
       514.00000  2.62078e-10      12637.4
       514.10000  2.62078e-10      12650.5
       514.20000  2.62078e-10      12661.0
       514.30000  2.62078e-10      12674.1
       514.40000  2.62078e-10      12689.8
       514.50000  1.50213e-10      7282.34
       514.60000  1.50213e-10      7291.35
       514.70000  1.50213e-10      7300.37
       514.80000  1.50213e-10      7310.88
       514.90000  1.50213e-10      7321.40
       515.00000  1.50213e-10      7333.41
       515.10000  1.50213e-10      7345.43
       515.20000  1.50213e-10      7357.45
       515.30000  1.50213e-10      7370.97
       515.40000  1.50213e-10      7382.98
       515.50000  1.87424e-10      9230.61
       515.60000  1.87424e-10      9056.30
       515.70000  1.87424e-10      8896.99
       515.80000  1.87424e-10      8750.80
       515.90000  1.87424e-10      8619.61
       516.00000  1.87424e-10      8501.53
       516.10000  1.87424e-10      8398.45
       516.20000  1.87424e-10      8308.48
       516.30000  1.87403e-10      8232.63
       516.40000  1.87403e-10      8170.79
       516.50000  3.45262e-10      14963.6
       516.60000  3.45262e-10      15070.7
       516.70000  3.45262e-10      15163.9
       516.80000  3.45262e-10      15246.8
       516.90000  3.45262e-10      15319.3
       517.00000  3.45262e-10      15381.4
       517.10000  3.45262e-10      15429.8
       517.20000  3.45262e-10      15464.3
       517.30000  3.45262e-10      15488.4
       517.40000  3.45262e-10      15502.3
       517.50000  3.86076e-10      17338.7
       517.60000  3.86076e-10      17327.1
       517.70000  3.86076e-10      17303.9
       517.80000  3.86076e-10      17265.3
       517.90000  3.86076e-10      17219.0
       518.00000  3.86076e-10      17153.4
       518.10000  3.86076e-10      17080.0
       518.20000  3.86076e-10      16991.2
       518.30000  3.86076e-10      16890.8
       518.40000  3.86076e-10      16775.0
       518.50000  1.84043e-10      7935.95
       518.60000  1.84043e-10      8057.42
       518.70000  1.84043e-10      8171.52
       518.80000  1.83479e-10      8252.87
       518.90000  1.83479e-10      8350.11
       519.00000  1.83479e-10      8438.18
       519.10000  1.83479e-10      8518.91
       519.20000  1.83479e-10      8592.30
       519.30000  1.83479e-10      8656.52
       519.40000  1.83479e-10      8711.56
       519.50000  2.37653e-15     0.113479
       519.60000  2.37653e-15     0.113313
       519.70000  2.37653e-15     0.113194
       519.80000  2.37653e-15     0.113123
       519.90000  2.37653e-15     0.113099
       520.00000  2.37653e-15     0.113123
       520.10000  2.37653e-15     0.113170
       520.20000  2.37653e-15     0.113289
       520.30000  2.37653e-15     0.113432
       520.40000  2.37653e-15     0.113646
       520.50000  4.39786e-10      21074.5
       520.60000  4.39786e-10      21127.3
       520.70000  4.39786e-10      21188.9
       520.80000  4.39786e-10      21259.2
       520.90000  4.39786e-10      21334.0
       521.00000  4.39786e-10      21422.0
       521.10000  4.39786e-10      21518.7
       521.20000  4.39786e-10      21619.9
       521.30000  4.39447e-10      21713.1
       521.40000  4.39447e-10      21836.1
       521.50000  4.70300e-10      23505.6
       521.60000  4.70300e-10      23322.2
       521.70000  4.70300e-10      23157.6
       521.80000  4.70300e-10      23011.8
       521.90000  4.70300e-10      22884.8
       522.00000  4.70300e-10      22776.6
       522.10000  4.70300e-10      22687.3
       522.20000  4.70300e-10      22616.7
       522.30000  4.70300e-10      22569.7
       522.40000  4.70300e-10      22536.8
       522.50000  1.41422e-10      6772.68
       522.60000  1.41422e-10      6802.38
       522.70000  1.41422e-10      6830.66
       522.80000  1.41422e-10      6858.95
       522.90000  1.41422e-10      6887.23
       523.00000  1.41422e-10      6914.10
       523.10000  1.41422e-10      6942.39
       523.20000  1.41422e-10      6969.26
       523.30000  1.41422e-10      6996.13
       523.40000  1.41422e-10      7023.00
       523.50000  7.03066e-10      35047.8
       523.60000  7.03066e-10      35181.4
       523.70000  7.03066e-10      35308.0
       523.80000  7.02326e-10      35404.2
       523.90000  7.02326e-10      35530.7
       524.00000  7.02326e-10      35657.1
       524.10000  7.02326e-10      35776.5
       524.20000  7.02326e-10      35902.9
       524.30000  7.02326e-10      36022.3
       524.40000  7.02326e-10      36141.7
       524.50000  6.04546e-11      3121.27
       524.60000  6.04546e-11      3133.96
       524.70000  6.04546e-11      3143.03
       524.80000  6.04546e-11      3148.47
       524.90000  6.04546e-11      3149.68
       525.00000  6.04546e-11      3147.87
       525.10000  6.04546e-11      3142.43
       525.20000  6.04546e-11      3132.76
       525.30000  6.04546e-11      3120.06
       525.40000  6.04546e-11      3103.13
       525.50000  4.89507e-11      2495.99
       525.60000  4.89507e-11      2439.70
       525.70000  4.89507e-11      2388.30
       525.80000  4.89507e-11      2342.29
       525.90000  4.89507e-11      2301.66
       526.00000  4.89507e-11      2266.42
       526.10000  4.89507e-11      2236.07
       526.20000  4.89507e-11      2211.59
       526.30000  4.89726e-11      2192.99
       526.40000  4.89726e-11      2178.79
       526.50000  4.07182e-10      18042.2
       526.60000  4.07182e-10      18013.7
       526.70000  4.07182e-10      18030.0
       526.80000  4.07182e-10      18091.1
       526.90000  4.07182e-10      18192.9
       527.00000  4.07182e-10      18339.5
       527.10000  4.07182e-10      18530.8
       527.20000  4.07182e-10      18767.0
       527.30000  4.07182e-10      19048.0
       527.40000  4.07182e-10      19373.7
       527.50000  1.25288e-11      607.398
       527.60000  1.25288e-11      610.530
       527.70000  1.25288e-11      613.537
       527.80000  1.25288e-11      616.294
       527.90000  1.25288e-11      619.050
       528.00000  1.25288e-11      621.430
       528.10000  1.25288e-11      623.811
       528.20000  1.25288e-11      625.941
       528.30000  1.25288e-11      627.945
       528.40000  1.25288e-11      629.825
       528.50000  5.04800e-11      2544.70
       528.60000  5.04800e-11      2547.22
       528.70000  5.04800e-11      2549.74
       528.80000  5.05597e-11      2556.81
       528.90000  5.05597e-11      2559.84
       529.00000  5.05597e-11      2562.87
       529.10000  5.05597e-11      2566.41
       529.20000  5.05597e-11      2569.95
       529.30000  5.05597e-11      2573.49
       529.40000  5.05597e-11      2577.53
       529.50000  4.32576e-10      22087.3
       529.60000  4.32576e-10      22143.6
       529.70000  4.32576e-10      22195.5
       529.80000  4.32576e-10      22247.4
       529.90000  4.32576e-10      22295.0
       530.00000  4.32576e-10      22338.2
       530.10000  4.32576e-10      22381.5
       530.20000  4.32576e-10      22420.4
       530.30000  4.32576e-10      22455.0
       530.40000  4.32576e-10      22489.6
       530.50000  2.82623e-10      14716.2
       530.60000  2.82623e-10      14795.3
       530.70000  2.82623e-10      14860.3
       530.80000  2.82623e-10      14911.2
       530.90000  2.82623e-10      14945.1
       531.00000  2.82623e-10      14962.1
       531.10000  2.82623e-10      14967.7
       531.20000  2.82623e-10      14953.6
       531.30000  2.82693e-10      14931.8
       531.40000  2.82693e-10      14886.6
       531.50000  6.49156e-11      3405.47
       531.60000  6.49156e-11      3388.59
       531.70000  6.49156e-11      3367.82
       531.80000  6.49156e-11      3343.80
       531.90000  6.49156e-11      3316.54
       532.00000  6.49156e-11      3285.38
       532.10000  6.49156e-11      3250.32
       532.20000  6.49156e-11      3212.02
       532.30000  6.49156e-11      3170.48
       532.40000  6.49156e-11      3125.03
       532.50000  1.30441e-10      6181.61
       532.60000  1.30441e-10      6270.31
       532.70000  1.30441e-10      6352.48
       532.80000  1.30441e-10      6425.53
       532.90000  1.30441e-10      6492.06
       533.00000  1.30441e-10      6550.75
       533.10000  1.30441e-10      6601.63
       533.20000  1.30441e-10      6644.67
       533.30000  1.30441e-10      6679.89
       533.40000  1.30441e-10      6708.59
       533.50000  3.14385e-10      16216.0
       533.60000  3.14385e-10      16090.2
       533.70000  3.14385e-10      15980.2
       533.80000  3.14301e-10      15881.6
       533.90000  3.14301e-10      15806.2
       534.00000  3.14301e-10      15743.3
       534.10000  3.14301e-10      15702.5
       534.20000  3.14301e-10      15674.2
       534.30000  3.14301e-10      15664.7
       534.40000  3.14301e-10      15671.0
       534.50000  9.20878e-11      4597.94
       534.60000  9.20878e-11      4609.91
       534.70000  9.20878e-11      4626.49
       534.80000  9.20878e-11      4647.67
       534.90000  9.20878e-11      4674.38
       535.00000  9.20878e-11      4704.76
       535.10000  9.20878e-11      4741.60
       535.20000  9.20878e-11      4782.12
       535.30000  9.20878e-11      4828.16
       535.40000  9.20878e-11      4878.81
       535.50000  5.00757e-11      2683.06
       535.60000  5.00757e-11      2659.52
       535.70000  5.00757e-11      2637.99
       535.80000  5.00757e-11      2617.96
       535.90000  5.00757e-11      2599.93
       536.00000  5.00757e-11      2583.41
       536.10000  5.00757e-11      2568.38
       536.20000  5.00757e-11      2555.86
       536.30000  5.00900e-11      2545.07
       536.40000  5.00900e-11      2535.56
       536.50000  2.33766e-10      11798.2
       536.60000  2.33766e-10      11805.2
       536.70000  2.33766e-10      11809.9
       536.80000  2.33766e-10      11819.2
       536.90000  2.33766e-10      11826.2
       537.00000  2.33766e-10      11835.6
       537.10000  2.33766e-10      11844.9
       537.20000  2.33766e-10      11854.3
       537.30000  2.33766e-10      11866.0
       537.40000  2.33766e-10      11877.7
       537.50000  1.60408e-10      8158.34
       537.60000  1.60408e-10      8167.96
       537.70000  1.60408e-10      8177.59
       537.80000  1.60408e-10      8187.21
       537.90000  1.60408e-10      8196.84
       538.00000  1.60408e-10      8208.07
       538.10000  1.60408e-10      8219.29
       538.20000  1.60408e-10      8230.52
       538.30000  1.60408e-10      8243.35
       538.40000  1.60408e-10      8256.19
       538.50000  4.85420e-10      25023.4
       538.60000  4.85420e-10      24926.3
       538.70000  4.85420e-10      24834.1
       538.80000  4.85085e-10      24724.8
       538.90000  4.85085e-10      24632.6
       539.00000  4.85085e-10      24540.4
       539.10000  4.85085e-10      24453.1
       539.20000  4.85085e-10      24365.8
       539.30000  4.85085e-10      24278.5
       539.40000  4.85085e-10      24191.2
       539.50000  1.24588e-09      61907.9
       539.60000  1.24588e-09      61446.9
       539.70000  1.24588e-09      61035.8
       539.80000  1.24588e-09      60686.9
       539.90000  1.24588e-09      60400.4
       540.00000  1.24588e-09      60163.6
       540.10000  1.24588e-09      59989.2
       540.20000  1.24588e-09      59877.1
       540.30000  1.24588e-09      59827.3
       540.40000  1.24588e-09      59827.3
       540.50000  1.30344e-09      62656.1
       540.60000  1.30344e-09      63333.9
       540.70000  1.30344e-09      63959.6
       540.80000  1.30344e-09      64520.0
       540.90000  1.30344e-09      65015.4
       541.00000  1.30344e-09      65445.5
       541.10000  1.30344e-09      65836.5
       541.20000  1.30344e-09      66149.3
       541.30000  1.30340e-09      66408.5
       541.40000  1.30340e-09      66604.0
       541.50000  1.03153e-09      52824.7
       541.60000  1.03153e-09      52535.8
       541.70000  1.03153e-09      52288.3
       541.80000  1.03153e-09      52061.3
       541.90000  1.03153e-09      51865.4
       542.00000  1.03153e-09      51700.3
       542.10000  1.03153e-09      51566.2
       542.20000  1.03153e-09      51463.1
       542.30000  1.03153e-09      51401.2
       542.40000  1.03153e-09      51359.9
       542.50000  8.77495e-10      43681.7
       542.60000  8.77495e-10      43699.2
       542.70000  8.77495e-10      43743.1
       542.80000  8.77495e-10      43813.3
       542.90000  8.77495e-10      43918.6
       543.00000  8.77495e-10      44041.5
       543.10000  8.77495e-10      44190.6
       543.20000  8.77495e-10      44366.1
       543.30000  8.77495e-10      44568.0
       543.40000  8.77495e-10      44804.9
       543.50000  1.28548e-09      66009.3
       543.60000  1.28548e-09      65983.6
       543.70000  1.28548e-09      65970.8
       543.80000  1.28582e-09      65975.5
       543.90000  1.28582e-09      65975.5
       544.00000  1.28582e-09      65988.3
       544.10000  1.28582e-09      66001.2
       544.20000  1.28582e-09      66026.9
       544.30000  1.28582e-09      66052.6
       544.40000  1.28582e-09      66091.2
       544.50000  6.46135e-10      33237.2
       544.60000  6.46135e-10      33321.2
       544.70000  6.46135e-10      33392.2
       544.80000  6.46135e-10      33456.9
       544.90000  6.46135e-10      33515.0
       545.00000  6.46135e-10      33560.2
       545.10000  6.46135e-10      33599.0
       545.20000  6.46135e-10      33637.8
       545.30000  6.46135e-10      33663.6
       545.40000  6.46135e-10      33676.5
       545.50000  2.36857e-15     0.123497
       545.60000  2.36857e-15     0.123497
       545.70000  2.36857e-15     0.123474
       545.80000  2.36857e-15     0.123426
       545.90000  2.36857e-15     0.123355
       546.00000  2.36857e-15     0.123261
       546.10000  2.36857e-15     0.123118
       546.20000  2.36857e-15     0.122953
       546.30000  2.36572e-15     0.122615
       546.40000  2.36572e-15     0.122402
       546.50000  2.36116e-10      12190.7
       546.60000  2.36116e-10      12141.1
       546.70000  2.36116e-10      12096.2
       546.80000  2.36116e-10      12056.1
       546.90000  2.36116e-10      12020.7
       547.00000  2.36116e-10      11990.0
       547.10000  2.36116e-10      11966.4
       547.20000  2.36116e-10      11945.1
       547.30000  2.36116e-10      11931.0
       547.40000  2.36116e-10      11919.1
       547.50000  3.20091e-10      16151.8
       547.60000  3.20091e-10      16180.6
       547.70000  3.20091e-10      16209.4
       547.80000  3.20091e-10      16238.2
       547.90000  3.20091e-10      16267.0
       548.00000  3.20091e-10      16295.8
       548.10000  3.20091e-10      16324.6
       548.20000  3.20091e-10      16356.6
       548.30000  3.20091e-10      16385.5
       548.40000  3.20091e-10      16414.3
       548.50000  2.96157e-10      15216.6
       548.60000  2.96157e-10      15243.2
       548.70000  2.96157e-10      15272.8
       548.80000  2.95652e-10      15276.3
       548.90000  2.95652e-10      15302.9
       549.00000  2.95652e-10      15332.5
       549.10000  2.95652e-10      15362.1
       549.20000  2.95652e-10      15391.6
       549.30000  2.95652e-10      15421.2
       549.40000  2.95652e-10      15450.8
       549.50000  3.65282e-10      19126.1
       549.60000  3.65282e-10      19075.0
       549.70000  3.65282e-10      19031.2
       549.80000  3.65282e-10      18991.0
       549.90000  3.65282e-10      18954.5
       550.00000  3.65282e-10      18921.6
       550.10000  3.65282e-10      18896.0
       550.20000  3.65282e-10      18870.4
       550.30000  3.65282e-10      18852.2
       550.40000  3.65282e-10      18837.6
       550.50000  4.60751e-10      23747.1
       550.60000  4.60751e-10      23779.4
       550.70000  4.60751e-10      23811.6
       550.80000  4.60751e-10      23839.3
       550.90000  4.60751e-10      23862.3
       551.00000  4.60751e-10      23880.7
       551.10000  4.60751e-10      23894.6
       551.20000  4.60751e-10      23903.8
       551.30000  4.60475e-10      23894.1
       551.40000  4.60475e-10      23894.1
       551.50000  2.59429e-10      13459.2
       551.60000  2.59429e-10      13422.8
       551.70000  2.59429e-10      13394.3
       551.80000  2.59429e-10      13365.8
       551.90000  2.59429e-10      13345.0
       552.00000  2.59429e-10      13326.9
       552.10000  2.59429e-10      13313.9
       552.20000  2.59429e-10      13303.5
       552.30000  2.59429e-10      13298.3
       552.40000  2.59429e-10      13298.3
       552.50000  5.28498e-10      27101.4
       552.60000  5.28498e-10      27170.1
       552.70000  5.28498e-10      27238.8
       552.80000  5.28498e-10      27307.5
       552.90000  5.28498e-10      27365.6
       553.00000  5.28498e-10      27429.0
       553.10000  5.28498e-10      27481.9
       553.20000  5.28498e-10      27534.7
       553.30000  5.28498e-10      27587.6
       553.40000  5.28498e-10      27635.1
       553.50000  5.76023e-10      30166.3
       553.60000  5.76023e-10      30212.4
       553.70000  5.76023e-10      30258.5
       553.80000  5.75943e-10      30294.6
       553.90000  5.75943e-10      30329.1
       554.00000  5.75943e-10      30357.9
       554.10000  5.75943e-10      30392.5
       554.20000  5.75943e-10      30415.5
       554.30000  5.75943e-10      30438.6
       554.40000  5.75943e-10      30461.6
       554.50000  1.17379e-11      621.168
       554.60000  1.17379e-11      622.342
       554.70000  1.17379e-11      623.281
       554.80000  1.17379e-11      623.985
       554.90000  1.17379e-11      624.337
       555.00000  1.17379e-11      624.572
       555.10000  1.17379e-11      624.572
       555.20000  1.17379e-11      624.220
       555.30000  1.17379e-11      623.751
       555.40000  1.17379e-11      622.929
       555.50000  7.67733e-10      40674.5
       555.60000  7.67733e-10      40421.1
       555.70000  7.67733e-10      40190.8
       555.80000  7.67733e-10      39983.5
       555.90000  7.67733e-10      39791.6
       556.00000  7.67733e-10      39622.7
       556.10000  7.67733e-10      39484.5
       556.20000  7.67733e-10      39354.0
       556.30000  7.68161e-10      39276.1
       556.40000  7.68161e-10      39199.3
       556.50000  5.98079e-10      30472.1
       556.60000  5.98079e-10      30442.2
       556.70000  5.98079e-10      30430.2
       556.80000  5.98079e-10      30436.2
       556.90000  5.98079e-10      30460.1
       557.00000  5.98079e-10      30502.0
       557.10000  5.98079e-10      30555.8
       557.20000  5.98079e-10      30627.6
       557.30000  5.98079e-10      30717.3
       557.40000  5.98079e-10      30825.0
       557.50000  4.12446e-10      21340.0
       557.60000  4.12446e-10      21236.9
       557.70000  4.12446e-10      21137.9
       557.80000  4.12446e-10      21051.3
       557.90000  4.12446e-10      20972.9
       558.00000  4.12446e-10      20902.8
       558.10000  4.12446e-10      20845.0
       558.20000  4.12446e-10      20791.4
       558.30000  4.12446e-10      20750.2
       558.40000  4.12446e-10      20721.3
       558.50000  1.02165e-09      51266.3
       558.60000  1.02165e-09      51317.4
       558.70000  1.02165e-09      51368.5
       558.80000  1.02076e-09      51385.0
       558.90000  1.02076e-09      51446.2
       559.00000  1.02076e-09      51517.7
       559.10000  1.02076e-09      51589.2
       559.20000  1.02076e-09      51670.8
       559.30000  1.02076e-09      51742.3
       559.40000  1.02076e-09      51834.1
       559.50000  1.04144e-09      52967.9
       559.60000  1.04144e-09      53061.6
       559.70000  1.04144e-09      53155.3
       559.80000  1.04144e-09      53259.5
       559.90000  1.04144e-09      53363.6
       560.00000  1.04144e-09      53478.2
       560.10000  1.04144e-09      53592.7
       560.20000  1.04144e-09      53707.3
       560.30000  1.04144e-09      53832.3
       560.40000  1.04144e-09      53957.3
       560.50000  8.25910e-10      42897.8
       560.60000  8.25910e-10      42815.2
       560.70000  8.25910e-10      42740.9
       560.80000  8.25910e-10      42674.8
       560.90000  8.25910e-10      42625.2
       561.00000  8.25910e-10      42583.9
       561.10000  8.25910e-10      42550.9
       561.20000  8.25910e-10      42526.1
       561.30000  8.26392e-10      42542.7
       561.40000  8.26392e-10      42542.7
       561.50000  1.71126e-09      88129.8
       561.60000  1.71126e-09      88300.9
       561.70000  1.71126e-09      88454.9
       561.80000  1.71126e-09      88626.0
       561.90000  1.71126e-09      88780.1
       562.00000  1.71126e-09      88917.0
       562.10000  1.71126e-09      89053.9
       562.20000  1.71126e-09      89190.8
       562.30000  1.71126e-09      89310.5
       562.40000  1.71126e-09      89430.3
       562.50000  1.48720e-09      77810.5
       562.60000  1.48720e-09      77899.8
       562.70000  1.48720e-09      77989.0
       562.80000  1.48720e-09      78063.4
       562.90000  1.48720e-09      78122.8
       563.00000  1.48720e-09      78197.2
       563.10000  1.48720e-09      78256.7
       563.20000  1.48720e-09      78301.3
       563.30000  1.48720e-09      78345.9
       563.40000  1.48720e-09      78375.7
       563.50000  1.63077e-09      85990.4
       563.60000  1.63077e-09      86072.0
       563.70000  1.63077e-09      86137.2
       563.80000  1.62948e-09      86101.9
       563.90000  1.62948e-09      86118.2
       564.00000  1.62948e-09      86118.2
       564.10000  1.62948e-09      86085.6
       564.20000  1.62948e-09      86036.8
       564.30000  1.62948e-09      85955.3
       564.40000  1.62948e-09      85857.5
       564.50000  2.14285e-09      112757.
       564.60000  2.14285e-09      112199.
       564.70000  2.14285e-09      111685.
       564.80000  2.14285e-09      111235.
       564.90000  2.14285e-09      110828.
       565.00000  2.14285e-09      110485.
       565.10000  2.14285e-09      110185.
       565.20000  2.14285e-09      109949.
       565.30000  2.14285e-09      109757.
       565.40000  2.14285e-09      109628.
       565.50000  2.77102e-09      141654.
       565.60000  2.77102e-09      141627.
       565.70000  2.77102e-09      141654.
       565.80000  2.77102e-09      141737.
       565.90000  2.77102e-09      141904.
       566.00000  2.77102e-09      142153.
       566.10000  2.77102e-09      142458.
       566.20000  2.77102e-09      142818.
       566.30000  2.76770e-09      143090.
       566.40000  2.76770e-09      143616.
       566.50000  2.54045e-09      132357.
       566.60000  2.54045e-09      133221.
       566.70000  2.54045e-09      134009.
       566.80000  2.54045e-09      134695.
       566.90000  2.54045e-09      135304.
       567.00000  2.54045e-09      135787.
       567.10000  2.54045e-09      136194.
       567.20000  2.54045e-09      136473.
       567.30000  2.54045e-09      136676.
       567.40000  2.54045e-09      136778.
       567.50000  3.63708e-09      195820.
       567.60000  3.63708e-09      194475.
       567.70000  3.63708e-09      193238.
       567.80000  3.63708e-09      192147.
       567.90000  3.63708e-09      191165.
       568.00000  3.63708e-09      190365.
       568.10000  3.63708e-09      189637.
       568.20000  3.63708e-09      189092.
       568.30000  3.63708e-09      188655.
       568.40000  3.63708e-09      188328.
       568.50000  3.93540e-09      203617.
       568.60000  3.93540e-09      203539.
       568.70000  3.93540e-09      203657.
       568.80000  3.93197e-09      203716.
       568.90000  3.93197e-09      204109.
       569.00000  3.93197e-09      204620.
       569.10000  3.93197e-09      205288.
       569.20000  3.93197e-09      206114.
       569.30000  3.93197e-09      207058.
       569.40000  3.93197e-09      208159.
       569.50000  4.36949e-09      232719.
       569.60000  4.36949e-09      230796.
       569.70000  4.36949e-09      229049.
       569.80000  4.36949e-09      227519.
       569.90000  4.36949e-09      226121.
       570.00000  4.36949e-09      224941.
       570.10000  4.36949e-09      223936.
       570.20000  4.36949e-09      223106.
       570.30000  4.36949e-09      222451.
       570.40000  4.36949e-09      222014.
       570.50000  5.27596e-09      267702.
       570.60000  5.27596e-09      268494.
       570.70000  5.27596e-09      269285.
       570.80000  5.27596e-09      270077.
       570.90000  5.27596e-09      270921.
       571.00000  5.27596e-09      271765.
       571.10000  5.27596e-09      272609.
       571.20000  5.27596e-09      273506.
       571.30000  5.27638e-09      274477.
       571.40000  5.27638e-09      275427.
       571.50000  5.55676e-09      291063.
       571.60000  5.55676e-09      292119.
       571.70000  5.55676e-09      293174.
       571.80000  5.55676e-09      294286.
       571.90000  5.55676e-09      295397.
       572.00000  5.55676e-09      296564.
       572.10000  5.55676e-09      297731.
       572.20000  5.55676e-09      298898.
       572.30000  5.55676e-09      300120.
       572.40000  5.55676e-09      301343.
       572.50000  5.51689e-09      300450.
       572.60000  5.51689e-09      300229.
       572.70000  5.51689e-09      299953.
       572.80000  5.51689e-09      299733.
       572.90000  5.51689e-09      299512.
       573.00000  5.51689e-09      299291.
       573.10000  5.51689e-09      299126.
       573.20000  5.51689e-09      298905.
       573.30000  5.51689e-09      298740.
       573.40000  5.51689e-09      298574.
       573.50000  1.10454e-08      597444.
       573.60000  1.10454e-08      597665.
       573.70000  1.10454e-08      597886.
       573.80000  1.10577e-08      598553.
       573.90000  1.10577e-08      598553.
       574.00000  1.10577e-08      598332.
       574.10000  1.10577e-08      598111.
       574.20000  1.10577e-08      597779.
       574.30000  1.10577e-08      597447.
       574.40000  1.10577e-08      596894.
       574.50000  1.10340e-08      595064.
       574.60000  1.10340e-08      593188.
       574.70000  1.10340e-08      591533.
       574.80000  1.10340e-08      589988.
       574.90000  1.10340e-08      588664.
       575.00000  1.10340e-08      587561.
       575.10000  1.10340e-08      586568.
       575.20000  1.10340e-08      585685.
       575.30000  1.10340e-08      585023.
       575.40000  1.10340e-08      584582.
       575.50000  1.66540e-08      881829.
       575.60000  1.66540e-08      882828.
       575.70000  1.66540e-08      883827.
       575.80000  1.66540e-08      884827.
       575.90000  1.66540e-08      885826.
       576.00000  1.66540e-08      886825.
       576.10000  1.66540e-08      887658.
       576.20000  1.66540e-08      888657.
       576.30000  1.66491e-08      889229.
       576.40000  1.66491e-08      890061.
       576.50000  2.20812e-08  1.18156e+06
       576.60000  2.20812e-08  1.18267e+06
       576.70000  2.20812e-08  1.18355e+06
       576.80000  2.20812e-08  1.18466e+06
       576.90000  2.20812e-08  1.18554e+06
       577.00000  2.20812e-08  1.18642e+06
       577.10000  2.20812e-08  1.18730e+06
       577.20000  2.20812e-08  1.18819e+06
       577.30000  2.20812e-08  1.18907e+06
       577.40000  2.20812e-08  1.18995e+06
       577.50000  2.21388e-08  1.19372e+06
       577.60000  2.21388e-08  1.18575e+06
       577.70000  2.21388e-08  1.17845e+06
       577.80000  2.21388e-08  1.17203e+06
       577.90000  2.21388e-08  1.16627e+06
       578.00000  2.21388e-08  1.16140e+06
       578.10000  2.21388e-08  1.15719e+06
       578.20000  2.21388e-08  1.15387e+06
       578.30000  2.21388e-08  1.15122e+06
       578.40000  2.21388e-08  1.14922e+06
       578.50000  3.31378e-08  1.71852e+06
       578.60000  3.31378e-08  1.72482e+06
       578.70000  3.31378e-08  1.73045e+06
       578.80000  3.30958e-08  1.73389e+06
       578.90000  3.30958e-08  1.73885e+06
       579.00000  3.30958e-08  1.74382e+06
       579.10000  3.30958e-08  1.74812e+06
       579.20000  3.30958e-08  1.75242e+06
       579.30000  3.30958e-08  1.75606e+06
       579.40000  3.30958e-08  1.75971e+06
       579.50000  4.94549e-08  2.63397e+06
       579.60000  4.94549e-08  2.63842e+06
       579.70000  4.94549e-08  2.64188e+06
       579.80000  4.94549e-08  2.64485e+06
       579.90000  4.94549e-08  2.64782e+06
       580.00000  4.94549e-08  2.64980e+06
       580.10000  4.94549e-08  2.65128e+06
       580.20000  4.94549e-08  2.65276e+06
       580.30000  4.94549e-08  2.65326e+06
       580.40000  4.94549e-08  2.65326e+06
       580.50000  5.50332e-08  2.95253e+06
       580.60000  5.50332e-08  2.95473e+06
       580.70000  5.50332e-08  2.95749e+06
       580.80000  5.50332e-08  2.96024e+06
       580.90000  5.50332e-08  2.96299e+06
       581.00000  5.50332e-08  2.96574e+06
       581.10000  5.50332e-08  2.96904e+06
       581.20000  5.50332e-08  2.97179e+06
       581.30000  5.49663e-08  2.97148e+06
       581.40000  5.49663e-08  2.97478e+06
       581.50000  8.28481e-08  4.48871e+06
       581.60000  8.28481e-08  4.49782e+06
       581.70000  8.28481e-08  4.50694e+06
       581.80000  8.28481e-08  4.51439e+06
       581.90000  8.28481e-08  4.52102e+06
       582.00000  8.28481e-08  4.52765e+06
       582.10000  8.28481e-08  4.53262e+06
       582.20000  8.28481e-08  4.53676e+06
       582.30000  8.28481e-08  4.54008e+06
       582.40000  8.28481e-08  4.54256e+06
       582.50000  1.10576e-07  6.06507e+06
       582.60000  1.10576e-07  6.06618e+06
       582.70000  1.10576e-07  6.06618e+06
       582.80000  1.10576e-07  6.06507e+06
       582.90000  1.10576e-07  6.06286e+06
       583.00000  1.10576e-07  6.05954e+06
       583.10000  1.10576e-07  6.05512e+06
       583.20000  1.10576e-07  6.04849e+06
       583.30000  1.10576e-07  6.04185e+06
       583.40000  1.10576e-07  6.03301e+06
       583.50000  1.54632e-07  8.42433e+06
       583.60000  1.54632e-07  8.44289e+06
       583.70000  1.54632e-07  8.45835e+06
       583.80000  1.54298e-07  8.45244e+06
       583.90000  1.54298e-07  8.46170e+06
       584.00000  1.54298e-07  8.46632e+06
       584.10000  1.54298e-07  8.46632e+06
       584.20000  1.54298e-07  8.46324e+06
       584.30000  1.54298e-07  8.45707e+06
       584.40000  1.54298e-07  8.44781e+06
       584.50000  2.16055e-07  1.18095e+07
       584.60000  2.16055e-07  1.17274e+07
       584.70000  2.16055e-07  1.16540e+07
       584.80000  2.16055e-07  1.15870e+07
       584.90000  2.16055e-07  1.15287e+07
       585.00000  2.16055e-07  1.14768e+07
       585.10000  2.16055e-07  1.14336e+07
       585.20000  2.16055e-07  1.13990e+07
       585.30000  2.16055e-07  1.13710e+07
       585.40000  2.16055e-07  1.13515e+07
       585.50000  3.26828e-07  1.71552e+07
       585.60000  3.26828e-07  1.71486e+07
       585.70000  3.26828e-07  1.71552e+07
       585.80000  3.26828e-07  1.71748e+07
       585.90000  3.26828e-07  1.72042e+07
       586.00000  3.26828e-07  1.72467e+07
       586.10000  3.26828e-07  1.73023e+07
       586.20000  3.26828e-07  1.73676e+07
       586.30000  3.26484e-07  1.74277e+07
       586.40000  3.26484e-07  1.75159e+07
       586.50000  4.91881e-07  2.65419e+07
       586.60000  4.91881e-07  2.66501e+07
       586.70000  4.91881e-07  2.67386e+07
       586.80000  4.91881e-07  2.68124e+07
       586.90000  4.91881e-07  2.68714e+07
       587.00000  4.91881e-07  2.69059e+07
       587.10000  4.91881e-07  2.69305e+07
       587.20000  4.91881e-07  2.69354e+07
       587.30000  4.91881e-07  2.69256e+07
       587.40000  4.91881e-07  2.68960e+07
       587.50000  7.64953e-07  4.17588e+07
       587.60000  7.64953e-07  4.15829e+07
       587.70000  7.64953e-07  4.13993e+07
       587.80000  7.64953e-07  4.12080e+07
       587.90000  7.64953e-07  4.10091e+07
       588.00000  7.64953e-07  4.07950e+07
       588.10000  7.64953e-07  4.05808e+07
       588.20000  7.64953e-07  4.03513e+07
       588.30000  7.64953e-07  4.01142e+07
       588.40000  7.64953e-07  3.98694e+07
       588.50000  1.23029e-06  6.37043e+07
       588.60000  1.23029e-06  6.32737e+07
       588.70000  1.23029e-06  6.28431e+07
       588.80000  1.22805e-06  6.22744e+07
       588.90000  1.22805e-06  6.17955e+07
       589.00000  1.22805e-06  6.13166e+07
       589.10000  1.22805e-06  6.08131e+07
       589.20000  1.22805e-06  6.03096e+07
       589.30000  1.22805e-06  5.97692e+07
       589.40000  1.22805e-06  5.92289e+07
       589.50000  2.05157e-06  9.80239e+07
       589.60000  2.05157e-06  9.98908e+07
       589.70000  2.05157e-06  1.01614e+08
       589.80000  2.05157e-06  1.03194e+08
       589.90000  2.05157e-06  1.04650e+08
       590.00000  2.05157e-06  1.05943e+08
       590.10000  2.05157e-06  1.07133e+08
       590.20000  2.05157e-06  1.08159e+08
       590.30000  2.05157e-06  1.09061e+08
       590.40000  2.05157e-06  1.09820e+08
       590.50000  3.56365e-06  1.91831e+08
       590.60000  3.56365e-06  1.91368e+08
       590.70000  3.56365e-06  1.90940e+08
       590.80000  3.56365e-06  1.90584e+08
       590.90000  3.56365e-06  1.90263e+08
       591.00000  3.56365e-06  1.89978e+08
       591.10000  3.56365e-06  1.89764e+08
       591.20000  3.56365e-06  1.89586e+08
       591.30000  3.56323e-06  1.89457e+08
       591.40000  3.56323e-06  1.89386e+08
       591.50000  6.43481e-06  3.41946e+08
       591.60000  6.43481e-06  3.42010e+08
       591.70000  6.43481e-06  3.42203e+08
       591.80000  6.43481e-06  3.42396e+08
       591.90000  6.43481e-06  3.42718e+08
       592.00000  6.43481e-06  3.43168e+08
       592.10000  6.43481e-06  3.43683e+08
       592.20000  6.43481e-06  3.44262e+08
       592.30000  6.43481e-06  3.44970e+08
       592.40000  6.43481e-06  3.45742e+08
       592.50000  1.18430e-05  6.37862e+08
       592.60000  1.18430e-05  6.37743e+08
       592.70000  1.18430e-05  6.37506e+08
       592.80000  1.18430e-05  6.37388e+08
       592.90000  1.18430e-05  6.37033e+08
       593.00000  1.18430e-05  6.36796e+08
       593.10000  1.18430e-05  6.36441e+08
       593.20000  1.18430e-05  6.36085e+08
       593.30000  1.18430e-05  6.35612e+08
       593.40000  1.18430e-05  6.35256e+08
       593.50000  2.24298e-05  1.20201e+09
       593.60000  2.24298e-05  1.19977e+09
       593.70000  2.24298e-05  1.19775e+09
       593.80000  2.24241e-05  1.19543e+09
       593.90000  2.24241e-05  1.19386e+09
       594.00000  2.24241e-05  1.19251e+09
       594.10000  2.24241e-05  1.19117e+09
       594.20000  2.24241e-05  1.19005e+09
       594.30000  2.24241e-05  1.18937e+09
       594.40000  2.24241e-05  1.18870e+09
       594.50000  4.43017e-05  2.34799e+09
       594.60000  4.43017e-05  2.34754e+09
       594.70000  4.43017e-05  2.34754e+09
       594.80000  4.43017e-05  2.34799e+09
       594.90000  4.43017e-05  2.34887e+09
       595.00000  4.43017e-05  2.35065e+09
       595.10000  4.43017e-05  2.35242e+09
       595.20000  4.43017e-05  2.35463e+09
       595.30000  4.43017e-05  2.35729e+09
       595.40000  4.43017e-05  2.36039e+09
       595.50000  8.49221e-05  4.53059e+09
       595.60000  8.49221e-05  4.54333e+09
       595.70000  8.49221e-05  4.55437e+09
       595.80000  8.49221e-05  4.56371e+09
       595.90000  8.49221e-05  4.57220e+09
       596.00000  8.49221e-05  4.57900e+09
       596.10000  8.49221e-05  4.58579e+09
       596.20000  8.49221e-05  4.59004e+09
       596.30000  8.50454e-05  4.60010e+09
       596.40000  8.50454e-05  4.60266e+09
       596.50000  0.000149768  8.10696e+09
       596.60000  0.000149768  8.09798e+09
       596.70000  0.000149768  8.08749e+09
       596.80000  0.000149768  8.07701e+09
       596.90000  0.000149768  8.06653e+09
       597.00000  0.000149768  8.05754e+09
       597.10000  0.000149768  8.04706e+09
       597.20000  0.000149768  8.03807e+09
       597.30000  0.000149768  8.02759e+09
       597.40000  0.000149768  8.01860e+09
       597.50000  0.000240117  1.28390e+10
       597.60000  0.000240117  1.28126e+10
       597.70000  0.000240117  1.27886e+10
       597.80000  0.000240117  1.27670e+10
       597.90000  0.000240117  1.27478e+10
       598.00000  0.000240117  1.27310e+10
       598.10000  0.000240117  1.27190e+10
       598.20000  0.000240117  1.27094e+10
       598.30000  0.000240117  1.27022e+10
       598.40000  0.000240117  1.26974e+10
       598.50000  0.000338996  1.79227e+10
       598.60000  0.000338996  1.79634e+10
       598.70000  0.000338996  1.80007e+10
       598.80000  0.000339333  1.80491e+10
       598.90000  0.000339333  1.80763e+10
       599.00000  0.000339333  1.81000e+10
       599.10000  0.000339333  1.81170e+10
       599.20000  0.000339333  1.81306e+10
       599.30000  0.000339333  1.81407e+10
       599.40000  0.000339333  1.81441e+10
       599.50000  0.000422147  2.25722e+10
       599.60000  0.000422147  2.25680e+10
       599.70000  0.000422147  2.25553e+10
       599.80000  0.000422147  2.25384e+10
       599.90000  0.000422147  2.25131e+10
       600.00000  0.000422147  2.24836e+10
       600.10000  0.000422147  2.24498e+10
       600.20000  0.000422147  2.24118e+10
       600.30000  0.000422147  2.23654e+10
       600.40000  0.000422147  2.23105e+10
       600.50000  0.000475841  2.50863e+10
       600.60000  0.000475841  2.51196e+10
       600.70000  0.000475841  2.51482e+10
       600.80000  0.000475841  2.51767e+10
       600.90000  0.000475841  2.51958e+10
       601.00000  0.000475841  2.52100e+10
       601.10000  0.000475841  2.52148e+10
       601.20000  0.000475841  2.52195e+10
       601.30000  0.000475778  2.52162e+10
       601.40000  0.000475778  2.52067e+10
       601.50000  0.000502474  2.66110e+10
       601.60000  0.000502474  2.64955e+10
       601.70000  0.000502474  2.64000e+10
       601.80000  0.000502474  2.63146e+10
       601.90000  0.000502474  2.62493e+10
       602.00000  0.000502474  2.61990e+10
       602.10000  0.000502474  2.61588e+10
       602.20000  0.000502474  2.61387e+10
       602.30000  0.000502474  2.61337e+10
       602.40000  0.000502474  2.61437e+10
       602.50000  0.000516014  2.68689e+10
       602.60000  0.000516014  2.69102e+10
       602.70000  0.000516014  2.69669e+10
       602.80000  0.000516014  2.70392e+10
       602.90000  0.000516014  2.71269e+10
       603.00000  0.000516014  2.72301e+10
       603.10000  0.000516014  2.73488e+10
       603.20000  0.000516014  2.74829e+10
       603.30000  0.000516014  2.76326e+10
       603.40000  0.000516014  2.77977e+10
       603.50000  0.000529771  2.87242e+10
       603.60000  0.000529771  2.87136e+10
       603.70000  0.000529771  2.87030e+10
       603.80000  0.000529546  2.86802e+10
       603.90000  0.000529546  2.86643e+10
       604.00000  0.000529546  2.86537e+10
       604.10000  0.000529546  2.86378e+10
       604.20000  0.000529546  2.86272e+10
       604.30000  0.000529546  2.86114e+10
       604.40000  0.000529546  2.86008e+10
       604.50000  0.000531396  2.86847e+10
       604.60000  0.000531396  2.86635e+10
       604.70000  0.000531396  2.86422e+10
       604.80000  0.000531396  2.86210e+10
       604.90000  0.000531396  2.85997e+10
       605.00000  0.000531396  2.85838e+10
       605.10000  0.000531396  2.85678e+10
       605.20000  0.000531396  2.85572e+10
       605.30000  0.000531396  2.85413e+10
       605.40000  0.000531396  2.85306e+10
       605.50000  0.000500672  2.68711e+10
       605.60000  0.000500672  2.68661e+10
       605.70000  0.000500672  2.68560e+10
       605.80000  0.000500672  2.68510e+10
       605.90000  0.000500672  2.68510e+10
       606.00000  0.000500672  2.68460e+10
       606.10000  0.000500672  2.68460e+10
       606.20000  0.000500672  2.68460e+10
       606.30000  0.000500686  2.68468e+10
       606.40000  0.000500686  2.68518e+10
       606.50000  0.000414999  2.22606e+10
       606.60000  0.000414999  2.22689e+10
       606.70000  0.000414999  2.22730e+10
       606.80000  0.000414999  2.22813e+10
       606.90000  0.000414999  2.22813e+10
       607.00000  0.000414999  2.22855e+10
       607.10000  0.000414999  2.22855e+10
       607.20000  0.000414999  2.22855e+10
       607.30000  0.000414999  2.22813e+10
       607.40000  0.000414999  2.22772e+10
       607.50000  0.000287382  1.54238e+10
       607.60000  0.000287382  1.54066e+10
       607.70000  0.000287382  1.53922e+10
       607.80000  0.000287382  1.53807e+10
       607.90000  0.000287382  1.53692e+10
       608.00000  0.000287382  1.53577e+10
       608.10000  0.000287382  1.53491e+10
       608.20000  0.000287382  1.53405e+10
       608.30000  0.000287382  1.53347e+10
       608.40000  0.000287382  1.53290e+10
       608.50000  0.000160394  8.55380e+09
       608.60000  0.000160394  8.55220e+09
       608.70000  0.000160394  8.55060e+09
       608.80000  0.000160359  8.54875e+09
       608.90000  0.000160359  8.55036e+09
       609.00000  0.000160359  8.55196e+09
       609.10000  0.000160359  8.55357e+09
       609.20000  0.000160359  8.55677e+09
       609.30000  0.000160359  8.55998e+09
       609.40000  0.000160359  8.56479e+09
       609.50000  7.33808e-05  3.92220e+09
       609.60000  7.33808e-05  3.90459e+09
       609.70000  7.33808e-05  3.88918e+09
       609.80000  7.33808e-05  3.87597e+09
       609.90000  7.33808e-05  3.86497e+09
       610.00000  7.33808e-05  3.85543e+09
       610.10000  7.33808e-05  3.84735e+09
       610.20000  7.33808e-05  3.84148e+09
       610.30000  7.33808e-05  3.83782e+09
       610.40000  7.33808e-05  3.83635e+09
       610.50000  3.12276e-05  1.63226e+09
       610.60000  3.12276e-05  1.64038e+09
       610.70000  3.12276e-05  1.64757e+09
       610.80000  3.12276e-05  1.65412e+09
       610.90000  3.12276e-05  1.65974e+09
       611.00000  3.12276e-05  1.66443e+09
       611.10000  3.12276e-05  1.66849e+09
       611.20000  3.12276e-05  1.67161e+09
       611.30000  3.12277e-05  1.67411e+09
       611.40000  3.12277e-05  1.67568e+09
       611.50000  1.43592e-05  7.70799e+08
       611.60000  1.43592e-05  7.70799e+08
       611.70000  1.43592e-05  7.70369e+08
       611.80000  1.43592e-05  7.69651e+08
       611.90000  1.43592e-05  7.68502e+08
       612.00000  1.43592e-05  7.67066e+08
       612.10000  1.43592e-05  7.65199e+08
       612.20000  1.43592e-05  7.62902e+08
       612.30000  1.43592e-05  7.60317e+08
       612.40000  1.43592e-05  7.57302e+08
       612.50000  7.54107e-06  3.95982e+08
       612.60000  7.54107e-06  3.95001e+08
       612.70000  7.54107e-06  3.94096e+08
       612.80000  7.54107e-06  3.93342e+08
       612.90000  7.54107e-06  3.92739e+08
       613.00000  7.54107e-06  3.92211e+08
       613.10000  7.54107e-06  3.91834e+08
       613.20000  7.54107e-06  3.91532e+08
       613.30000  7.54107e-06  3.91382e+08
       613.40000  7.54107e-06  3.91382e+08
       613.50000  4.44274e-06  2.30623e+08
       613.60000  4.44274e-06  2.31289e+08
       613.70000  4.44274e-06  2.31867e+08
       613.80000  4.43789e-06  2.32146e+08
       613.90000  4.43789e-06  2.32679e+08
       614.00000  4.43789e-06  2.33167e+08
       614.10000  4.43789e-06  2.33566e+08
       614.20000  4.43789e-06  2.33966e+08
       614.30000  4.43789e-06  2.34321e+08
       614.40000  4.43789e-06  2.34631e+08
       614.50000  2.95288e-06  1.56296e+08
       614.60000  2.95288e-06  1.56443e+08
       614.70000  2.95288e-06  1.56562e+08
       614.80000  2.95288e-06  1.56650e+08
       614.90000  2.95288e-06  1.56709e+08
       615.00000  2.95288e-06  1.56739e+08
       615.10000  2.95288e-06  1.56768e+08
       615.20000  2.95288e-06  1.56739e+08
       615.30000  2.95288e-06  1.56709e+08
       615.40000  2.95288e-06  1.56650e+08
       615.50000  2.22917e-06  1.18168e+08
       615.60000  2.22917e-06  1.16853e+08
       615.70000  2.22917e-06  1.15649e+08
       615.80000  2.22917e-06  1.14602e+08
       615.90000  2.22917e-06  1.13710e+08
       616.00000  2.22917e-06  1.12930e+08
       616.10000  2.22917e-06  1.12306e+08
       616.20000  2.22917e-06  1.11815e+08
       616.30000  2.22949e-06  1.11474e+08
       616.40000  2.22949e-06  1.11274e+08
       616.50000  1.84699e-06  9.21092e+07
       616.60000  1.84699e-06  9.29034e+07
       616.70000  1.84699e-06  9.36422e+07
       616.80000  1.84699e-06  9.43256e+07
       616.90000  1.84699e-06  9.49720e+07
       617.00000  1.84699e-06  9.55815e+07
       617.10000  1.84699e-06  9.61356e+07
       617.20000  1.84699e-06  9.66343e+07
       617.30000  1.84699e-06  9.70961e+07
       617.40000  1.84699e-06  9.75209e+07
       617.50000  1.69638e-06  8.99080e+07
       617.60000  1.69638e-06  9.01964e+07
       617.70000  1.69638e-06  9.04508e+07
       617.80000  1.69638e-06  9.06714e+07
       617.90000  1.69638e-06  9.08240e+07
       618.00000  1.69638e-06  9.09598e+07
       618.10000  1.69638e-06  9.10446e+07
       618.20000  1.69638e-06  9.10785e+07
       618.30000  1.69638e-06  9.10785e+07
       618.40000  1.69638e-06  9.10276e+07
       618.50000  1.73070e-06  9.27829e+07
       618.60000  1.73070e-06  9.26099e+07
       618.70000  1.73070e-06  9.24368e+07
       618.80000  1.72896e-06  9.22228e+07
       618.90000  1.72896e-06  9.21018e+07
       619.00000  1.72896e-06  9.20153e+07
