PDS_VERSION_ID         = PDS3
RECORD_TYPE            = STREAM
OBJECT                 = TEXT
  PUBLICATION_DATE     = 2014-04-25
  INTERCHANGE_FORMAT   = ASCII
  NOTE                 = "System transmission vs. wavelength."
END_OBJECT             = TEXT
END
    
The systrans directory contains the non-wavelength-integrated system 
transmission values (QE*optics*filter1*filter2) for each filter combination. 
The naming convention for these files is as follows:

<camera><filter 1><filter 2>_systrans.tab

where <camera> is "issna" or "isswa," and <filter 1> and <filter 2> represent
the filter names. For polarized filter combinations, values are given for the
parallel orientation of the filter (full transmission), with values for the 
perpendicular (blocking) orientation provided in files with subscript 
"_b_systrans.tab". 

Columns in systrans files are as follows:

 1st column: Wavelength (nm)  
 2nd column: Transmitted Flux
 3rd column: Transmitted Flux * Solar Flux (phot per cm^2-s-angstrom at 1 AU)

The solar spectrum used for this calculation is provided in solarflux.tab.

\begindata
       600.00000  5.00876e-07  2.66767e+07
       600.10000  5.00876e-07  2.66366e+07
       600.20000  5.00876e-07  2.65915e+07
       600.30000  5.00876e-07  2.65364e+07
       600.40000  5.00876e-07  2.64713e+07
       600.50000  2.82303e-07  1.48830e+07
       600.60000  2.82303e-07  1.49028e+07
       600.70000  2.82303e-07  1.49197e+07
       600.80000  2.82303e-07  1.49366e+07
       600.90000  2.82303e-07  1.49479e+07
       601.00000  2.82303e-07  1.49564e+07
       601.10000  2.82303e-07  1.49592e+07
       601.20000  2.82303e-07  1.49621e+07
       601.30000  2.82266e-07  1.49601e+07
       601.40000  2.82266e-07  1.49544e+07
       601.50000  4.52304e-07  2.39540e+07
       601.60000  4.52304e-07  2.38500e+07
       601.70000  4.52304e-07  2.37641e+07
       601.80000  4.52304e-07  2.36872e+07
       601.90000  4.52304e-07  2.36284e+07
       602.00000  4.52304e-07  2.35831e+07
       602.10000  4.52304e-07  2.35470e+07
       602.20000  4.52304e-07  2.35289e+07
       602.30000  4.52304e-07  2.35243e+07
       602.40000  4.52304e-07  2.35334e+07
       602.50000  6.59534e-07  3.43419e+07
       602.60000  6.59534e-07  3.43947e+07
       602.70000  6.59534e-07  3.44672e+07
       602.80000  6.59534e-07  3.45596e+07
       602.90000  6.59534e-07  3.46717e+07
       603.00000  6.59534e-07  3.48036e+07
       603.10000  6.59534e-07  3.49553e+07
       603.20000  6.59534e-07  3.51268e+07
       603.30000  6.59534e-07  3.53180e+07
       603.40000  6.59534e-07  3.55291e+07
       603.50000  9.94586e-07  5.39264e+07
       603.60000  9.94586e-07  5.39065e+07
       603.70000  9.94586e-07  5.38867e+07
       603.80000  9.94163e-07  5.38439e+07
       603.90000  9.94163e-07  5.38141e+07
       604.00000  9.94163e-07  5.37942e+07
       604.10000  9.94163e-07  5.37644e+07
       604.20000  9.94163e-07  5.37445e+07
       604.30000  9.94163e-07  5.37146e+07
       604.40000  9.94163e-07  5.36948e+07
       604.50000  1.47387e-06  7.95596e+07
       604.60000  1.47387e-06  7.95006e+07
       604.70000  1.47387e-06  7.94417e+07
       604.80000  1.47387e-06  7.93827e+07
       604.90000  1.47387e-06  7.93238e+07
       605.00000  1.47387e-06  7.92796e+07
       605.10000  1.47387e-06  7.92353e+07
       605.20000  1.47387e-06  7.92059e+07
       605.30000  1.47387e-06  7.91617e+07
       605.40000  1.47387e-06  7.91322e+07
       605.50000  1.82154e-06  9.77619e+07
       605.60000  1.82154e-06  9.77437e+07
       605.70000  1.82154e-06  9.77072e+07
       605.80000  1.82154e-06  9.76890e+07
       605.90000  1.82154e-06  9.76890e+07
       606.00000  1.82154e-06  9.76708e+07
       606.10000  1.82154e-06  9.76708e+07
       606.20000  1.82154e-06  9.76708e+07
       606.30000  1.82159e-06  9.76735e+07
       606.40000  1.82159e-06  9.76917e+07
       606.50000  3.66307e-06  1.96487e+08
       606.60000  3.66307e-06  1.96560e+08
       606.70000  3.66307e-06  1.96597e+08
       606.80000  3.66307e-06  1.96670e+08
       606.90000  3.66307e-06  1.96670e+08
       607.00000  3.66307e-06  1.96707e+08
       607.10000  3.66307e-06  1.96707e+08
       607.20000  3.66307e-06  1.96707e+08
       607.30000  3.66307e-06  1.96670e+08
       607.40000  3.66307e-06  1.96634e+08
       607.50000  9.20506e-06  4.94035e+08
       607.60000  9.20506e-06  4.93483e+08
       607.70000  9.20506e-06  4.93023e+08
       607.80000  9.20506e-06  4.92655e+08
       607.90000  9.20506e-06  4.92286e+08
       608.00000  9.20506e-06  4.91918e+08
       608.10000  9.20506e-06  4.91642e+08
       608.20000  9.20506e-06  4.91366e+08
       608.30000  9.20506e-06  4.91182e+08
       608.40000  9.20506e-06  4.90998e+08
       608.50000  1.11072e-05  5.92346e+08
       608.60000  1.11072e-05  5.92235e+08
       608.70000  1.11072e-05  5.92124e+08
       608.80000  1.11048e-05  5.91996e+08
       608.90000  1.11048e-05  5.92107e+08
       609.00000  1.11048e-05  5.92218e+08
       609.10000  1.11048e-05  5.92329e+08
       609.20000  1.11048e-05  5.92551e+08
       609.30000  1.11048e-05  5.92773e+08
       609.40000  1.11048e-05  5.93106e+08
       609.50000  1.30266e-05  6.96271e+08
       609.60000  1.30266e-05  6.93145e+08
       609.70000  1.30266e-05  6.90409e+08
       609.80000  1.30266e-05  6.88065e+08
       609.90000  1.30266e-05  6.86111e+08
       610.00000  1.30266e-05  6.84417e+08
       610.10000  1.30266e-05  6.82984e+08
       610.20000  1.30266e-05  6.81942e+08
       610.30000  1.30266e-05  6.81291e+08
       610.40000  1.30266e-05  6.81030e+08
       610.50000  1.49526e-05  7.81572e+08
       610.60000  1.49526e-05  7.85460e+08
       610.70000  1.49526e-05  7.88899e+08
       610.80000  1.49526e-05  7.92039e+08
       610.90000  1.49526e-05  7.94731e+08
       611.00000  1.86908e-05  9.96217e+08
       611.10000  1.68217e-05  8.98782e+08
       611.20000  2.24289e-05  1.20062e+09
       611.30000  2.24290e-05  1.20242e+09
       611.40000  2.42980e-05  1.30383e+09
       611.50000  2.63025e-05  1.41192e+09
       611.60000  3.38176e-05  1.81533e+09
       611.70000  3.75751e-05  2.01590e+09
       611.80000  4.13326e-05  2.21543e+09
       611.90000  4.50901e-05  2.41322e+09
       612.00000  5.07263e-05  2.70980e+09
       612.10000  4.69688e-05  2.50297e+09
       612.20000  5.07263e-05  2.69509e+09
       612.30000  5.26051e-05  2.78544e+09
       612.40000  6.57564e-05  3.46799e+09
       612.50000  6.79490e-05  3.56800e+09
       612.60000  7.54989e-05  3.95463e+09
       612.70000  8.30488e-05  4.34013e+09
       612.80000  9.43736e-05  4.92253e+09
       612.90000  0.000109473  5.70137e+09
       613.00000  0.000118911  6.18455e+09
       613.10000  0.000135898  7.06126e+09
       613.20000  0.000149110  7.74181e+09
       613.30000  0.000160435  8.32658e+09
       613.40000  0.000184972  9.60006e+09
       613.50000  0.000222005  1.15243e+10
       613.60000  0.000237185  1.23479e+10
       613.70000  0.000278930  1.45573e+10
       613.80000  0.000295684  1.54672e+10
       613.90000  0.000339278  1.77883e+10
       614.00000  0.000367709  1.93194e+10
       614.10000  0.000415094  2.18464e+10
       614.20000  0.000485224  2.55810e+10
       614.30000  0.000534505  2.82219e+10
       614.40000  0.000629275  3.32698e+10
       614.50000  0.000736817  3.89997e+10
       614.60000  0.000833917  4.41809e+10
       614.70000  0.000993847  5.26937e+10
       614.80000   0.00112903  5.98948e+10
       614.90000   0.00137463  7.29517e+10
       615.00000   0.00154979  8.22629e+10
       615.10000   0.00174399  9.25885e+10
       615.20000   0.00212478  1.12783e+11
       615.30000   0.00243321  1.29130e+11
       615.40000   0.00301010  1.59686e+11
       615.50000   0.00373820  1.98162e+11
       615.60000   0.00433317  2.27145e+11
       615.70000   0.00548104  2.84356e+11
       615.80000   0.00643567  3.30858e+11
       615.90000   0.00818425  4.17479e+11
       616.00000   0.00975491  4.94184e+11
       616.10000    0.0113026  5.69425e+11
       616.20000    0.0145319  7.28921e+11
       616.30000    0.0176604  8.83022e+11
       616.40000    0.0227519  1.13555e+12
       616.50000    0.0293171  1.46205e+12
       616.60000    0.0350614  1.76359e+12
       616.70000    0.0447338  2.26801e+12
       616.80000    0.0526478  2.68873e+12
       616.90000    0.0655662  3.37141e+12
       617.00000    0.0758344  3.92443e+12
       617.10000    0.0867618  4.51595e+12
       617.20000     0.104029  5.44281e+12
       617.30000     0.113400  5.96144e+12
       617.40000     0.129726  6.84951e+12
       617.50000     0.143007  7.57936e+12
       617.60000     0.148877  7.91580e+12
       617.70000     0.155562  8.29457e+12
       617.80000     0.156957  8.38937e+12
       617.90000     0.157648  8.44049e+12
       618.00000     0.156695  8.40198e+12
       618.10000     0.154611  8.29796e+12
       618.20000     0.151710  8.14532e+12
       618.30000     0.149636  8.03394e+12
       618.40000     0.147362  7.90746e+12
       618.50000     0.146125  7.83375e+12
       618.60000     0.145346  7.77745e+12
       618.70000     0.144353  7.70991e+12
       618.80000     0.144564  7.71106e+12
       618.90000     0.144979  7.72302e+12
       619.00000     0.145374  7.73679e+12
       619.10000     0.146096  7.76938e+12
       619.20000     0.147004  7.81473e+12
       619.30000     0.147929  7.86245e+12
       619.40000     0.148508  7.89321e+12
       619.50000     0.149038  7.92437e+12
       619.60000     0.148858  7.94304e+12
       619.70000     0.147512  7.89631e+12
       619.80000     0.145871  7.83034e+12
       619.90000     0.142709  7.67917e+12
       620.00000     0.139032  7.49520e+12
       620.10000     0.134942  7.28554e+12
       620.20000     0.127489  6.89079e+12
       620.30000     0.121214  6.55647e+12
       620.40000     0.111390  6.02622e+12
       620.50000     0.100559  5.44026e+12
       620.60000    0.0928732  5.00401e+12
       620.70000    0.0806665  4.32937e+12
       620.80000    0.0730840  3.90926e+12
       620.90000    0.0618634  3.29918e+12
       621.00000    0.0545835  2.90330e+12
       621.10000    0.0476044  2.52636e+12
       621.20000    0.0394907  2.09221e+12
       621.30000    0.0346580  1.83341e+12
       621.40000    0.0278340  1.47075e+12
       621.50000    0.0226964  1.19860e+12
       621.60000    0.0199201  1.05556e+12
       621.70000    0.0160492  8.53016e+11
       621.80000    0.0140443  7.48280e+11
       621.90000    0.0114579  6.11850e+11
       622.00000    0.0100873  5.39570e+11
       622.10000   0.00878331  4.70434e+11
       622.20000   0.00723458  3.87774e+11
       622.30000   0.00628694  3.37169e+11
       622.40000   0.00521595  2.79731e+11
       622.50000   0.00437987  2.34805e+11
       622.60000   0.00386286  2.06933e+11
       622.70000   0.00322396  1.72514e+11
       622.80000   0.00285242  1.52405e+11
       622.90000   0.00237669  1.26725e+11
       623.00000   0.00216635  1.15250e+11
       623.10000   0.00193634  1.02723e+11
       623.20000   0.00166113  8.78238e+10
       623.30000   0.00149403  7.87056e+10
       623.40000   0.00128958  6.76516e+10
       623.50000   0.00110724  5.78310e+10
       623.60000  0.000998685  5.21513e+10
       623.70000  0.000876316  4.57612e+10
       623.80000  0.000789744  4.12246e+10
       623.90000  0.000675517  3.52552e+10
       624.00000  0.000608556  3.17484e+10
       624.10000  0.000567198  2.95737e+10
       624.20000  0.000506145  2.63752e+10
       624.30000  0.000458879  2.38984e+10
       624.40000  0.000407673  2.12153e+10
       624.50000  0.000355820  1.85026e+10
       624.60000  0.000324191  1.67931e+10
       624.70000  0.000292563  1.51079e+10
       624.80000  0.000266865  1.37435e+10
       624.90000  0.000241167  1.23936e+10
       625.00000  0.000225353  1.15628e+10
       625.10000  0.000201631  1.03356e+10
       625.20000  0.000177910  9.11432e+09
       625.30000  0.000179887  9.21739e+09
       625.40000  0.000158142  8.10795e+09
       625.50000  0.000148747  7.63518e+09
       625.60000  0.000132881  6.83139e+09
       625.70000  0.000115031  5.92754e+09
       625.80000  0.000113048  5.84117e+09
       625.90000  9.12314e-05  4.72944e+09
       626.00000  8.92481e-05  4.64447e+09
       626.10000  8.72648e-05  4.56133e+09
       626.20000  7.73484e-05  4.06234e+09
       626.30000  7.72264e-05  4.07833e+09
       626.40000  6.53454e-05  3.47115e+09
       626.50000  6.36382e-05  3.40146e+09
       626.60000  6.16495e-05  3.29578e+09
       626.70000  5.17060e-05  2.76472e+09
       626.80000  4.97174e-05  2.65888e+09
       626.90000  4.57400e-05  2.44663e+09
       627.00000  5.17060e-05  2.76627e+09
       627.10000  5.17060e-05  2.76679e+09
       627.20000  5.17060e-05  2.76679e+09
       627.30000  5.17060e-05  2.76731e+09
       627.40000  5.17060e-05  2.76782e+09
       627.50000  4.28937e-05  2.29653e+09
       627.60000  4.28937e-05  2.29825e+09
       627.70000  4.28937e-05  2.29953e+09
       627.80000  4.28937e-05  2.30039e+09
       627.90000  4.28937e-05  2.30125e+09
       628.00000  4.28937e-05  2.30168e+09
       628.10000  4.28937e-05  2.30211e+09
       628.20000  4.28937e-05  2.30211e+09
       628.30000  4.28937e-05  2.30168e+09
       628.40000  4.28937e-05  2.30125e+09
       628.50000  3.40507e-05  1.82614e+09
       628.60000  3.40507e-05  1.82512e+09
       628.70000  3.40507e-05  1.82410e+09
       628.80000  3.39787e-05  1.81888e+09
       628.90000  3.39787e-05  1.81718e+09
       629.00000  3.39787e-05  1.81548e+09
       629.10000  3.39787e-05  1.81345e+09
       629.20000  3.39787e-05  1.81141e+09
       629.30000  3.39787e-05  1.80903e+09
       629.40000  3.39787e-05  1.80631e+09
       629.50000  1.60458e-05  8.51711e+08
       629.60000  1.60458e-05  8.49946e+08
       629.70000  1.60458e-05  8.48181e+08
       629.80000  1.60458e-05  8.46576e+08
       629.90000  1.60458e-05  8.45132e+08
       630.00000  1.60458e-05  8.43688e+08
       630.10000  1.60458e-05  8.42244e+08
       630.20000  1.60458e-05  8.41121e+08
       630.30000  1.60458e-05  8.39837e+08
       630.40000  1.60458e-05  8.38874e+08
       630.50000  1.00624e-05  5.25458e+08
       630.60000  1.00624e-05  5.24854e+08
       630.70000  1.00624e-05  5.24351e+08
       630.80000  1.00624e-05  5.23949e+08
       630.90000  1.00624e-05  5.23546e+08
       631.00000  1.00624e-05  5.23244e+08
       631.10000  1.00624e-05  5.23546e+08
       631.20000  1.00624e-05  5.23848e+08
       631.30000  1.00619e-05  5.24225e+08
       631.40000  1.00619e-05  5.24527e+08
       631.50000  6.05652e-06  3.15908e+08
       631.60000  6.05652e-06  3.16090e+08
       631.70000  6.05652e-06  3.16272e+08
       631.80000  6.05652e-06  3.16393e+08
       631.90000  6.05652e-06  3.16574e+08
       632.00000  6.05652e-06  3.16756e+08
       632.10000  6.05652e-06  3.16938e+08
       632.20000  6.05652e-06  3.17059e+08
       632.30000  6.05652e-06  3.17241e+08
       632.40000  6.05652e-06  3.17422e+08
       632.50000  4.05062e-06  2.12374e+08
       632.60000  4.05062e-06  2.12455e+08
       632.70000  4.05062e-06  2.12577e+08
       632.80000  4.05062e-06  2.12658e+08
       632.90000  4.05062e-06  2.12739e+08
       633.00000  4.05062e-06  2.12860e+08
       633.10000  4.05062e-06  2.12941e+08
       633.20000  4.05062e-06  2.13022e+08
       633.30000  4.05062e-06  2.13103e+08
       633.40000  4.05062e-06  2.13184e+08
       633.50000  2.03172e-06  1.06970e+08
       633.60000  2.03172e-06  1.07010e+08
       633.70000  2.03172e-06  1.07051e+08
       633.80000  2.03140e-06  1.07055e+08
       633.90000  2.03140e-06  1.07096e+08
       634.00000  2.03140e-06  1.07136e+08
       634.10000  2.03140e-06  1.07157e+08
       634.20000  2.03140e-06  1.07197e+08
       634.30000  2.03140e-06  1.07218e+08
       634.40000  2.03140e-06  1.07258e+08
       634.50000  1.92499e-06  1.01659e+08
       634.60000  1.92499e-06  1.01678e+08
       634.70000  1.92499e-06  1.01716e+08
       634.80000  1.92499e-06  1.01736e+08
       634.90000  1.92499e-06  1.01755e+08
       635.00000  1.92499e-06  1.01774e+08
       635.10000  1.92499e-06  1.01793e+08
       635.20000  1.92499e-06  1.01793e+08
       635.30000  1.92499e-06  1.01813e+08
       635.40000  1.92499e-06  1.01813e+08
       635.50000  1.52279e-06  8.05557e+07
       635.60000  1.52279e-06  8.05709e+07
       635.70000  1.52279e-06  8.05709e+07
       635.80000  1.52279e-06  8.05861e+07
       635.90000  1.52279e-06  8.05861e+07
       636.00000  1.52279e-06  8.06014e+07
       636.10000  1.52279e-06  8.06014e+07
       636.20000  1.52279e-06  8.06166e+07
       636.30000  1.51377e-06  8.01388e+07
       636.40000  1.51377e-06  8.01539e+07
       636.50000  1.24031e-06  6.56746e+07
       636.60000  1.24031e-06  6.56870e+07
       636.70000  1.24031e-06  6.56870e+07
       636.80000  1.24031e-06  6.56994e+07
       636.90000  1.24031e-06  6.56994e+07
       637.00000  1.24031e-06  6.56994e+07
       637.10000  1.24031e-06  6.57118e+07
       637.20000  1.24031e-06  6.57118e+07
       637.30000  1.24031e-06  6.57242e+07
       637.40000  1.24031e-06  6.57242e+07
       637.50000  1.01007e-06  5.35235e+07
       637.60000  1.01007e-06  5.35336e+07
       637.70000  1.01007e-06  5.35336e+07
       637.80000  1.01007e-06  5.35437e+07
       637.90000  1.01007e-06  5.35437e+07
       638.00000  1.01007e-06  5.35437e+07
       638.10000  1.01007e-06  5.35538e+07
       638.20000  1.01007e-06  5.35538e+07
       638.30000  1.01007e-06  5.35538e+07
       638.40000  1.01007e-06  5.35639e+07
       638.50000  7.24121e-07  3.84001e+07
       638.60000  7.24121e-07  3.84001e+07
       638.70000  7.24121e-07  3.84074e+07
       638.80000  7.19373e-07  3.81555e+07
       638.90000  7.19373e-07  3.81555e+07
       639.00000  7.19373e-07  3.81555e+07
       639.10000  7.19373e-07  3.80980e+07
       639.20000  7.19373e-07  3.80404e+07
       639.30000  7.19373e-07  3.79829e+07
       639.40000  7.19373e-07  3.79325e+07
       639.50000  6.18386e-07  3.25580e+07
       639.60000  6.18386e-07  3.25209e+07
       639.70000  6.18386e-07  3.24776e+07
       639.80000  6.18386e-07  3.24405e+07
       639.90000  6.18386e-07  3.24096e+07
       640.00000  6.18386e-07  3.23725e+07
       640.10000  6.18386e-07  3.23416e+07
       640.20000  6.18386e-07  3.23168e+07
       640.30000  6.18386e-07  3.22921e+07
       640.40000  6.18386e-07  3.22674e+07
       640.50000  6.42485e-07  3.34992e+07
       640.60000  6.42485e-07  3.34799e+07
       640.70000  6.42485e-07  3.34606e+07
       640.80000  6.42485e-07  3.34478e+07
       640.90000  6.42485e-07  3.34285e+07
       641.00000  6.42485e-07  3.34221e+07
       641.10000  6.42485e-07  3.34349e+07
       641.20000  6.42485e-07  3.34478e+07
       641.30000  6.38139e-07  3.32343e+07
       641.40000  6.38139e-07  3.32470e+07
       641.50000  4.59149e-07  2.39308e+07
       641.60000  4.59149e-07  2.39400e+07
       641.70000  4.59149e-07  2.39492e+07
       641.80000  4.59149e-07  2.39584e+07
       641.90000  4.59149e-07  2.39676e+07
       642.00000  4.59149e-07  2.39767e+07
       642.10000  4.59149e-07  2.39813e+07
       642.20000  4.59149e-07  2.39905e+07
       642.30000  4.59149e-07  2.39997e+07
       642.40000  4.59149e-07  2.40089e+07
       642.50000  4.41804e-07  2.31108e+07
       642.60000  4.41804e-07  2.31196e+07
       642.70000  4.41804e-07  2.31285e+07
       642.80000  4.41804e-07  2.31373e+07
       642.90000  4.41804e-07  2.31461e+07
       643.00000  4.41804e-07  2.31550e+07
       643.10000  4.41804e-07  2.31594e+07
       643.20000  4.41804e-07  2.31682e+07
       643.30000  4.41804e-07  2.31771e+07
       643.40000  4.41804e-07  2.31859e+07
       643.50000  3.88305e-07  2.03860e+07
       643.60000  3.88305e-07  2.03938e+07
       643.70000  3.88305e-07  2.03977e+07
       643.80000  3.87788e-07  2.03782e+07
       643.90000  3.87788e-07  2.03860e+07
       644.00000  3.87788e-07  2.03938e+07
       644.10000  3.87788e-07  2.04015e+07
       644.20000  3.87788e-07  2.04054e+07
       644.30000  3.87788e-07  2.04131e+07
       644.40000  3.87788e-07  2.04209e+07
       644.50000  5.67059e-07  2.98727e+07
       644.60000  5.67059e-07  2.98784e+07
       644.70000  5.67059e-07  2.98897e+07
       644.80000  5.67059e-07  2.99010e+07
       644.90000  5.67059e-07  2.99124e+07
       645.00000  5.67059e-07  2.99180e+07
       645.10000  5.67059e-07  2.99124e+07
       645.20000  5.67059e-07  2.99010e+07
       645.30000  5.67059e-07  2.98954e+07
       645.40000  5.67059e-07  2.98840e+07
       645.50000  5.24575e-07  2.76294e+07
       645.60000  5.24575e-07  2.76189e+07
       645.70000  5.24575e-07  2.76084e+07
       645.80000  5.24575e-07  2.75926e+07
       645.90000  5.24575e-07  2.75769e+07
       646.00000  5.24575e-07  2.75612e+07
       646.10000  5.24575e-07  2.75454e+07
       646.20000  5.24575e-07  2.75297e+07
       646.30000  5.24253e-07  2.74918e+07
       646.40000  5.24253e-07  2.74709e+07
       646.50000  3.96144e-07  2.07460e+07
       646.60000  3.96144e-07  2.07262e+07
       646.70000  3.96144e-07  2.07104e+07
       646.80000  3.96144e-07  2.06945e+07
       646.90000  3.96144e-07  2.06747e+07
       647.00000  3.96144e-07  2.06589e+07
       647.10000  3.96144e-07  2.06034e+07
       647.20000  3.96144e-07  2.05519e+07
       647.30000  3.96144e-07  2.05044e+07
       647.40000  3.96144e-07  2.04568e+07
       647.50000  4.33034e-07  2.23142e+07
       647.60000  4.33034e-07  2.22753e+07
       647.70000  4.33034e-07  2.22320e+07
       647.80000  4.33034e-07  2.21973e+07
       647.90000  4.33034e-07  2.21627e+07
       648.00000  4.33034e-07  2.21324e+07
       648.10000  4.33034e-07  2.21064e+07
       648.20000  4.33034e-07  2.20847e+07
       648.30000  4.33034e-07  2.20631e+07
       648.40000  4.33034e-07  2.20458e+07
       648.50000  5.85492e-07  2.97898e+07
       648.60000  5.85492e-07  2.97781e+07
       648.70000  5.85492e-07  2.97664e+07
       648.80000  5.86098e-07  2.97913e+07
       648.90000  5.86098e-07  2.97913e+07
       649.00000  5.86098e-07  2.97972e+07
       649.10000  5.86098e-07  2.98031e+07
       649.20000  5.86098e-07  2.98206e+07
       649.30000  5.86098e-07  2.98324e+07
       649.40000  5.86098e-07  2.98558e+07
       649.50000  4.14221e-07  2.11211e+07
       649.60000  4.14221e-07  2.11418e+07
       649.70000  4.14221e-07  2.11667e+07
       649.80000  4.14221e-07  2.11957e+07
       649.90000  4.14221e-07  2.12247e+07
       650.00000  4.14221e-07  2.12578e+07
       650.10000  4.14221e-07  2.12951e+07
       650.20000  4.14221e-07  2.13365e+07
       650.30000  4.14221e-07  2.13821e+07
       650.40000  4.14221e-07  2.14276e+07
       650.50000  2.17648e-07  1.12851e+07
       650.60000  2.17648e-07  1.13134e+07
       650.70000  2.17648e-07  1.13416e+07
       650.80000  2.17648e-07  1.13743e+07
       650.90000  2.17648e-07  1.14069e+07
       651.00000  2.17648e-07  1.14418e+07
       651.10000  2.17648e-07  1.14505e+07
       651.20000  2.17648e-07  1.14592e+07
       651.30000  2.17375e-07  1.14513e+07
       651.40000  2.17375e-07  1.14578e+07
       651.50000  4.63777e-07  2.44596e+07
       651.60000  4.63777e-07  2.44642e+07
       651.70000  4.63777e-07  2.44735e+07
       651.80000  4.63777e-07  2.44782e+07
       651.90000  4.63777e-07  2.44782e+07
       652.00000  4.63777e-07  2.44782e+07
       652.10000  4.63777e-07  2.44735e+07
       652.20000  4.63777e-07  2.44689e+07
       652.30000  4.63777e-07  2.44642e+07
       652.40000  4.63777e-07  2.44550e+07
       652.50000  3.07796e-07  1.62209e+07
       652.60000  3.07796e-07  1.62116e+07
       652.70000  3.07796e-07  1.62024e+07
       652.80000  3.07796e-07  1.61870e+07
       652.90000  3.07796e-07  1.61747e+07
       653.00000  3.07796e-07  1.61593e+07
       653.10000  3.07796e-07  1.61470e+07
       653.20000  3.07796e-07  1.61347e+07
       653.30000  3.07796e-07  1.61162e+07
       653.40000  3.07796e-07  1.60977e+07
       653.50000  4.61870e-07  2.41281e+07
       653.60000  4.61870e-07  2.40957e+07
       653.70000  4.61870e-07  2.40588e+07
       653.80000  4.61307e-07  2.39880e+07
       653.90000  4.61307e-07  2.39464e+07
       654.00000  4.61307e-07  2.39003e+07
       654.10000  4.61307e-07  2.38542e+07
       654.20000  4.61307e-07  2.37988e+07
       654.30000  4.61307e-07  2.37435e+07
       654.40000  4.61307e-07  2.36881e+07
       654.50000  5.14479e-07  2.63516e+07
       654.60000  5.14479e-07  2.62796e+07
       654.70000  5.14479e-07  2.62024e+07
       654.80000  5.14479e-07  2.61253e+07
       654.90000  5.14479e-07  2.60430e+07
       655.00000  5.14479e-07  2.59555e+07
       655.10000  5.14479e-07  2.57085e+07
       655.20000  5.14479e-07  2.54719e+07
       655.30000  5.14479e-07  2.52507e+07
       655.40000  5.14479e-07  2.50449e+07
       655.50000  5.25966e-07  2.54042e+07
       655.60000  5.25966e-07  2.52201e+07
       655.70000  5.25966e-07  2.50465e+07
       655.80000  5.25966e-07  2.48887e+07
       655.90000  5.25966e-07  2.47414e+07
       656.00000  5.25966e-07  2.46099e+07
       656.10000  5.25966e-07  2.44942e+07
       656.20000  5.25966e-07  2.43890e+07
       656.30000  5.25566e-07  2.42811e+07
       656.40000  5.25566e-07  2.42023e+07
       656.50000  2.90790e-07  1.33560e+07
       656.60000  2.90790e-07  1.33298e+07
       656.70000  2.90790e-07  1.33095e+07
       656.80000  2.90790e-07  1.32978e+07
       656.90000  2.90790e-07  1.32920e+07
       657.00000  2.90790e-07  1.32949e+07
       657.10000  2.90790e-07  1.34083e+07
       657.20000  2.90790e-07  1.35188e+07
       657.30000  2.90790e-07  1.36264e+07
       657.40000  2.90790e-07  1.37311e+07
       657.50000  4.68566e-07  2.22850e+07
       657.60000  4.68566e-07  2.24443e+07
       657.70000  4.68566e-07  2.25942e+07
       657.80000  4.68566e-07  2.27395e+07
       657.90000  4.68566e-07  2.28754e+07
       658.00000  4.68566e-07  2.30113e+07
       658.10000  4.68566e-07  2.31425e+07
       658.20000  4.68566e-07  2.32643e+07
       658.30000  4.68566e-07  2.33814e+07
       658.40000  4.68566e-07  2.34939e+07
       658.50000  4.88411e-07  2.45964e+07
       658.60000  4.88411e-07  2.47038e+07
       658.70000  4.88411e-07  2.48015e+07
       658.80000  4.87904e-07  2.48733e+07
       658.90000  4.87904e-07  2.49612e+07
       659.00000  4.87904e-07  2.50392e+07
       659.10000  4.87904e-07  2.51173e+07
       659.20000  4.87904e-07  2.51905e+07
       659.30000  4.87904e-07  2.52539e+07
       659.40000  4.87904e-07  2.53124e+07
       659.50000  5.03431e-07  2.61734e+07
       659.60000  5.03431e-07  2.62237e+07
       659.70000  5.03431e-07  2.62640e+07
       659.80000  5.03431e-07  2.63043e+07
       659.90000  5.03431e-07  2.63345e+07
       660.00000  5.03431e-07  2.63596e+07
       660.10000  5.03431e-07  2.63798e+07
       660.20000  5.03431e-07  2.63899e+07
       660.30000  5.03431e-07  2.63999e+07
       660.40000  5.03431e-07  2.63999e+07
       660.50000  5.97410e-07  3.13222e+07
       660.60000  5.97410e-07  3.13102e+07
       660.70000  5.97410e-07  3.12923e+07
       660.80000  5.97410e-07  3.12624e+07
       660.90000  5.97410e-07  3.12326e+07
       661.00000  5.97410e-07  3.11908e+07
       661.10000  5.97410e-07  3.11728e+07
       661.20000  5.97410e-07  3.11489e+07
       661.30000  5.95926e-07  3.10537e+07
       661.40000  5.95926e-07  3.10358e+07
       661.50000  6.34430e-07  3.30221e+07
       661.60000  6.34430e-07  3.30094e+07
       661.70000  6.34430e-07  3.29904e+07
       661.80000  6.34430e-07  3.29777e+07
       661.90000  6.34430e-07  3.29650e+07
       662.00000  6.34430e-07  3.29523e+07
       662.10000  6.34430e-07  3.29396e+07
       662.20000  6.34430e-07  3.29269e+07
       662.30000  6.34430e-07  3.29206e+07
       662.40000  6.34430e-07  3.29142e+07
       662.50000  5.03842e-07  2.61292e+07
       662.60000  5.03842e-07  2.61292e+07
       662.70000  5.03842e-07  2.61242e+07
       662.80000  5.03842e-07  2.61192e+07
       662.90000  5.03842e-07  2.61192e+07
       663.00000  5.03842e-07  2.61192e+07
       663.10000  5.03842e-07  2.61393e+07
       663.20000  5.03842e-07  2.61544e+07
       663.30000  5.03842e-07  2.61746e+07
       663.40000  5.03842e-07  2.61897e+07
       663.50000  5.11351e-07  2.65953e+07
       663.60000  5.11351e-07  2.66107e+07
       663.70000  5.11351e-07  2.66209e+07
       663.80000  5.10260e-07  2.65794e+07
       663.90000  5.10260e-07  2.65896e+07
       664.00000  5.10260e-07  2.65948e+07
       664.10000  5.10260e-07  2.66050e+07
       664.20000  5.10260e-07  2.66101e+07
       664.30000  5.10260e-07  2.66152e+07
       664.40000  5.10260e-07  2.66203e+07
       664.50000  4.24550e-07  2.21488e+07
       664.60000  4.24550e-07  2.21488e+07
       664.70000  4.24550e-07  2.21488e+07
       664.80000  4.24550e-07  2.21488e+07
       664.90000  4.24550e-07  2.21488e+07
       665.00000  4.24550e-07  2.21445e+07
       665.10000  4.24550e-07  2.21403e+07
       665.20000  4.24550e-07  2.21360e+07
       665.30000  4.24550e-07  2.21275e+07
       665.40000  4.24550e-07  2.21190e+07
       665.50000  3.47985e-07  1.81231e+07
       665.60000  3.47985e-07  1.81161e+07
       665.70000  3.47985e-07  1.81057e+07
       665.80000  3.47985e-07  1.80987e+07
       665.90000  3.47985e-07  1.80883e+07
       666.00000  3.47985e-07  1.80743e+07
       666.10000  3.47985e-07  1.80639e+07
       666.20000  3.47985e-07  1.80500e+07
       666.30000  3.47111e-07  1.79908e+07
       666.40000  3.47111e-07  1.79769e+07
       666.50000  4.56777e-07  2.36336e+07
       666.60000  4.56777e-07  2.36108e+07
       666.70000  4.56777e-07  2.35880e+07
       666.80000  4.56777e-07  2.35651e+07
       666.90000  4.56777e-07  2.35423e+07
       667.00000  4.56777e-07  2.35149e+07
       667.10000  4.56777e-07  2.35423e+07
       667.20000  4.56777e-07  2.35651e+07
       667.30000  4.56777e-07  2.35880e+07
       667.40000  4.56777e-07  2.36108e+07
       667.50000  2.67435e-07  1.38371e+07
       667.60000  2.67435e-07  1.38478e+07
       667.70000  2.67435e-07  1.38585e+07
       667.80000  2.67435e-07  1.38665e+07
       667.90000  2.67435e-07  1.38745e+07
       668.00000  2.67435e-07  1.38825e+07
       668.10000  2.67435e-07  1.38906e+07
       668.20000  2.67435e-07  1.38959e+07
       668.30000  2.67435e-07  1.39013e+07
       668.40000  2.67435e-07  1.39039e+07
       668.50000  2.32488e-07  1.20894e+07
       668.60000  2.32488e-07  1.20917e+07
       668.70000  2.32488e-07  1.20917e+07
       668.80000  2.32108e-07  1.20719e+07
       668.90000  2.32108e-07  1.20719e+07
       669.00000  2.32108e-07  1.20696e+07
       669.10000  2.32108e-07  1.20534e+07
       669.20000  2.32108e-07  1.20371e+07
       669.30000  2.32108e-07  1.20232e+07
       669.40000  2.32108e-07  1.20093e+07
       669.50000  4.03332e-07  2.08442e+07
       669.60000  4.03332e-07  2.08200e+07
       669.70000  4.03332e-07  2.07999e+07
       669.80000  4.03332e-07  2.07797e+07
       669.90000  4.03332e-07  2.07595e+07
       670.00000  4.03332e-07  2.07434e+07
       670.10000  4.03332e-07  2.07273e+07
       670.20000  4.03332e-07  2.07111e+07
       670.30000  4.03332e-07  2.06950e+07
       670.40000  4.03332e-07  2.06829e+07
       670.50000  2.96838e-07  1.52129e+07
       670.60000  2.96838e-07  1.52040e+07
       670.70000  2.96838e-07  1.51981e+07
       670.80000  2.96838e-07  1.51922e+07
       670.90000  2.96838e-07  1.51862e+07
       671.00000  2.96838e-07  1.51833e+07
       671.10000  2.96838e-07  1.51773e+07
       671.20000  2.96838e-07  1.51773e+07
       671.30000  2.96849e-07  1.51749e+07
       671.40000  2.96849e-07  1.51749e+07
       671.50000  3.73736e-07  1.91054e+07
       671.60000  3.73736e-07  1.91054e+07
       671.70000  3.73736e-07  1.91054e+07
       671.80000  3.73736e-07  1.91091e+07
       671.90000  3.73736e-07  1.91129e+07
       672.00000  3.73736e-07  1.91204e+07
       672.10000  3.73736e-07  1.91278e+07
       672.20000  3.73736e-07  1.91353e+07
       672.30000  3.73736e-07  1.91428e+07
       672.40000  3.73736e-07  1.91540e+07
       672.50000  2.63863e-07  1.35309e+07
       672.60000  2.63863e-07  1.35388e+07
       672.70000  2.63863e-07  1.35468e+07
       672.80000  2.63863e-07  1.35573e+07
       672.90000  2.63863e-07  1.35679e+07
       673.00000  2.63863e-07  1.35811e+07
       673.10000  2.63863e-07  1.35758e+07
       673.20000  2.63863e-07  1.35705e+07
       673.30000  2.63863e-07  1.35652e+07
       673.40000  2.63863e-07  1.35626e+07
       673.50000  2.69690e-07  1.38567e+07
       673.60000  2.69690e-07  1.38540e+07
       673.70000  2.69690e-07  1.38513e+07
       673.80000  2.69798e-07  1.38514e+07
       673.90000  2.69798e-07  1.38487e+07
       674.00000  2.69798e-07  1.38460e+07
       674.10000  2.69798e-07  1.38433e+07
       674.20000  2.69798e-07  1.38406e+07
       674.30000  2.69798e-07  1.38379e+07
       674.40000  2.69798e-07  1.38352e+07
       674.50000  2.81014e-07  1.44076e+07
       674.60000  2.81014e-07  1.44076e+07
       674.70000  2.81014e-07  1.44048e+07
       674.80000  2.81014e-07  1.44048e+07
       674.90000  2.81014e-07  1.44020e+07
       675.00000  2.81014e-07  1.44020e+07
       675.10000  2.81014e-07  1.44048e+07
       675.20000  2.81014e-07  1.44076e+07
       675.30000  2.81014e-07  1.44104e+07
       675.40000  2.81014e-07  1.44132e+07
       675.50000  3.04719e-07  1.56290e+07
       675.60000  3.04719e-07  1.56321e+07
       675.70000  3.04719e-07  1.56351e+07
       675.80000  3.04719e-07  1.56351e+07
       675.90000  3.04719e-07  1.56382e+07
       676.00000  3.04719e-07  1.56382e+07
       676.10000  3.04719e-07  1.56412e+07
       676.20000  3.04719e-07  1.56412e+07
       676.30000  3.04408e-07  1.56253e+07
       676.40000  3.04408e-07  1.56253e+07
       676.50000  2.78431e-07  1.42947e+07
       676.60000  2.78431e-07  1.42947e+07
       676.70000  2.78431e-07  1.42947e+07
       676.80000  2.78431e-07  1.42919e+07
       676.90000  2.78431e-07  1.42919e+07
       677.00000  2.78431e-07  1.42919e+07
       677.10000  2.78431e-07  1.42919e+07
       677.20000  2.78431e-07  1.42891e+07
       677.30000  2.78431e-07  1.42891e+07
       677.40000  2.78431e-07  1.42863e+07
       677.50000  3.22163e-07  1.65302e+07
       677.60000  3.22163e-07  1.65270e+07
       677.70000  3.22163e-07  1.65270e+07
       677.80000  3.22163e-07  1.65238e+07
       677.90000  3.22163e-07  1.65205e+07
       678.00000  3.22163e-07  1.65173e+07
       678.10000  3.22163e-07  1.65141e+07
       678.20000  3.22163e-07  1.65109e+07
       678.30000  3.22163e-07  1.65077e+07
       678.40000  3.22163e-07  1.65044e+07
       678.50000  2.84765e-07  1.45828e+07
       678.60000  2.84765e-07  1.45800e+07
       678.70000  2.84765e-07  1.45771e+07
       678.80000  2.84743e-07  1.45703e+07
       678.90000  2.84743e-07  1.45675e+07
       679.00000  2.84743e-07  1.45618e+07
       679.10000  2.84743e-07  1.45618e+07
       679.20000  2.84743e-07  1.45646e+07
       679.30000  2.84743e-07  1.45646e+07
       679.40000  2.84743e-07  1.45646e+07
       679.50000  3.27372e-07  1.67451e+07
       679.60000  3.27372e-07  1.67451e+07
       679.70000  3.27372e-07  1.67451e+07
       679.80000  3.27372e-07  1.67451e+07
       679.90000  3.27372e-07  1.67451e+07
       680.00000  3.27372e-07  1.67418e+07
       680.10000  3.27372e-07  1.67418e+07
       680.20000  3.27372e-07  1.67418e+07
       680.30000  3.27372e-07  1.67385e+07
       680.40000  3.27372e-07  1.67385e+07
       680.50000  2.53054e-07  1.29361e+07
       680.60000  2.53054e-07  1.29361e+07
       680.70000  2.53054e-07  1.29336e+07
       680.80000  2.53054e-07  1.29311e+07
       680.90000  2.53054e-07  1.29285e+07
       681.00000  2.53054e-07  1.29285e+07
       681.10000  2.53054e-07  1.29260e+07
       681.20000  2.53054e-07  1.29235e+07
       681.30000  2.53030e-07  1.29223e+07
       681.40000  2.53030e-07  1.29197e+07
       681.50000  2.01691e-07  1.02963e+07
       681.60000  2.01691e-07  1.02943e+07
       681.70000  2.01691e-07  1.02923e+07
       681.80000  2.01691e-07  1.02883e+07
       681.90000  2.01691e-07  1.02863e+07
       682.00000  2.01691e-07  1.02842e+07
       682.10000  2.01691e-07  1.02802e+07
       682.20000  2.01691e-07  1.02762e+07
       682.30000  2.01691e-07  1.02742e+07
       682.40000  2.01691e-07  1.02701e+07
       682.50000  1.74639e-07  8.88913e+06
       682.60000  1.74639e-07  8.88564e+06
       682.70000  1.74639e-07  8.88214e+06
       682.80000  1.74639e-07  8.87865e+06
       682.90000  1.74639e-07  8.87341e+06
       683.00000  1.74639e-07  8.86992e+06
       683.10000  1.74639e-07  8.86643e+06
       683.20000  1.74639e-07  8.86119e+06
       683.30000  1.74639e-07  8.85595e+06
       683.40000  1.74639e-07  8.85071e+06
       683.50000  1.79362e-07  9.08646e+06
       683.60000  1.79362e-07  9.08108e+06
       683.70000  1.79362e-07  9.07570e+06
       683.80000  1.79224e-07  9.06157e+06
       683.90000  1.79224e-07  9.05620e+06
       684.00000  1.79224e-07  9.05082e+06
       684.10000  1.79224e-07  9.04365e+06
       684.20000  1.79224e-07  9.03827e+06
       684.30000  1.79224e-07  9.03110e+06
       684.40000  1.79224e-07  9.02573e+06
       684.50000  3.49576e-07  1.75907e+07
       684.60000  3.49576e-07  1.75767e+07
       684.70000  3.49576e-07  1.75627e+07
       684.80000  3.49576e-07  1.75487e+07
       684.90000  3.49576e-07  1.75312e+07
       685.00000  3.49576e-07  1.75173e+07
       685.10000  3.49576e-07  1.75312e+07
       685.20000  3.49576e-07  1.75487e+07
       685.30000  3.49576e-07  1.75627e+07
       685.40000  3.49576e-07  1.75732e+07
       685.50000  3.11895e-07  1.56914e+07
       685.60000  3.11895e-07  1.57039e+07
       685.70000  3.11895e-07  1.57133e+07
       685.80000  3.11895e-07  1.57226e+07
       685.90000  3.11895e-07  1.57320e+07
       686.00000  3.11895e-07  1.57413e+07
       686.10000  3.11895e-07  1.57507e+07
       686.20000  3.11895e-07  1.57569e+07
       686.30000  3.11568e-07  1.57497e+07
       686.40000  3.11568e-07  1.57560e+07
       686.50000  1.83301e-07  9.27319e+06
       686.60000  1.83301e-07  9.27686e+06
       686.70000  1.83301e-07  9.28052e+06
       686.80000  1.83301e-07  9.28236e+06
       686.90000  1.83301e-07  9.28602e+06
       687.00000  1.83301e-07  9.28786e+06
       687.10000  1.83301e-07  9.28969e+06
       687.20000  1.83301e-07  9.28969e+06
       687.30000  1.83301e-07  9.28969e+06
       687.40000  1.83301e-07  9.28969e+06
       687.50000  3.12129e-07  1.58187e+07
       687.60000  3.12129e-07  1.58187e+07
       687.70000  3.12129e-07  1.58187e+07
       687.80000  3.12129e-07  1.58187e+07
       687.90000  3.12129e-07  1.58187e+07
       688.00000  3.12129e-07  1.58156e+07
       688.10000  3.12129e-07  1.58156e+07
       688.20000  3.12129e-07  1.58156e+07
       688.30000  3.12129e-07  1.58125e+07
       688.40000  3.12129e-07  1.58125e+07
       688.50000  2.28357e-07  1.15663e+07
       688.60000  2.28357e-07  1.15640e+07
       688.70000  2.28357e-07  1.15640e+07
       688.80000  2.28066e-07  1.15470e+07
       688.90000  2.28066e-07  1.15447e+07
       689.00000  2.28066e-07  1.15424e+07
       689.10000  2.28066e-07  1.15401e+07
       689.20000  2.28066e-07  1.15378e+07
       689.30000  2.28066e-07  1.15356e+07
       689.40000  2.28066e-07  1.15333e+07
       689.50000  2.02263e-07  1.02264e+07
       689.60000  2.02263e-07  1.02244e+07
       689.70000  2.02263e-07  1.02203e+07
       689.80000  2.02263e-07  1.02183e+07
       689.90000  2.02263e-07  1.02163e+07
       690.00000  2.02263e-07  1.02123e+07
       690.10000  2.02263e-07  1.02082e+07
       690.20000  2.02263e-07  1.02062e+07
       690.30000  2.02263e-07  1.02021e+07
       690.40000  2.02263e-07  1.01981e+07
       690.50000  2.40709e-07  1.21341e+07
       690.60000  2.40709e-07  1.21293e+07
       690.70000  2.40709e-07  1.21245e+07
       690.80000  2.40709e-07  1.21197e+07
       690.90000  2.40709e-07  1.21149e+07
       691.00000  2.40709e-07  1.21101e+07
       691.10000  2.40709e-07  1.21149e+07
       691.20000  2.40709e-07  1.21173e+07
       691.30000  2.40479e-07  1.21105e+07
       691.40000  2.40479e-07  1.21129e+07
       691.50000  2.72354e-07  1.37212e+07
       691.60000  2.72354e-07  1.37266e+07
       691.70000  2.72354e-07  1.37294e+07
       691.80000  2.72354e-07  1.37321e+07
       691.90000  2.72354e-07  1.37348e+07
       692.00000  2.72354e-07  1.37348e+07
       692.10000  2.72354e-07  1.37375e+07
       692.20000  2.72354e-07  1.37403e+07
       692.30000  2.72354e-07  1.37403e+07
       692.40000  2.72354e-07  1.37403e+07
       692.50000  2.73141e-07  1.37827e+07
       692.60000  2.73141e-07  1.37827e+07
       692.70000  2.73141e-07  1.37827e+07
       692.80000  2.73141e-07  1.37827e+07
       692.90000  2.73141e-07  1.37827e+07
       693.00000  2.73141e-07  1.37800e+07
       693.10000  2.73141e-07  1.37800e+07
       693.20000  2.73141e-07  1.37772e+07
       693.30000  2.73141e-07  1.37745e+07
       693.40000  2.73141e-07  1.37718e+07
       693.50000  2.42364e-07  1.22176e+07
       693.60000  2.42364e-07  1.22151e+07
       693.70000  2.42364e-07  1.22127e+07
       693.80000  2.41403e-07  1.21619e+07
       693.90000  2.41403e-07  1.21570e+07
       694.00000  2.41403e-07  1.21546e+07
       694.10000  2.41403e-07  1.21522e+07
       694.20000  2.41403e-07  1.21474e+07
       694.30000  2.41403e-07  1.21450e+07
       694.40000  2.41403e-07  1.21401e+07
       694.50000  3.43495e-07  1.72675e+07
       694.60000  3.43495e-07  1.72640e+07
       694.70000  3.43495e-07  1.72572e+07
       694.80000  3.43495e-07  1.72503e+07
       694.90000  3.43495e-07  1.72434e+07
       695.00000  3.43495e-07  1.72366e+07
       695.10000  3.43495e-07  1.72297e+07
       695.20000  3.43495e-07  1.72228e+07
       695.30000  3.43495e-07  1.72125e+07
       695.40000  3.43495e-07  1.72057e+07
       695.50000  2.31222e-07  1.15773e+07
       695.60000  2.31222e-07  1.15703e+07
       695.70000  2.31222e-07  1.15657e+07
       695.80000  2.31222e-07  1.15588e+07
       695.90000  2.31222e-07  1.15518e+07
       696.00000  2.31222e-07  1.15472e+07
       696.10000  2.31222e-07  1.15403e+07
       696.20000  2.31222e-07  1.15333e+07
       696.30000  2.30995e-07  1.15151e+07
       696.40000  2.30995e-07  1.15082e+07
       696.50000  1.98417e-07  9.87917e+06
       696.60000  1.98417e-07  9.87322e+06
       696.70000  1.98417e-07  9.86528e+06
       696.80000  1.98417e-07  9.85933e+06
       696.90000  1.98417e-07  9.85338e+06
       697.00000  1.98417e-07  9.84544e+06
       697.10000  1.98417e-07  9.85933e+06
       697.20000  1.98417e-07  9.86925e+06
       697.30000  1.98417e-07  9.88116e+06
       697.40000  1.98417e-07  9.89108e+06
       697.50000  2.77484e-07  1.38465e+07
       697.60000  2.77484e-07  1.38576e+07
       697.70000  2.77484e-07  1.38687e+07
       697.80000  2.77484e-07  1.38770e+07
       697.90000  2.77484e-07  1.38853e+07
       698.00000  2.77484e-07  1.38909e+07
       698.10000  2.77484e-07  1.38964e+07
       698.20000  2.77484e-07  1.39020e+07
       698.30000  2.77484e-07  1.39047e+07
       698.40000  2.77484e-07  1.39075e+07
       698.50000  2.63653e-07  1.32169e+07
       698.60000  2.63653e-07  1.32169e+07
       698.70000  2.63653e-07  1.32143e+07
       698.80000  2.63203e-07  1.31891e+07
       698.90000  2.63203e-07  1.31864e+07
       699.00000  2.63203e-07  1.31812e+07
       699.10000  2.63203e-07  1.31575e+07
       699.20000  2.63203e-07  1.31312e+07
       699.30000  2.63203e-07  1.31101e+07
       699.40000  2.63203e-07  1.30864e+07
       699.50000  2.44765e-07  1.21501e+07
       699.60000  2.44765e-07  1.21305e+07
       699.70000  2.44765e-07  1.21134e+07
       699.80000  2.44765e-07  1.20963e+07
       699.90000  2.44765e-07  1.20791e+07
       700.00000  2.44765e-07  1.20645e+07
       700.10000  2.44765e-07  1.20498e+07
       700.20000  2.44765e-07  1.20351e+07
       700.30000  2.44765e-07  1.20229e+07
       700.40000  2.44765e-07  1.20106e+07
       700.50000  2.83275e-07  1.38861e+07
       700.60000  2.83275e-07  1.38748e+07
       700.70000  2.83275e-07  1.38635e+07
       700.80000  2.83275e-07  1.38550e+07
       700.90000  2.83275e-07  1.38465e+07
       701.00000  2.83275e-07  1.38380e+07
       701.10000  2.83275e-07  1.38351e+07
       701.20000  2.83275e-07  1.38323e+07
       701.30000  2.83081e-07  1.38200e+07
       701.40000  2.83081e-07  1.38200e+07
       701.50000  3.01802e-07  1.47340e+07
       701.60000  3.01802e-07  1.47340e+07
       701.70000  3.01802e-07  1.47340e+07
       701.80000  3.01802e-07  1.47370e+07
       701.90000  3.01802e-07  1.47370e+07
       702.00000  3.01802e-07  1.47400e+07
       702.10000  3.01802e-07  1.47460e+07
       702.20000  3.01802e-07  1.47491e+07
       702.30000  3.01802e-07  1.47551e+07
       702.40000  3.01802e-07  1.47581e+07
       702.50000  2.68561e-07  1.31380e+07
       702.60000  2.68561e-07  1.31461e+07
       702.70000  2.68561e-07  1.31515e+07
       702.80000  2.68561e-07  1.31595e+07
       702.90000  2.68561e-07  1.31676e+07
       703.00000  2.68561e-07  1.31756e+07
       703.10000  2.68561e-07  1.31998e+07
       703.20000  2.68561e-07  1.32240e+07
       703.30000  2.68561e-07  1.32455e+07
       703.40000  2.68561e-07  1.32669e+07
       703.50000  4.02894e-07  1.99312e+07
       703.60000  4.02894e-07  1.99634e+07
       703.70000  4.02894e-07  1.99876e+07
       703.80000  4.01810e-07  1.99619e+07
       703.90000  4.01810e-07  1.99860e+07
       704.00000  4.01810e-07  2.00061e+07
       704.10000  4.01810e-07  2.00302e+07
       704.20000  4.01810e-07  2.00503e+07
       704.30000  4.01810e-07  2.00664e+07
       704.40000  4.01810e-07  2.00825e+07
       704.50000  3.63241e-07  1.81693e+07
       704.60000  3.63241e-07  1.81839e+07
       704.70000  3.63241e-07  1.81948e+07
       704.80000  3.63241e-07  1.82020e+07
       704.90000  3.63241e-07  1.82129e+07
       705.00000  3.63241e-07  1.82202e+07
       705.10000  3.63241e-07  1.82238e+07
       705.20000  3.63241e-07  1.82275e+07
       705.30000  3.63241e-07  1.82311e+07
       705.40000  3.63241e-07  1.82347e+07
       705.50000  4.66612e-07  2.34239e+07
       705.60000  4.66612e-07  2.34239e+07
       705.70000  4.66612e-07  2.34193e+07
       705.80000  4.66612e-07  2.34146e+07
       705.90000  4.66612e-07  2.34099e+07
       706.00000  4.66612e-07  2.34006e+07
       706.10000  4.66612e-07  2.33913e+07
       706.20000  4.66612e-07  2.33773e+07
       706.30000  4.66963e-07  2.33808e+07
       706.40000  4.66963e-07  2.33668e+07
       706.50000  6.06601e-07  3.03301e+07
       706.60000  6.06601e-07  3.03058e+07
       706.70000  6.06601e-07  3.02815e+07
       706.80000  6.06601e-07  3.02512e+07
       706.90000  6.06601e-07  3.02209e+07
       707.00000  6.06601e-07  3.01905e+07
       707.10000  6.06601e-07  3.01663e+07
       707.20000  6.06601e-07  3.01481e+07
       707.30000  6.06601e-07  3.01238e+07
       707.40000  6.06601e-07  3.01056e+07
       707.50000  7.35596e-07  3.64856e+07
       707.60000  7.35596e-07  3.64635e+07
       707.70000  7.35596e-07  3.64488e+07
       707.80000  7.35596e-07  3.64267e+07
       707.90000  7.35596e-07  3.64120e+07
       708.00000  7.35596e-07  3.63973e+07
       708.10000  7.35596e-07  3.63826e+07
       708.20000  7.35596e-07  3.63679e+07
       708.30000  7.35596e-07  3.63531e+07
       708.40000  7.35596e-07  3.63384e+07
       708.50000  5.96417e-07  2.94571e+07
       708.60000  5.96417e-07  2.94451e+07
       708.70000  5.96417e-07  2.94392e+07
       708.80000  5.94387e-07  2.93330e+07
       708.90000  5.94387e-07  2.93271e+07
       709.00000  5.94387e-07  2.93271e+07
       709.10000  5.94387e-07  2.93389e+07
       709.20000  5.94387e-07  2.93508e+07
       709.30000  5.94387e-07  2.93568e+07
       709.40000  5.94387e-07  2.93687e+07
       709.50000  7.53468e-07  3.72364e+07
       709.60000  7.53468e-07  3.72515e+07
       709.70000  7.53468e-07  3.72590e+07
       709.80000  7.53468e-07  3.72665e+07
       709.90000  7.53468e-07  3.72741e+07
       710.00000  7.53468e-07  3.72816e+07
       710.10000  7.53468e-07  3.72892e+07
       710.20000  7.53468e-07  3.72967e+07
       710.30000  7.53468e-07  3.72967e+07
       710.40000  7.53468e-07  3.73042e+07
       710.50000  7.35783e-07  3.64286e+07
       710.60000  7.35783e-07  3.64286e+07
       710.70000  7.35783e-07  3.64286e+07
       710.80000  7.35783e-07  3.64286e+07
       710.90000  7.35783e-07  3.64286e+07
       711.00000  7.35783e-07  3.64286e+07
       711.10000  7.35783e-07  3.64286e+07
       711.20000  7.35783e-07  3.64212e+07
       711.30000  7.35942e-07  3.64291e+07
       711.40000  7.35942e-07  3.64218e+07
       711.50000  5.16453e-07  2.55541e+07
       711.60000  5.16453e-07  2.55489e+07
       711.70000  5.16453e-07  2.55438e+07
       711.80000  5.16453e-07  2.55386e+07
       711.90000  5.16453e-07  2.55335e+07
       712.00000  5.16453e-07  2.55231e+07
       712.10000  5.16453e-07  2.55180e+07
       712.20000  5.16453e-07  2.55076e+07
       712.30000  5.16453e-07  2.55025e+07
       712.40000  5.16453e-07  2.54921e+07
       712.50000  7.58975e-07  3.74478e+07
       712.60000  7.58975e-07  3.74326e+07
       712.70000  7.58975e-07  3.74099e+07
       712.80000  7.58975e-07  3.73947e+07
       712.90000  7.58975e-07  3.73795e+07
       713.00000  7.58975e-07  3.73567e+07
       713.10000  7.58975e-07  3.73567e+07
       713.20000  7.58975e-07  3.73567e+07
       713.30000  7.58975e-07  3.73567e+07
       713.40000  7.58975e-07  3.73491e+07
       713.50000  8.22789e-07  4.04895e+07
       713.60000  8.22789e-07  4.04895e+07
       713.70000  8.22789e-07  4.04812e+07
       713.80000  8.22597e-07  4.04718e+07
       713.90000  8.22597e-07  4.04636e+07
       714.00000  8.22597e-07  4.04636e+07
       714.10000  8.22597e-07  4.04553e+07
       714.20000  8.22597e-07  4.04471e+07
       714.30000  8.22597e-07  4.04471e+07
       714.40000  8.22597e-07  4.04389e+07
       714.50000  6.25893e-07  3.07626e+07
       714.60000  6.25893e-07  3.07564e+07
       714.70000  6.25893e-07  3.07564e+07
       714.80000  6.25893e-07  3.07501e+07
       714.90000  6.25893e-07  3.07439e+07
       715.00000  6.25893e-07  3.07376e+07
       715.10000  6.25893e-07  3.07314e+07
       715.20000  6.25893e-07  3.07314e+07
       715.30000  6.25893e-07  3.07314e+07
       715.40000  6.25893e-07  3.07251e+07
       715.50000  6.11928e-07  3.00334e+07
       715.60000  6.11928e-07  3.00273e+07
       715.70000  6.11928e-07  3.00212e+07
       715.80000  6.11928e-07  3.00150e+07
       715.90000  6.11928e-07  3.00089e+07
       716.00000  6.11928e-07  2.99967e+07
       716.10000  6.11928e-07  2.99906e+07
       716.20000  6.11928e-07  2.99783e+07
       716.30000  6.11045e-07  2.99229e+07
       716.40000  6.11045e-07  2.99107e+07
       716.50000  6.67179e-07  3.26451e+07
       716.60000  6.67179e-07  3.26317e+07
       716.70000  6.67179e-07  3.26184e+07
       716.80000  6.67179e-07  3.25984e+07
       716.90000  6.67179e-07  3.25850e+07
       717.00000  6.67179e-07  3.25650e+07
       717.10000  6.67179e-07  3.25450e+07
       717.20000  6.67179e-07  3.25250e+07
       717.30000  6.67179e-07  3.25050e+07
       717.40000  6.67179e-07  3.24850e+07
       717.50000  5.98286e-07  2.91126e+07
       717.60000  5.98286e-07  2.90887e+07
       717.70000  5.98286e-07  2.90707e+07
       717.80000  5.98286e-07  2.90468e+07
       717.90000  5.98286e-07  2.90228e+07
       718.00000  5.98286e-07  2.89989e+07
       718.10000  5.98286e-07  2.89750e+07
       718.20000  5.98286e-07  2.89511e+07
       718.30000  5.98286e-07  2.89271e+07
       718.40000  5.98286e-07  2.88972e+07
       718.50000  6.10632e-07  2.94691e+07
       718.60000  6.10632e-07  2.94386e+07
       718.70000  6.10632e-07  2.94080e+07
       718.80000  6.08124e-07  2.92568e+07
       718.90000  6.08124e-07  2.92264e+07
       719.00000  6.08124e-07  2.91960e+07
       719.10000  6.08124e-07  2.91960e+07
       719.20000  6.08124e-07  2.91960e+07
       719.30000  6.08124e-07  2.91960e+07
       719.40000  6.08124e-07  2.92021e+07
       719.50000  6.51695e-07  3.12944e+07
       719.60000  6.51695e-07  3.13009e+07
       719.70000  6.51695e-07  3.13009e+07
       719.80000  6.51695e-07  3.13074e+07
       719.90000  6.51695e-07  3.13140e+07
       720.00000  6.51695e-07  3.13270e+07
       720.10000  6.51695e-07  3.13335e+07
       720.20000  6.51695e-07  3.13400e+07
       720.30000  6.51695e-07  3.13531e+07
       720.40000  6.51695e-07  3.13596e+07
       720.50000  6.17622e-07  2.97323e+07
       720.60000  6.17622e-07  2.97447e+07
       720.70000  6.17622e-07  2.97570e+07
       720.80000  6.17622e-07  2.97694e+07
       720.90000  6.17622e-07  2.97879e+07
       721.00000  6.17622e-07  2.98003e+07
       721.10000  6.17622e-07  2.98312e+07
       721.20000  6.17622e-07  2.98620e+07
       721.30000  6.16365e-07  2.98321e+07
       721.40000  6.16365e-07  2.98567e+07
       721.50000  7.13512e-07  3.45982e+07
       721.60000  7.13512e-07  3.46267e+07
       721.70000  7.13512e-07  3.46553e+07
       721.80000  7.13512e-07  3.46909e+07
       721.90000  7.13512e-07  3.47195e+07
       722.00000  7.13512e-07  3.47409e+07
       722.10000  7.13512e-07  3.47694e+07
       722.20000  7.13512e-07  3.47980e+07
       722.30000  7.13512e-07  3.48194e+07
       722.40000  7.13512e-07  3.48408e+07
       722.50000  7.60136e-07  3.71402e+07
       722.60000  7.60136e-07  3.71707e+07
       722.70000  7.60136e-07  3.71859e+07
       722.80000  7.60136e-07  3.72087e+07
       722.90000  7.60136e-07  3.72315e+07
       723.00000  7.60136e-07  3.72467e+07
       723.10000  7.60136e-07  3.72695e+07
       723.20000  7.60136e-07  3.72847e+07
       723.30000  7.60136e-07  3.72999e+07
       723.40000  7.60136e-07  3.73151e+07
       723.50000  7.30718e-07  3.58856e+07
       723.60000  7.30718e-07  3.58929e+07
       723.70000  7.30718e-07  3.59075e+07
       723.80000  7.28476e-07  3.58046e+07
       723.90000  7.28476e-07  3.58119e+07
       724.00000  7.28476e-07  3.58192e+07
       724.10000  7.28476e-07  3.58264e+07
       724.20000  7.28476e-07  3.58337e+07
       724.30000  7.28476e-07  3.58410e+07
       724.40000  7.28476e-07  3.58483e+07
       724.50000  6.51758e-07  3.20730e+07
       724.60000  6.51758e-07  3.20730e+07
       724.70000  6.51758e-07  3.20730e+07
       724.80000  6.51758e-07  3.20730e+07
       724.90000  6.51758e-07  3.20730e+07
       725.00000  6.51758e-07  3.20730e+07
       725.10000  6.51758e-07  3.20860e+07
       725.20000  6.51758e-07  3.20991e+07
       725.30000  6.51758e-07  3.21056e+07
       725.40000  6.51758e-07  3.21186e+07
       725.50000  5.82008e-07  2.86872e+07
       725.60000  5.82008e-07  2.86930e+07
       725.70000  5.82008e-07  2.86930e+07
       725.80000  5.82008e-07  2.86988e+07
       725.90000  5.82008e-07  2.86988e+07
       726.00000  5.82008e-07  2.86988e+07
       726.10000  5.82008e-07  2.86988e+07
       726.20000  5.82008e-07  2.86988e+07
       726.30000  5.80494e-07  2.86183e+07
       726.40000  5.80494e-07  2.86125e+07
       726.50000  5.50831e-07  2.71450e+07
       726.60000  5.50831e-07  2.71395e+07
       726.70000  5.50831e-07  2.71340e+07
       726.80000  5.50831e-07  2.71229e+07
       726.90000  5.50831e-07  2.71119e+07
       727.00000  5.50831e-07  2.71009e+07
       727.10000  5.50831e-07  2.70624e+07
       727.20000  5.50831e-07  2.70238e+07
       727.30000  5.50831e-07  2.69852e+07
       727.40000  5.50831e-07  2.69522e+07
       727.50000  7.17213e-07  3.50502e+07
       727.60000  7.17213e-07  3.50072e+07
       727.70000  7.17213e-07  3.49713e+07
       727.80000  7.17213e-07  3.49354e+07
       727.90000  7.17213e-07  3.48996e+07
       728.00000  7.17213e-07  3.48709e+07
       728.10000  7.17213e-07  3.48422e+07
       728.20000  7.17213e-07  3.48135e+07
       728.30000  7.17213e-07  3.47848e+07
       728.40000  7.17213e-07  3.47633e+07
       728.50000  5.21370e-07  2.52551e+07
       728.60000  5.21370e-07  2.52447e+07
       728.70000  5.21370e-07  2.52291e+07
       728.80000  5.21480e-07  2.52292e+07
       728.90000  5.21480e-07  2.52188e+07
       729.00000  5.21480e-07  2.52135e+07
       729.10000  5.21480e-07  2.52083e+07
       729.20000  5.21480e-07  2.52031e+07
       729.30000  5.21480e-07  2.52031e+07
       729.40000  5.21480e-07  2.51979e+07
       729.50000  6.25298e-07  3.02206e+07
       729.60000  6.25298e-07  3.02206e+07
       729.70000  6.25298e-07  3.02269e+07
       729.80000  6.25298e-07  3.02332e+07
       729.90000  6.25298e-07  3.02457e+07
       730.00000  6.25298e-07  3.02582e+07
       730.10000  6.25298e-07  3.02707e+07
       730.20000  6.25298e-07  3.02832e+07
       730.30000  6.25298e-07  3.03019e+07
       730.40000  6.25298e-07  3.03207e+07
       730.50000  4.53780e-07  2.20174e+07
       730.60000  4.53780e-07  2.20356e+07
       730.70000  4.53780e-07  2.20537e+07
       730.80000  4.53780e-07  2.20719e+07
       730.90000  4.53780e-07  2.20946e+07
       731.00000  4.53780e-07  2.21173e+07
       731.10000  4.53780e-07  2.21127e+07
       731.20000  4.53780e-07  2.21082e+07
       731.30000  4.53446e-07  2.20874e+07
       731.40000  4.53446e-07  2.20874e+07
       731.50000  5.14113e-07  2.50373e+07
       731.60000  5.14113e-07  2.50322e+07
       731.70000  5.14113e-07  2.50270e+07
       731.80000  5.14113e-07  2.50270e+07
       731.90000  5.14113e-07  2.50219e+07
       732.00000  5.14113e-07  2.50167e+07
       732.10000  5.14113e-07  2.50116e+07
       732.20000  5.14113e-07  2.50064e+07
       732.30000  5.14113e-07  2.50064e+07
       732.40000  5.14113e-07  2.50013e+07
       732.50000  4.93853e-07  2.40111e+07
       732.60000  4.93853e-07  2.40062e+07
       732.70000  4.93853e-07  2.40012e+07
       732.80000  4.93853e-07  2.39963e+07
       732.90000  4.93853e-07  2.39914e+07
       733.00000  4.93853e-07  2.39864e+07
       733.10000  4.93853e-07  2.39815e+07
       733.20000  4.93853e-07  2.39716e+07
       733.30000  4.93853e-07  2.39667e+07
       733.40000  4.93853e-07  2.39568e+07
       733.50000  5.27130e-07  2.55658e+07
       733.60000  5.27130e-07  2.55605e+07
       733.70000  5.27130e-07  2.55500e+07
       733.80000  5.26259e-07  2.55025e+07
       733.90000  5.26259e-07  2.54973e+07
       734.00000  5.26259e-07  2.54920e+07
       734.10000  5.26259e-07  2.54867e+07
       734.20000  5.26259e-07  2.54815e+07
       734.30000  5.26259e-07  2.54762e+07
       734.40000  5.26259e-07  2.54762e+07
       734.50000  4.16280e-07  2.01479e+07
       734.60000  4.16280e-07  2.01438e+07
       734.70000  4.16280e-07  2.01438e+07
       734.80000  4.16280e-07  2.01396e+07
       734.90000  4.16280e-07  2.01396e+07
       735.00000  4.16280e-07  2.01354e+07
       735.10000  4.16280e-07  2.01354e+07
       735.20000  4.16280e-07  2.01354e+07
       735.30000  4.16280e-07  2.01354e+07
       735.40000  4.16280e-07  2.01313e+07
       735.50000  4.07196e-07  1.96920e+07
       735.60000  4.07196e-07  1.96920e+07
       735.70000  4.07196e-07  1.96920e+07
       735.80000  4.07196e-07  1.96961e+07
       735.90000  4.07196e-07  1.96961e+07
       736.00000  4.07196e-07  1.96961e+07
       736.10000  4.07196e-07  1.96961e+07
       736.20000  4.07196e-07  1.97001e+07
       736.30000  4.06418e-07  1.96625e+07
       736.40000  4.06418e-07  1.96666e+07
       736.50000  4.31991e-07  2.09041e+07
       736.60000  4.31991e-07  2.09084e+07
       736.70000  4.31991e-07  2.09127e+07
       736.80000  4.31991e-07  2.09127e+07
       736.90000  4.31991e-07  2.09170e+07
       737.00000  4.31991e-07  2.09213e+07
       737.10000  4.31991e-07  2.08997e+07
       737.20000  4.31991e-07  2.08738e+07
       737.30000  4.31991e-07  2.08522e+07
       737.40000  4.31991e-07  2.08306e+07
       737.50000  4.50160e-07  2.16797e+07
       737.60000  4.50160e-07  2.16572e+07
       737.70000  4.50160e-07  2.16347e+07
       737.80000  4.50160e-07  2.16122e+07
       737.90000  4.50160e-07  2.15942e+07
       738.00000  4.50160e-07  2.15717e+07
       738.10000  4.50160e-07  2.15492e+07
       738.20000  4.50160e-07  2.15267e+07
       738.30000  4.50160e-07  2.15087e+07
       738.40000  4.50160e-07  2.14907e+07
       738.50000  4.88737e-07  2.33079e+07
       738.60000  4.88737e-07  2.32883e+07
       738.70000  4.88737e-07  2.32688e+07
       738.80000  4.86684e-07  2.31516e+07
       738.90000  4.86684e-07  2.31321e+07
       739.00000  4.86684e-07  2.31126e+07
       739.10000  4.86684e-07  2.30737e+07
       739.20000  4.86684e-07  2.30396e+07
       739.30000  4.86684e-07  2.30104e+07
       739.40000  4.86684e-07  2.29812e+07
       739.50000  4.41578e-07  2.08248e+07
       739.60000  4.41578e-07  2.08027e+07
       739.70000  4.41578e-07  2.07851e+07
       739.80000  4.41578e-07  2.07630e+07
       739.90000  4.41578e-07  2.07497e+07
       740.00000  4.41578e-07  2.07321e+07
       740.10000  4.41578e-07  2.07232e+07
       740.20000  4.41578e-07  2.07100e+07
       740.30000  4.41578e-07  2.07012e+07
       740.40000  4.41578e-07  2.06967e+07
       740.50000  5.82337e-07  2.72883e+07
       740.60000  5.82337e-07  2.72825e+07
       740.70000  5.82337e-07  2.72825e+07
       740.80000  5.82337e-07  2.72825e+07
       740.90000  5.82337e-07  2.72883e+07
       741.00000  5.82337e-07  2.72941e+07
       741.10000  5.82337e-07  2.73058e+07
       741.20000  5.82337e-07  2.73174e+07
       741.30000  5.81941e-07  2.73105e+07
       741.40000  5.81941e-07  2.73279e+07
       741.50000  6.19699e-07  2.91196e+07
       741.60000  6.19699e-07  2.91444e+07
       741.70000  6.19699e-07  2.91754e+07
       741.80000  6.19699e-07  2.92002e+07
       741.90000  6.19699e-07  2.92374e+07
       742.00000  6.19699e-07  2.92684e+07
       742.10000  6.19699e-07  2.93056e+07
       742.20000  6.19699e-07  2.93489e+07
       742.30000  6.19699e-07  2.93923e+07
       742.40000  6.19699e-07  2.94357e+07
       742.50000  5.03794e-07  2.39705e+07
       742.60000  5.03794e-07  2.40108e+07
       742.70000  5.03794e-07  2.40562e+07
       742.80000  5.03794e-07  2.41015e+07
       742.90000  5.03794e-07  2.41519e+07
       743.00000  5.03794e-07  2.42023e+07
       743.10000  5.03794e-07  2.41922e+07
       743.20000  5.03794e-07  2.41871e+07
       743.30000  5.03794e-07  2.41821e+07
       743.40000  5.03794e-07  2.41720e+07
       743.50000  6.86854e-07  3.29484e+07
       743.60000  6.86854e-07  3.29415e+07
       743.70000  6.86854e-07  3.29347e+07
       743.80000  6.86548e-07  3.29131e+07
       743.90000  6.86548e-07  3.29062e+07
       744.00000  6.86548e-07  3.28994e+07
       744.10000  6.86548e-07  3.28994e+07
       744.20000  6.86548e-07  3.28925e+07
       744.30000  6.86548e-07  3.28925e+07
       744.40000  6.86548e-07  3.28925e+07
       744.50000  6.25380e-07  2.99557e+07
       744.60000  6.25380e-07  2.99557e+07
       744.70000  6.25380e-07  2.99557e+07
       744.80000  6.25380e-07  2.99557e+07
       744.90000  6.25380e-07  2.99619e+07
       745.00000  6.25380e-07  2.99619e+07
       745.10000  6.25380e-07  2.99807e+07
       745.20000  6.25380e-07  2.99995e+07
       745.30000  6.25380e-07  3.00120e+07
       745.40000  6.25380e-07  3.00307e+07
       745.50000  5.72636e-07  2.75094e+07
       745.60000  5.72636e-07  2.75209e+07
       745.70000  5.72636e-07  2.75323e+07
       745.80000  5.72636e-07  2.75438e+07
       745.90000  5.72636e-07  2.75495e+07
       746.00000  5.72636e-07  2.75610e+07
       746.10000  5.72636e-07  2.75667e+07
       746.20000  5.72636e-07  2.75724e+07
       746.30000  5.70024e-07  2.74524e+07
       746.40000  5.70024e-07  2.74581e+07
       746.50000  6.09899e-07  2.93849e+07
       746.60000  6.09899e-07  2.93849e+07
       746.70000  6.09899e-07  2.93910e+07
       746.80000  6.09899e-07  2.93910e+07
       746.90000  6.09899e-07  2.93910e+07
       747.00000  6.09899e-07  2.93910e+07
       747.10000  6.09899e-07  2.93727e+07
       747.20000  6.09899e-07  2.93605e+07
       747.30000  6.09899e-07  2.93483e+07
       747.40000  6.09899e-07  2.93361e+07
       747.50000  5.27807e-07  2.53770e+07
       747.60000  5.27807e-07  2.53664e+07
       747.70000  5.27807e-07  2.53559e+07
       747.80000  5.27807e-07  2.53453e+07
       747.90000  5.27807e-07  2.53347e+07
       748.00000  5.27807e-07  2.53242e+07
       748.10000  5.27807e-07  2.53189e+07
       748.20000  5.27807e-07  2.53084e+07
       748.30000  5.27807e-07  2.52978e+07
       748.40000  5.27807e-07  2.52925e+07
       748.50000  5.83287e-07  2.79394e+07
       748.60000  5.83287e-07  2.79278e+07
       748.70000  5.83287e-07  2.79219e+07
       748.80000  5.81230e-07  2.78119e+07
       748.90000  5.81230e-07  2.78060e+07
       749.00000  5.81230e-07  2.78002e+07
       749.10000  5.81230e-07  2.77886e+07
       749.20000  5.81230e-07  2.77828e+07
       749.30000  5.81230e-07  2.77770e+07
       749.40000  5.81230e-07  2.77712e+07
       749.50000  6.21185e-07  2.96740e+07
       749.60000  6.21185e-07  2.96678e+07
       749.70000  6.21185e-07  2.96554e+07
       749.80000  6.21185e-07  2.96492e+07
       749.90000  6.21185e-07  2.96492e+07
       750.00000  6.21185e-07  2.96430e+07
       750.10000  6.21185e-07  2.96367e+07
       750.20000  6.21185e-07  2.96305e+07
       750.30000  6.21185e-07  2.96243e+07
       750.40000  6.21185e-07  2.96243e+07
       750.50000  5.92530e-07  2.82518e+07
       750.60000  5.92530e-07  2.82459e+07
       750.70000  5.92530e-07  2.82459e+07
       750.80000  5.92530e-07  2.82400e+07
       750.90000  5.92530e-07  2.82400e+07
       751.00000  5.92530e-07  2.82341e+07
       751.10000  5.92530e-07  2.82341e+07
       751.20000  5.92530e-07  2.82341e+07
       751.30000  5.91204e-07  2.81650e+07
       751.40000  5.91204e-07  2.81650e+07
       751.50000  6.64463e-07  3.16550e+07
       751.60000  6.64463e-07  3.16550e+07
       751.70000  6.64463e-07  3.16550e+07
       751.80000  6.64463e-07  3.16550e+07
       751.90000  6.64463e-07  3.16550e+07
       752.00000  6.64463e-07  3.16550e+07
       752.10000  6.64463e-07  3.16550e+07
       752.20000  6.64463e-07  3.16550e+07
       752.30000  6.64463e-07  3.16550e+07
       752.40000  6.64463e-07  3.16550e+07
       752.50000  4.66370e-07  2.22225e+07
       752.60000  4.66370e-07  2.22225e+07
       752.70000  4.66370e-07  2.22225e+07
       752.80000  4.66370e-07  2.22272e+07
       752.90000  4.66370e-07  2.22272e+07
       753.00000  4.66370e-07  2.22318e+07
       753.10000  4.66370e-07  2.22318e+07
       753.20000  4.66370e-07  2.22318e+07
       753.30000  4.66370e-07  2.22318e+07
       753.40000  4.66370e-07  2.22318e+07
       753.50000  5.35589e-07  2.55315e+07
       753.60000  5.35589e-07  2.55315e+07
       753.70000  5.35589e-07  2.55315e+07
       753.80000  5.35319e-07  2.55186e+07
       753.90000  5.35319e-07  2.55186e+07
       754.00000  5.35319e-07  2.55186e+07
       754.10000  5.35319e-07  2.55186e+07
       754.20000  5.35319e-07  2.55133e+07
       754.30000  5.35319e-07  2.55133e+07
       754.40000  5.35319e-07  2.55133e+07
       754.50000  6.80321e-07  3.24241e+07
       754.60000  6.80321e-07  3.24241e+07
       754.70000  6.80321e-07  3.24173e+07
       754.80000  6.80321e-07  3.24173e+07
       754.90000  6.80321e-07  3.24105e+07
       755.00000  6.80321e-07  3.24105e+07
       755.10000  6.80321e-07  3.24037e+07
       755.20000  6.80321e-07  3.24037e+07
       755.30000  6.80321e-07  3.23969e+07
       755.40000  6.80321e-07  3.23969e+07
       755.50000  5.78262e-07  2.75311e+07
       755.60000  5.78262e-07  2.75253e+07
       755.70000  5.78262e-07  2.75253e+07
       755.80000  5.78262e-07  2.75195e+07
       755.90000  5.78262e-07  2.75137e+07
       756.00000  5.78262e-07  2.75137e+07
       756.10000  5.78262e-07  2.75079e+07
       756.20000  5.78262e-07  2.75022e+07
       756.30000  5.77341e-07  2.74526e+07
       756.40000  5.77341e-07  2.74526e+07
       756.50000  6.61893e-07  3.14664e+07
       756.60000  6.61893e-07  3.14598e+07
       756.70000  6.61893e-07  3.14531e+07
       756.80000  6.61893e-07  3.14531e+07
       756.90000  6.61893e-07  3.14465e+07
       757.00000  6.61893e-07  3.14399e+07
       757.10000  6.61893e-07  3.14333e+07
       757.20000  6.61893e-07  3.14267e+07
       757.30000  6.61893e-07  3.14267e+07
       757.40000  6.61893e-07  3.14200e+07
       757.50000  6.70287e-07  3.18118e+07
       757.60000  6.70287e-07  3.18051e+07
       757.70000  6.70287e-07  3.17984e+07
       757.80000  6.70287e-07  3.17917e+07
       757.90000  6.70287e-07  3.17850e+07
       758.00000  6.70287e-07  3.17850e+07
       758.10000  6.70287e-07  3.17783e+07
       758.20000  6.70287e-07  3.17716e+07
       758.30000  6.70287e-07  3.17649e+07
       758.40000  6.70287e-07  3.17582e+07
       758.50000  7.23752e-07  3.42841e+07
       758.60000  7.23752e-07  3.42769e+07
       758.70000  7.23752e-07  3.42697e+07
       758.80000  7.21799e-07  3.41700e+07
       758.90000  7.21799e-07  3.41628e+07
       759.00000  7.21799e-07  3.41556e+07
       759.10000  7.21799e-07  3.41556e+07
       759.20000  7.21799e-07  3.41483e+07
       759.30000  7.21799e-07  3.41483e+07
       759.40000  7.21799e-07  3.41411e+07
       759.50000  6.64950e-07  3.14521e+07
       759.60000  6.64950e-07  3.14521e+07
       759.70000  6.64950e-07  3.14455e+07
       759.80000  6.64950e-07  3.14455e+07
       759.90000  6.64950e-07  3.14455e+07
       760.00000  6.64950e-07  3.14455e+07
       760.10000  6.64950e-07  3.14455e+07
       760.20000  6.64950e-07  3.14455e+07
       760.30000  6.64950e-07  3.14521e+07
       760.40000  6.64950e-07  3.14521e+07
       760.50000  5.57871e-07  2.63873e+07
       760.60000  5.57871e-07  2.63929e+07
       760.70000  5.57871e-07  2.63929e+07
       760.80000  5.57871e-07  2.63985e+07
       760.90000  5.57871e-07  2.63985e+07
       761.00000  5.57871e-07  2.64040e+07
       761.10000  5.57871e-07  2.64264e+07
       761.20000  5.57871e-07  2.64431e+07
       761.30000  5.56711e-07  2.64048e+07
       761.40000  5.56711e-07  2.64215e+07
       761.50000  4.28636e-07  2.03559e+07
       761.60000  4.28636e-07  2.03645e+07
       761.70000  4.28636e-07  2.03731e+07
       761.80000  4.28636e-07  2.03816e+07
       761.90000  4.28636e-07  2.03902e+07
       762.00000  4.28636e-07  2.03945e+07
       762.10000  4.28636e-07  2.04031e+07
       762.20000  4.28636e-07  2.04074e+07
       762.30000  4.28636e-07  2.04116e+07
       762.40000  4.28636e-07  2.04116e+07
       762.50000  4.34892e-07  2.07095e+07
       762.60000  4.34892e-07  2.07139e+07
       762.70000  4.34892e-07  2.07139e+07
       762.80000  4.34892e-07  2.07095e+07
       762.90000  4.34892e-07  2.07095e+07
       763.00000  4.34892e-07  2.07052e+07
       763.10000  4.34892e-07  2.07008e+07
       763.20000  4.34892e-07  2.06965e+07
       763.30000  4.34892e-07  2.06878e+07
       763.40000  4.34892e-07  2.06791e+07
       763.50000  3.64353e-07  1.73177e+07
       763.60000  3.64353e-07  1.73104e+07
       763.70000  3.64353e-07  1.73031e+07
       763.80000  3.63420e-07  1.72479e+07
       763.90000  3.63420e-07  1.72370e+07
       764.00000  3.63420e-07  1.72261e+07
       764.10000  3.63420e-07  1.72152e+07
       764.20000  3.63420e-07  1.72007e+07
       764.30000  3.63420e-07  1.71861e+07
       764.40000  3.63420e-07  1.71716e+07
       764.50000  3.54958e-07  1.67576e+07
       764.60000  3.54958e-07  1.67434e+07
       764.70000  3.54958e-07  1.67256e+07
       764.80000  3.54958e-07  1.67079e+07
       764.90000  3.54958e-07  1.66901e+07
       765.00000  3.54958e-07  1.66688e+07
       765.10000  3.54958e-07  1.66298e+07
       765.20000  3.54958e-07  1.65907e+07
       765.30000  3.54958e-07  1.65552e+07
       765.40000  3.54958e-07  1.65197e+07
       765.50000  3.31823e-07  1.54132e+07
       765.60000  3.31823e-07  1.53866e+07
       765.70000  3.31823e-07  1.53568e+07
       765.80000  3.31823e-07  1.53336e+07
       765.90000  3.31823e-07  1.53103e+07
       766.00000  3.31823e-07  1.52871e+07
       766.10000  3.31823e-07  1.52672e+07
       766.20000  3.31823e-07  1.52473e+07
       766.30000  3.31814e-07  1.52303e+07
       766.40000  3.31814e-07  1.52170e+07
       766.50000  2.46169e-07  1.12795e+07
       766.60000  2.46169e-07  1.12696e+07
       766.70000  2.46169e-07  1.12647e+07
       766.80000  2.46169e-07  1.12573e+07
       766.90000  2.46169e-07  1.12524e+07
       767.00000  2.46169e-07  1.12499e+07
       767.10000  2.46169e-07  1.12622e+07
       767.20000  2.46169e-07  1.12770e+07
       767.30000  2.46169e-07  1.12893e+07
       767.40000  2.46169e-07  1.13016e+07
       767.50000  3.63881e-07  1.67240e+07
       767.60000  3.63881e-07  1.67422e+07
       767.70000  3.63881e-07  1.67604e+07
       767.80000  3.63881e-07  1.67749e+07
       767.90000  3.63881e-07  1.67931e+07
       768.00000  3.63881e-07  1.68077e+07
       768.10000  3.63881e-07  1.68222e+07
       768.20000  3.63881e-07  1.68368e+07
       768.30000  3.63881e-07  1.68477e+07
       768.40000  3.63881e-07  1.68622e+07
       768.50000  3.31533e-07  1.53732e+07
       768.60000  3.31533e-07  1.53831e+07
       768.70000  3.31533e-07  1.53931e+07
       768.80000  3.31357e-07  1.53948e+07
       768.90000  3.31357e-07  1.54048e+07
       769.00000  3.31357e-07  1.54114e+07
       769.10000  3.31357e-07  1.54213e+07
       769.20000  3.31357e-07  1.54280e+07
       769.30000  3.31357e-07  1.54346e+07
       769.40000  3.31357e-07  1.54412e+07
       769.50000  1.50708e-07  7.02450e+06
       769.60000  1.50708e-07  7.02751e+06
       769.70000  1.50708e-07  7.02902e+06
       769.80000  1.50708e-07  7.03203e+06
       769.90000  1.50708e-07  7.03354e+06
       770.00000  1.50708e-07  7.03354e+06
       770.10000  1.50708e-07  7.03505e+06
       770.20000  1.50708e-07  7.03656e+06
       770.30000  1.50708e-07  7.03656e+06
       770.40000  1.50708e-07  7.03656e+06
       770.50000  2.34952e-07  1.09699e+07
       770.60000  2.34952e-07  1.09699e+07
       770.70000  2.34952e-07  1.09699e+07
       770.80000  2.34952e-07  1.09699e+07
       770.90000  2.34952e-07  1.09676e+07
       771.00000  2.34952e-07  1.09652e+07
       771.10000  2.34952e-07  1.09746e+07
       771.20000  2.34952e-07  1.09817e+07
       771.30000  2.34233e-07  1.09551e+07
       771.40000  2.34233e-07  1.09621e+07
       771.50000  1.19564e-07  5.59916e+06
       771.60000  1.19564e-07  5.60156e+06
       771.70000  1.19564e-07  5.60514e+06
       771.80000  1.19564e-07  5.60753e+06
       771.90000  1.19564e-07  5.60873e+06
       772.00000  1.19564e-07  5.61112e+06
       772.10000  1.19564e-07  5.61232e+06
       772.20000  1.19564e-07  5.61351e+06
       772.30000  1.19564e-07  5.61471e+06
       772.40000  1.19564e-07  5.61590e+06
       772.50000  1.61410e-07  7.58143e+06
       772.60000  1.61410e-07  7.58143e+06
       772.70000  1.61410e-07  7.58143e+06
       772.80000  1.61410e-07  7.57981e+06
       772.90000  1.61410e-07  7.57981e+06
       773.00000  1.61410e-07  7.57820e+06
       773.10000  1.61410e-07  7.56851e+06
       773.20000  1.61410e-07  7.56044e+06
       773.30000  1.61410e-07  7.55076e+06
       773.40000  1.61410e-07  7.54269e+06
       773.50000  2.86806e-07  1.33881e+07
       773.60000  2.86806e-07  1.33766e+07
       773.70000  2.86806e-07  1.33651e+07
       773.80000  2.85671e-07  1.33008e+07
       773.90000  2.85671e-07  1.32894e+07
       774.00000  2.85671e-07  1.32780e+07
       774.10000  2.85671e-07  1.32694e+07
       774.20000  2.85671e-07  1.32608e+07
       774.30000  2.85671e-07  1.32551e+07
       774.40000  2.85671e-07  1.32466e+07
       774.50000  2.76805e-07  1.28299e+07
       774.60000  2.76805e-07  1.28271e+07
       774.70000  2.76805e-07  1.28216e+07
       774.80000  2.76805e-07  1.28188e+07
       774.90000  2.76805e-07  1.28161e+07
       775.00000  2.76805e-07  1.28133e+07
       775.10000  2.76805e-07  1.28133e+07
       775.20000  2.76805e-07  1.28133e+07
       775.30000  2.76805e-07  1.28133e+07
       775.40000  2.76805e-07  1.28133e+07
       775.50000  2.67132e-07  1.23682e+07
       775.60000  2.67132e-07  1.23709e+07
       775.70000  2.67132e-07  1.23736e+07
       775.80000  2.67132e-07  1.23762e+07
       775.90000  2.67132e-07  1.23816e+07
       776.00000  2.67132e-07  1.23869e+07
       776.10000  2.67132e-07  1.23923e+07
       776.20000  2.67132e-07  1.24003e+07
       776.30000  2.66455e-07  1.23768e+07
       776.40000  2.66455e-07  1.23848e+07
       776.50000  3.66090e-07  1.70268e+07
       776.60000  3.66090e-07  1.70415e+07
       776.70000  3.66090e-07  1.70561e+07
       776.80000  3.66090e-07  1.70708e+07
       776.90000  3.66090e-07  1.70891e+07
       777.00000  3.66090e-07  1.71037e+07
       777.10000  3.66090e-07  1.70964e+07
       777.20000  3.66090e-07  1.70927e+07
       777.30000  3.66090e-07  1.70854e+07
       777.40000  3.66090e-07  1.70781e+07
       777.50000  2.55821e-07  1.19289e+07
       777.60000  2.55821e-07  1.19264e+07
       777.70000  2.55821e-07  1.19213e+07
       777.80000  2.55821e-07  1.19187e+07
       777.90000  2.55821e-07  1.19161e+07
       778.00000  2.55821e-07  1.19110e+07
       778.10000  2.55821e-07  1.19085e+07
       778.20000  2.55821e-07  1.19059e+07
       778.30000  2.55821e-07  1.19033e+07
       778.40000  2.55821e-07  1.19008e+07
       778.50000  1.31580e-07  6.12110e+06
       778.60000  1.31580e-07  6.11978e+06
       778.70000  1.31580e-07  6.11846e+06
       778.80000  1.31247e-07  6.10297e+06
       778.90000  1.31247e-07  6.10297e+06
       779.00000  1.31247e-07  6.10165e+06
       779.10000  1.31247e-07  6.10428e+06
       779.20000  1.31247e-07  6.10559e+06
       779.30000  1.31247e-07  6.10822e+06
       779.40000  1.31247e-07  6.10953e+06
       779.50000  2.72704e-07  1.26971e+07
       779.60000  2.72704e-07  1.26998e+07
       779.70000  2.72704e-07  1.27026e+07
       779.80000  2.72704e-07  1.27053e+07
       779.90000  2.72704e-07  1.27080e+07
       780.00000  2.72704e-07  1.27107e+07
       780.10000  2.72704e-07  1.27107e+07
       780.20000  2.72704e-07  1.27135e+07
       780.30000  2.72704e-07  1.27135e+07
       780.40000  2.72704e-07  1.27135e+07
       780.50000  1.55718e-07  7.25955e+06
       780.60000  1.55718e-07  7.25955e+06
       780.70000  1.55718e-07  7.25955e+06
       780.80000  1.55718e-07  7.25955e+06
       780.90000  1.55718e-07  7.25955e+06
       781.00000  1.55718e-07  7.25800e+06
       781.10000  1.55718e-07  7.25800e+06
       781.20000  1.55718e-07  7.25644e+06
       781.30000  1.54852e-07  7.21455e+06
       781.40000  1.54852e-07  7.21300e+06
       781.50000  2.19317e-07  1.02136e+07
       781.60000  2.19317e-07  1.02114e+07
       781.70000  2.19317e-07  1.02092e+07
       781.80000  2.19317e-07  1.02070e+07
       781.90000  2.19317e-07  1.02026e+07
       782.00000  2.19317e-07  1.02004e+07
       782.10000  2.19317e-07  1.01960e+07
       782.20000  2.19317e-07  1.01916e+07
       782.30000  2.19317e-07  1.01895e+07
       782.40000  2.19317e-07  1.01851e+07
       782.50000  1.60846e-07  7.46649e+06
       782.60000  1.60846e-07  7.46167e+06
       782.70000  1.60846e-07  7.45845e+06
       782.80000  1.60846e-07  7.45523e+06
       782.90000  1.60846e-07  7.45041e+06
       783.00000  1.60846e-07  7.44719e+06
       783.10000  1.60846e-07  7.45041e+06
       783.20000  1.60846e-07  7.45362e+06
       783.30000  1.60846e-07  7.45684e+06
       783.40000  1.60846e-07  7.45845e+06
       783.50000  2.53264e-07  1.17489e+07
       783.60000  2.53264e-07  1.17540e+07
       783.70000  2.53264e-07  1.17565e+07
       783.80000  2.51973e-07  1.17016e+07
       783.90000  2.51973e-07  1.17067e+07
       784.00000  2.51973e-07  1.17092e+07
       784.10000  2.51973e-07  1.17117e+07
       784.20000  2.51973e-07  1.17167e+07
       784.30000  2.51973e-07  1.17193e+07
       784.40000  2.51973e-07  1.17218e+07
       784.50000  1.95268e-07  9.08580e+06
       784.60000  1.95268e-07  9.08775e+06
       784.70000  1.95268e-07  9.08971e+06
       784.80000  1.95268e-07  9.09166e+06
       784.90000  1.95268e-07  9.09361e+06
       785.00000  1.95268e-07  9.09361e+06
       785.10000  1.95268e-07  9.09361e+06
       785.20000  1.95268e-07  9.09361e+06
       785.30000  1.95268e-07  9.09361e+06
       785.40000  1.95268e-07  9.09361e+06
       785.50000  1.72375e-07  8.02752e+06
       785.60000  1.72375e-07  8.02752e+06
       785.70000  1.72375e-07  8.02752e+06
       785.80000  1.72375e-07  8.02752e+06
       785.90000  1.72375e-07  8.02752e+06
       786.00000  1.72375e-07  8.02752e+06
       786.10000  1.72375e-07  8.02752e+06
       786.20000  1.72375e-07  8.02752e+06
       786.30000  1.72086e-07  8.01406e+06
       786.40000  1.72086e-07  8.01406e+06
       786.50000  2.40792e-07  1.12137e+07
       786.60000  2.40792e-07  1.12137e+07
       786.70000  2.40792e-07  1.12137e+07
       786.80000  2.40792e-07  1.12137e+07
       786.90000  2.40792e-07  1.12137e+07
       787.00000  2.40792e-07  1.12137e+07
       787.10000  2.40792e-07  1.12137e+07
       787.20000  2.40792e-07  1.12137e+07
       787.30000  2.40792e-07  1.12137e+07
       787.40000  2.40792e-07  1.12137e+07
       787.50000  2.23158e-07  1.03925e+07
       787.60000  2.23158e-07  1.03925e+07
       787.70000  2.23158e-07  1.03925e+07
       787.80000  2.23158e-07  1.03925e+07
       787.90000  2.23158e-07  1.03925e+07
       788.00000  2.23158e-07  1.03925e+07
       788.10000  2.23158e-07  1.03925e+07
       788.20000  2.23158e-07  1.03925e+07
       788.30000  2.23158e-07  1.03925e+07
       788.40000  2.23158e-07  1.03925e+07
       788.50000  1.94554e-07  9.06037e+06
       788.60000  1.94554e-07  9.06037e+06
       788.70000  1.94554e-07  9.06037e+06
       788.80000  1.94588e-07  9.06195e+06
       788.90000  1.94588e-07  9.06195e+06
       789.00000  1.94588e-07  9.06195e+06
       789.10000  1.94588e-07  9.05806e+06
       789.20000  1.94588e-07  9.05222e+06
       789.30000  1.94588e-07  9.04639e+06
       789.40000  1.94588e-07  9.04250e+06
       789.50000  2.64592e-07  1.22877e+07
       789.60000  2.64592e-07  1.22797e+07
       789.70000  2.64592e-07  1.22744e+07
       789.80000  2.64592e-07  1.22665e+07
       789.90000  2.64592e-07  1.22586e+07
       790.00000  2.64592e-07  1.22533e+07
       790.10000  2.64592e-07  1.22453e+07
       790.20000  2.64592e-07  1.22400e+07
       790.30000  2.64592e-07  1.22321e+07
       790.40000  2.64592e-07  1.22268e+07
       790.50000  2.79916e-07  1.29265e+07
       790.60000  2.79916e-07  1.29181e+07
       790.70000  2.79916e-07  1.29125e+07
       790.80000  2.79916e-07  1.29041e+07
       790.90000  2.79916e-07  1.28985e+07
       791.00000  2.79916e-07  1.28901e+07
       791.10000  2.79916e-07  1.28817e+07
       791.20000  2.79916e-07  1.28761e+07
       791.30000  2.79100e-07  1.28302e+07
       791.40000  2.79100e-07  1.28218e+07
       791.50000  2.18239e-07  1.00194e+07
       791.60000  2.18239e-07  1.00128e+07
       791.70000  2.18239e-07  1.00084e+07
       791.80000  2.18239e-07  1.00019e+07
       791.90000  2.18239e-07  9.99754e+06
       792.00000  2.18239e-07  9.99099e+06
       792.10000  2.18239e-07  9.98662e+06
       792.20000  2.18239e-07  9.98226e+06
       792.30000  2.18239e-07  9.97571e+06
       792.40000  2.18239e-07  9.97135e+06
       792.50000  2.29371e-07  1.04754e+07
       792.60000  2.29371e-07  1.04708e+07
       792.70000  2.29371e-07  1.04662e+07
       792.80000  2.29371e-07  1.04616e+07
       792.90000  2.29371e-07  1.04570e+07
       793.00000  2.29371e-07  1.04524e+07
       793.10000  2.29371e-07  1.04455e+07
       793.20000  2.29371e-07  1.04364e+07
       793.30000  2.29371e-07  1.04295e+07
       793.40000  2.29371e-07  1.04226e+07
       793.50000  2.28628e-07  1.03820e+07
       793.60000  2.28628e-07  1.03774e+07
       793.70000  2.28628e-07  1.03706e+07
       793.80000  2.27976e-07  1.03387e+07
       793.90000  2.27976e-07  1.03342e+07
       794.00000  2.27976e-07  1.03319e+07
       794.10000  2.27976e-07  1.03273e+07
       794.20000  2.27976e-07  1.03273e+07
       794.30000  2.27976e-07  1.03250e+07
       794.40000  2.27976e-07  1.03250e+07
       794.50000  2.89887e-07  1.31290e+07
       794.60000  2.89887e-07  1.31290e+07
       794.70000  2.89887e-07  1.31319e+07
       794.80000  2.89887e-07  1.31319e+07
       794.90000  2.89887e-07  1.31348e+07
       795.00000  2.89887e-07  1.31406e+07
       795.10000  2.89887e-07  1.31609e+07
       795.20000  2.89887e-07  1.31812e+07
       795.30000  2.89887e-07  1.32014e+07
       795.40000  2.89887e-07  1.32217e+07
       795.50000  1.61786e-07  7.38878e+06
       795.60000  1.61786e-07  7.39849e+06
       795.70000  1.61786e-07  7.40658e+06
       795.80000  1.61786e-07  7.41466e+06
       795.90000  1.61786e-07  7.42275e+06
       796.00000  1.61786e-07  7.42922e+06
       796.10000  1.61786e-07  7.43570e+06
       796.20000  1.61786e-07  7.44217e+06
       796.30000  1.61571e-07  7.43711e+06
       796.40000  1.61571e-07  7.44196e+06
       796.50000  1.91698e-07  8.83537e+06
       796.60000  1.91698e-07  8.83921e+06
       796.70000  1.91698e-07  8.84304e+06
       796.80000  1.91698e-07  8.84496e+06
       796.90000  1.91698e-07  8.84687e+06
       797.00000  1.91698e-07  8.84879e+06
       797.10000  1.91698e-07  8.85071e+06
       797.20000  1.91698e-07  8.85071e+06
       797.30000  1.91698e-07  8.85071e+06
       797.40000  1.91698e-07  8.84879e+06
       797.50000  2.69471e-07  1.24361e+07
       797.60000  2.69471e-07  1.24334e+07
       797.70000  2.69471e-07  1.24280e+07
       797.80000  2.69471e-07  1.24226e+07
       797.90000  2.69471e-07  1.24172e+07
       798.00000  2.69471e-07  1.24091e+07
       798.10000  2.69471e-07  1.24010e+07
       798.20000  2.69471e-07  1.23930e+07
       798.30000  2.69471e-07  1.23822e+07
       798.40000  2.69471e-07  1.23714e+07
       798.50000  1.05587e-07  4.84328e+06
       798.60000  1.05587e-07  4.83800e+06
       798.70000  1.05587e-07  4.83272e+06
       798.80000  1.05346e-07  4.81641e+06
       798.90000  1.05346e-07  4.81008e+06
       799.00000  1.05346e-07  4.80376e+06
       799.10000  1.05346e-07  4.80692e+06
       799.20000  1.05346e-07  4.81114e+06
       799.30000  1.05346e-07  4.81535e+06
       799.40000  1.05346e-07  4.81851e+06
       799.50000  1.09662e-07  5.01925e+06
       799.60000  1.09662e-07  5.02254e+06
       799.70000  1.09662e-07  5.02583e+06
       799.80000  1.09662e-07  5.02802e+06
       799.90000  1.09662e-07  5.03022e+06
       800.00000  1.09662e-07  5.03241e+06
       800.10000  1.09662e-07  5.03460e+06
       800.20000  1.09662e-07  5.03680e+06
       800.30000  1.09662e-07  5.03899e+06
       800.40000  1.09662e-07  5.04009e+06
       800.50000  1.91391e-07  8.79825e+06
       800.60000  1.91391e-07  8.80017e+06
       800.70000  1.91391e-07  8.80017e+06
       800.80000  1.91391e-07  8.80208e+06
       800.90000  1.91391e-07  8.80208e+06
       801.00000  1.91391e-07  8.80208e+06
       801.10000  1.91391e-07  8.79825e+06
       801.20000  1.91391e-07  8.79443e+06
       801.30000  1.90829e-07  8.76479e+06
       801.40000  1.90829e-07  8.76098e+06
       801.50000  1.76607e-07  8.10450e+06
       801.60000  1.76607e-07  8.10097e+06
       801.70000  1.76607e-07  8.09744e+06
       801.80000  1.76607e-07  8.09391e+06
       801.90000  1.76607e-07  8.09038e+06
       802.00000  1.76607e-07  8.08684e+06
       802.10000  1.76607e-07  8.08331e+06
       802.20000  1.76607e-07  8.07978e+06
       802.30000  1.76607e-07  8.07625e+06
       802.40000  1.76607e-07  8.07271e+06
       802.50000  1.21490e-07  5.55090e+06
       802.60000  1.21490e-07  5.54847e+06
       802.70000  1.21490e-07  5.54604e+06
       802.80000  1.21490e-07  5.54240e+06
       802.90000  1.21490e-07  5.53997e+06
       803.00000  1.21490e-07  5.53754e+06
       803.10000  1.21490e-07  5.53511e+06
       803.20000  1.21490e-07  5.53268e+06
       803.30000  1.21490e-07  5.53025e+06
       803.40000  1.21490e-07  5.52660e+06
       803.50000  1.77822e-07  8.08559e+06
       803.60000  1.77822e-07  8.08203e+06
       803.70000  1.77822e-07  8.07847e+06
       803.80000  1.77270e-07  8.04983e+06
       803.90000  1.77270e-07  8.04451e+06
       804.00000  1.77270e-07  8.04096e+06
       804.10000  1.77270e-07  8.03742e+06
       804.20000  1.77270e-07  8.03387e+06
       804.30000  1.77270e-07  8.02855e+06
       804.40000  1.77270e-07  8.02501e+06
       804.50000  1.47185e-07  6.66014e+06
       804.60000  1.47185e-07  6.65572e+06
       804.70000  1.47185e-07  6.65278e+06
       804.80000  1.47185e-07  6.64983e+06
       804.90000  1.47185e-07  6.64542e+06
       805.00000  1.47185e-07  6.64247e+06
       805.10000  1.47185e-07  6.64836e+06
       805.20000  1.47185e-07  6.65572e+06
       805.30000  1.47185e-07  6.66014e+06
       805.40000  1.47185e-07  6.66602e+06
       805.50000  2.27354e-07  1.03037e+07
       805.60000  2.27354e-07  1.03105e+07
       805.70000  2.27354e-07  1.03173e+07
       805.80000  2.27354e-07  1.03219e+07
       805.90000  2.27354e-07  1.03264e+07
       806.00000  2.27354e-07  1.03310e+07
       806.10000  2.27354e-07  1.03332e+07
       806.20000  2.27354e-07  1.03355e+07
       806.30000  2.26909e-07  1.03176e+07
       806.40000  2.26909e-07  1.03198e+07
       806.50000  1.61674e-07  7.35295e+06
       806.60000  1.61674e-07  7.35295e+06
       806.70000  1.61674e-07  7.35133e+06
       806.80000  1.61674e-07  7.35133e+06
       806.90000  1.61674e-07  7.34972e+06
       807.00000  1.61674e-07  7.34648e+06
       807.10000  1.61674e-07  7.33355e+06
       807.20000  1.61674e-07  7.31900e+06
       807.30000  1.61674e-07  7.30606e+06
       807.40000  1.61674e-07  7.29475e+06
       807.50000  1.56126e-07  7.03349e+06
       807.60000  1.56126e-07  7.02256e+06
       807.70000  1.56126e-07  7.01320e+06
       807.80000  1.56126e-07  7.00539e+06
       807.90000  1.56126e-07  6.99758e+06
       808.00000  1.56126e-07  6.98978e+06
       808.10000  1.56126e-07  6.98353e+06
       808.20000  1.56126e-07  6.97729e+06
       808.30000  1.56126e-07  6.97104e+06
       808.40000  1.56126e-07  6.96636e+06
       808.50000  1.50572e-07  6.71551e+06
       808.60000  1.50572e-07  6.71250e+06
       808.70000  1.50572e-07  6.70949e+06
       808.80000  1.50430e-07  6.70164e+06
       808.90000  1.50430e-07  6.70013e+06
       809.00000  1.50430e-07  6.70013e+06
       809.10000  1.50430e-07  6.70013e+06
       809.20000  1.50430e-07  6.70164e+06
       809.30000  1.50430e-07  6.70314e+06
       809.40000  1.50430e-07  6.70465e+06
       809.50000  1.42051e-07  6.33406e+06
       809.60000  1.42051e-07  6.33832e+06
       809.70000  1.42051e-07  6.34258e+06
       809.80000  1.42051e-07  6.34684e+06
       809.90000  1.42051e-07  6.35252e+06
       810.00000  1.42051e-07  6.35820e+06
       810.10000  1.42051e-07  6.36531e+06
       810.20000  1.42051e-07  6.37241e+06
       810.30000  1.42051e-07  6.37951e+06
       810.40000  1.42051e-07  6.38804e+06
       810.50000  1.79326e-07  8.07683e+06
       810.60000  1.79326e-07  8.08759e+06
       810.70000  1.79326e-07  8.10194e+06
       810.80000  1.79326e-07  8.11628e+06
       810.90000  1.79326e-07  8.13063e+06
       811.00000  1.79326e-07  8.14677e+06
       811.10000  1.79326e-07  8.14856e+06
       811.20000  1.79326e-07  8.15215e+06
       811.30000  1.79208e-07  8.14857e+06
       811.40000  1.79208e-07  8.15215e+06
       811.50000  2.11533e-07  9.62473e+06
       811.60000  2.11533e-07  9.62685e+06
       811.70000  2.11533e-07  9.62896e+06
       811.80000  2.11533e-07  9.63108e+06
       811.90000  2.11533e-07  9.63319e+06
       812.00000  2.11533e-07  9.63531e+06
       812.10000  2.11533e-07  9.63531e+06
       812.20000  2.11533e-07  9.63742e+06
       812.30000  2.11533e-07  9.63954e+06
       812.40000  2.11533e-07  9.63954e+06
       812.50000  5.47366e-08  2.49435e+06
       812.60000  5.47366e-08  2.49489e+06
       812.70000  5.47366e-08  2.49489e+06
       812.80000  5.47366e-08  2.49489e+06
       812.90000  5.47366e-08  2.49489e+06
       813.00000  5.47366e-08  2.49489e+06
       813.10000  5.47366e-08  2.49380e+06
       813.20000  5.47366e-08  2.49325e+06
       813.30000  5.47366e-08  2.49216e+06
       813.40000  5.47366e-08  2.49161e+06
       813.50000  1.78603e-07  8.12646e+06
       813.60000  1.78603e-07  8.12467e+06
       813.70000  1.78603e-07  8.12289e+06
       813.80000  1.78584e-07  8.12021e+06
       813.90000  1.78584e-07  8.11842e+06
       814.00000  1.78584e-07  8.11485e+06
       814.10000  1.78584e-07  8.11306e+06
       814.20000  1.78584e-07  8.11128e+06
       814.30000  1.78584e-07  8.10949e+06
       814.40000  1.78584e-07  8.10949e+06
       814.50000  1.01050e-07  4.58765e+06
       814.60000  1.01050e-07  4.58664e+06
       814.70000  1.01050e-07  4.58563e+06
       814.80000  1.01050e-07  4.58462e+06
       814.90000  1.01050e-07  4.58462e+06
       815.00000  1.01050e-07  4.58361e+06
       815.10000  1.01050e-07  4.58765e+06
       815.20000  1.01050e-07  4.59068e+06
       815.30000  1.01050e-07  4.59371e+06
       815.40000  1.01050e-07  4.59574e+06
       815.50000  1.64149e-08      747044.
       815.60000  1.64149e-08      747208.
       815.70000  1.64149e-08      747536.
       815.80000  1.64149e-08      747536.
       815.90000  1.64149e-08      747700.
       816.00000  1.64149e-08      747700.
       816.10000  1.64149e-08      747700.
       816.20000  1.64149e-08      747536.
       816.30000  1.64145e-08      747351.
       816.40000  1.64145e-08      747187.
       816.50000  3.10051e-08  1.41073e+06
       816.60000  3.10051e-08  1.41011e+06
       816.70000  3.10051e-08  1.40918e+06
       816.80000  3.10051e-08  1.40825e+06
       816.90000  3.10051e-08  1.40732e+06
       817.00000  3.10051e-08  1.40608e+06
       817.10000  3.10051e-08  1.40174e+06
       817.20000  3.10051e-08  1.39771e+06
       817.30000  3.10051e-08  1.39399e+06
       817.40000  3.10051e-08  1.39027e+06
       817.50000  8.29783e-08  3.71162e+06
       817.60000  8.29783e-08  3.70332e+06
       817.70000  8.29783e-08  3.69502e+06
       817.80000  8.29783e-08  3.68672e+06
       817.90000  8.29783e-08  3.68009e+06
       818.00000  8.29783e-08  3.67262e+06
       818.10000  8.29783e-08  3.66681e+06
       818.20000  8.29783e-08  3.66100e+06
       818.30000  8.29783e-08  3.65519e+06
       818.40000  8.29783e-08  3.65104e+06
       818.50000  2.10305e-07  9.24082e+06
       818.60000  2.10305e-07  9.23240e+06
       818.70000  2.10305e-07  9.22399e+06
       818.80000  2.10273e-07  9.21418e+06
       818.90000  2.10273e-07  9.20998e+06
       819.00000  2.10273e-07  9.20367e+06
       819.10000  2.10273e-07  9.20156e+06
       819.20000  2.10273e-07  9.19946e+06
       819.30000  2.10273e-07  9.19736e+06
       819.40000  2.10273e-07  9.19736e+06
       819.50000  5.99145e-08  2.62126e+06
       819.60000  5.99145e-08  2.62186e+06
       819.70000  5.99145e-08  2.62305e+06
       819.80000  5.99145e-08  2.62485e+06
       819.90000  5.99145e-08  2.62665e+06
       820.00000  5.99145e-08  2.62905e+06
       820.10000  5.99145e-08  2.63144e+06
       820.20000  5.99145e-08  2.63444e+06
       820.30000  5.99145e-08  2.63803e+06
       820.40000  5.99145e-08  2.64163e+06
       820.50000  3.70627e-08  1.63669e+06
       820.60000  3.70627e-08  1.63928e+06
       820.70000  3.70627e-08  1.64225e+06
       820.80000  3.70627e-08  1.64521e+06
       820.90000  3.70627e-08  1.64855e+06
       821.00000  3.70627e-08  1.65226e+06
       821.10000  3.70627e-08  1.65151e+06
       821.20000  3.70627e-08  1.65114e+06
       821.30000  3.71690e-08  1.65513e+06
       821.40000  3.71690e-08  1.65476e+06
       821.50000  1.07213e-07  4.77100e+06
       821.60000  1.07213e-07  4.76993e+06
       821.70000  1.07213e-07  4.76886e+06
       821.80000  1.07213e-07  4.76671e+06
       821.90000  1.07213e-07  4.76564e+06
       822.00000  1.07213e-07  4.76457e+06
       822.10000  1.07213e-07  4.76457e+06
       822.20000  1.07213e-07  4.76350e+06
       822.30000  1.07213e-07  4.76242e+06
       822.40000  1.07213e-07  4.76242e+06
       822.50000  3.47034e-08  1.54118e+06
       822.60000  3.47034e-08  1.54118e+06
       822.70000  3.47034e-08  1.54083e+06
       822.80000  3.47034e-08  1.54083e+06
       822.90000  3.47034e-08  1.54083e+06
       823.00000  3.47034e-08  1.54083e+06
       823.10000  3.47034e-08  1.54083e+06
       823.20000  3.47034e-08  1.54083e+06
       823.30000  3.47034e-08  1.54083e+06
       823.40000  3.47034e-08  1.54083e+06
       823.50000  2.98506e-08  1.32566e+06
       823.60000  2.98506e-08  1.32566e+06
       823.70000  2.98506e-08  1.32596e+06
       823.80000  2.99320e-08  1.32958e+06
       823.90000  2.99320e-08  1.32988e+06
       824.00000  2.99320e-08  1.33018e+06
       824.10000  2.99320e-08  1.33048e+06
       824.20000  2.99320e-08  1.33078e+06
       824.30000  2.99320e-08  1.33108e+06
       824.40000  2.99320e-08  1.33168e+06
       824.50000  6.79583e-10      30241.4
       824.60000  6.79583e-10      30255.0
       824.70000  6.79583e-10      30261.8
       824.80000  6.79583e-10      30275.4
       824.90000  6.79583e-10      30289.0
       825.00000  6.79583e-10      30302.6
       825.10000  6.79583e-10      30316.2
       825.20000  6.79583e-10      30329.8
       825.30000  6.79583e-10      30350.2
       825.40000  6.79583e-10      30363.8
       825.50000  1.99604e-08      892429.
       825.60000  1.99604e-08      892828.
       825.70000  1.99604e-08      893427.
       825.80000  1.99604e-08      894025.
       825.90000  1.99604e-08      894624.
       826.00000  1.99604e-08      895223.
       826.10000  1.99604e-08      895822.
       826.20000  1.99604e-08      896221.
       826.30000  1.99736e-08      897416.
       826.40000  1.99736e-08      897815.
       826.50000  6.16579e-08  2.77214e+06
       826.60000  6.16579e-08  2.77337e+06
       826.70000  6.16579e-08  2.77461e+06
       826.80000  6.16579e-08  2.77522e+06
       826.90000  6.16579e-08  2.77584e+06
       827.00000  6.16579e-08  2.77646e+06
       827.10000  6.16579e-08  2.77646e+06
       827.20000  6.16579e-08  2.77707e+06
       827.30000  6.16579e-08  2.77707e+06
       827.40000  6.16579e-08  2.77707e+06
       827.50000  1.12815e-07  5.08118e+06
       827.60000  1.12815e-07  5.08118e+06
       827.70000  1.12815e-07  5.08005e+06
       827.80000  1.12815e-07  5.07892e+06
       827.90000  1.12815e-07  5.07780e+06
       828.00000  1.12815e-07  5.07667e+06
       828.10000  1.12815e-07  5.07328e+06
       828.20000  1.12815e-07  5.06877e+06
       828.30000  1.12815e-07  5.06426e+06
       828.40000  1.12815e-07  5.05974e+06
       828.50000  1.07853e-07  4.83396e+06
       828.60000  1.07853e-07  4.82965e+06
       828.70000  1.07853e-07  4.82641e+06
       828.80000  1.07765e-07  4.81927e+06
       828.90000  1.07765e-07  4.81495e+06
       829.00000  1.07765e-07  4.81172e+06
       829.10000  1.07765e-07  4.80849e+06
       829.20000  1.07765e-07  4.80526e+06
       829.30000  1.07765e-07  4.80202e+06
       829.40000  1.07765e-07  4.79879e+06
       829.50000  1.07986e-07  4.80536e+06
       829.60000  1.07986e-07  4.80212e+06
       829.70000  1.07986e-07  4.79888e+06
       829.80000  1.07986e-07  4.79564e+06
       829.90000  1.07986e-07  4.79348e+06
       830.00000  1.07986e-07  4.79024e+06
       830.10000  1.07986e-07  4.78808e+06
       830.20000  1.07986e-07  4.78484e+06
       830.30000  1.07986e-07  4.78268e+06
       830.40000  1.07986e-07  4.77944e+06
       830.50000  6.71590e-08  2.97111e+06
       830.60000  6.71590e-08  2.96977e+06
       830.70000  6.71590e-08  2.96776e+06
       830.80000  6.71590e-08  2.96641e+06
       830.90000  6.71590e-08  2.96507e+06
       831.00000  6.71590e-08  2.96373e+06
       831.10000  6.71590e-08  2.96238e+06
       831.20000  6.71590e-08  2.96104e+06
       831.30000  6.73410e-08  2.96839e+06
       831.40000  6.73410e-08  2.96705e+06
       831.50000  1.00357e-07  4.41971e+06
       831.60000  1.00357e-07  4.41871e+06
       831.70000  1.00357e-07  4.41670e+06
       831.80000  1.00357e-07  4.41469e+06
       831.90000  1.00357e-07  4.41369e+06
       832.00000  1.00357e-07  4.41269e+06
       832.10000  1.00357e-07  4.40867e+06
       832.20000  1.00357e-07  4.40466e+06
       832.30000  1.00357e-07  4.40165e+06
       832.40000  1.00357e-07  4.39864e+06
       832.50000  4.54068e-08  1.98882e+06
       832.60000  4.54068e-08  1.98791e+06
       832.70000  4.54068e-08  1.98700e+06
       832.80000  4.54068e-08  1.98564e+06
       832.90000  4.54068e-08  1.98519e+06
       833.00000  4.54068e-08  1.98428e+06
       833.10000  4.54068e-08  1.98337e+06
       833.20000  4.54068e-08  1.98292e+06
       833.30000  4.54068e-08  1.98246e+06
       833.40000  4.54068e-08  1.98201e+06
       833.50000  2.08376e-08      909561.
       833.60000  2.08376e-08      909353.
       833.70000  2.08376e-08      909353.
       833.80000  2.08593e-08      910302.
       833.90000  2.08593e-08      910510.
       834.00000  2.08593e-08      910510.
       834.10000  2.08593e-08      911553.
       834.20000  2.08593e-08      912388.
       834.30000  2.08593e-08      913431.
       834.40000  2.08593e-08      914265.
       834.50000  7.58933e-08  3.32944e+06
       834.60000  7.58933e-08  3.33247e+06
       834.70000  7.58933e-08  3.33475e+06
       834.80000  7.58933e-08  3.33703e+06
       834.90000  7.58933e-08  3.34006e+06
       835.00000  7.58933e-08  3.34234e+06
       835.10000  7.58933e-08  3.34386e+06
       835.20000  7.58933e-08  3.34613e+06
       835.30000  7.58933e-08  3.34765e+06
       835.40000  7.58933e-08  3.34917e+06
       835.50000  7.33750e-08  3.23951e+06
       835.60000  7.33750e-08  3.24098e+06
       835.70000  7.33750e-08  3.24171e+06
       835.80000  7.33750e-08  3.24318e+06
       835.90000  7.33750e-08  3.24391e+06
       836.00000  7.33750e-08  3.24464e+06
       836.10000  7.33750e-08  3.24318e+06
       836.20000  7.33750e-08  3.24244e+06
       836.30000  7.33418e-08  3.23951e+06
       836.40000  7.33418e-08  3.23877e+06
       836.50000  1.35864e-07  5.99840e+06
       836.60000  1.35864e-07  5.99568e+06
       836.70000  1.35864e-07  5.99433e+06
       836.80000  1.35864e-07  5.99297e+06
       836.90000  1.35864e-07  5.99025e+06
       837.00000  1.35864e-07  5.98889e+06
       837.10000  1.35864e-07  5.98753e+06
       837.20000  1.35864e-07  5.98617e+06
       837.30000  1.35864e-07  5.98481e+06
       837.40000  1.35864e-07  5.98346e+06
       837.50000  1.36369e-07  6.00435e+06
       837.60000  1.36369e-07  6.00298e+06
       837.70000  1.36369e-07  6.00162e+06
       837.80000  1.36369e-07  6.00026e+06
       837.90000  1.36369e-07  6.00026e+06
       838.00000  1.36369e-07  5.99889e+06
       838.10000  1.36369e-07  5.99753e+06
       838.20000  1.36369e-07  5.99753e+06
       838.30000  1.36369e-07  5.99753e+06
       838.40000  1.36369e-07  5.99753e+06
       838.50000  9.23196e-08  4.05929e+06
       838.60000  9.23196e-08  4.05929e+06
       838.70000  9.23196e-08  4.05929e+06
       838.80000  9.20404e-08  4.04610e+06
       838.90000  9.20404e-08  4.04610e+06
       839.00000  9.20404e-08  4.04610e+06
       839.10000  9.20404e-08  4.04518e+06
       839.20000  9.20404e-08  4.04518e+06
       839.30000  9.20404e-08  4.04518e+06
       839.40000  9.20404e-08  4.04426e+06
       839.50000  1.70053e-07  7.47213e+06
       839.60000  1.70053e-07  7.47213e+06
       839.70000  1.70053e-07  7.47043e+06
       839.80000  1.70053e-07  7.47043e+06
       839.90000  1.70053e-07  7.47043e+06
       840.00000  1.70053e-07  7.46873e+06
       840.10000  1.70053e-07  7.46873e+06
       840.20000  1.70053e-07  7.46873e+06
       840.30000  1.70053e-07  7.46703e+06
       840.40000  1.70053e-07  7.46703e+06
       840.50000  8.25076e-08  3.62291e+06
       840.60000  8.25076e-08  3.62208e+06
       840.70000  8.25076e-08  3.62208e+06
       840.80000  8.25076e-08  3.62208e+06
       840.90000  8.25076e-08  3.62126e+06
       841.00000  8.25076e-08  3.62126e+06
       841.10000  8.25076e-08  3.62126e+06
       841.20000  8.25076e-08  3.62126e+06
       841.30000  8.25031e-08  3.62024e+06
       841.40000  8.25031e-08  3.62024e+06
       841.50000  1.09353e-07  4.79842e+06
       841.60000  1.09353e-07  4.79733e+06
       841.70000  1.09353e-07  4.79733e+06
       841.80000  1.09353e-07  4.79733e+06
       841.90000  1.09353e-07  4.79624e+06
       842.00000  1.09353e-07  4.79624e+06
       842.10000  1.09353e-07  4.79186e+06
       842.20000  1.09353e-07  4.78858e+06
       842.30000  1.09353e-07  4.78530e+06
       842.40000  1.09353e-07  4.78093e+06
       842.50000  6.25371e-08  2.73225e+06
       842.60000  6.25371e-08  2.73100e+06
       842.70000  6.25371e-08  2.72912e+06
       842.80000  6.25371e-08  2.72787e+06
       842.90000  6.25371e-08  2.72599e+06
       843.00000  6.25371e-08  2.72474e+06
       843.10000  6.25371e-08  2.72349e+06
       843.20000  6.25371e-08  2.72224e+06
       843.30000  6.25371e-08  2.72161e+06
       843.40000  6.25371e-08  2.72036e+06
       843.50000  1.06269e-07  4.62163e+06
       843.60000  1.06269e-07  4.62057e+06
       843.70000  1.06269e-07  4.61951e+06
       843.80000  1.06422e-07  4.62510e+06
       843.90000  1.06422e-07  4.62510e+06
       844.00000  1.06422e-07  4.62404e+06
       844.10000  1.06422e-07  4.62723e+06
       844.20000  1.06422e-07  4.62936e+06
       844.30000  1.06422e-07  4.63149e+06
       844.40000  1.06422e-07  4.63362e+06
       844.50000  2.68392e-08  1.16911e+06
       844.60000  2.68392e-08  1.16965e+06
       844.70000  2.68392e-08  1.16992e+06
       844.80000  2.68392e-08  1.17046e+06
       844.90000  2.68392e-08  1.17072e+06
       845.00000  2.68392e-08  1.17126e+06
       845.10000  2.68392e-08  1.17153e+06
       845.20000  2.68392e-08  1.17180e+06
       845.30000  2.68392e-08  1.17234e+06
       845.40000  2.68392e-08  1.17260e+06
       845.50000  6.59505e-08  2.88138e+06
       845.60000  6.59505e-08  2.88204e+06
       845.70000  6.59505e-08  2.88270e+06
       845.80000  6.59505e-08  2.88336e+06
       845.90000  6.59505e-08  2.88336e+06
       846.00000  6.59505e-08  2.88401e+06
       846.10000  6.59505e-08  2.88401e+06
       846.20000  6.59505e-08  2.88401e+06
       846.30000  6.61241e-08  2.89160e+06
       846.40000  6.61241e-08  2.89227e+06
       846.50000  1.24724e-07  5.45543e+06
       846.60000  1.24724e-07  5.45419e+06
       846.70000  1.24724e-07  5.45419e+06
       846.80000  1.24724e-07  5.45419e+06
       846.90000  1.24724e-07  5.45294e+06
       847.00000  1.24724e-07  5.45294e+06
       847.10000  1.24724e-07  5.45169e+06
       847.20000  1.24724e-07  5.45169e+06
       847.30000  1.24724e-07  5.45045e+06
       847.40000  1.24724e-07  5.44920e+06
       847.50000  1.18782e-07  5.18840e+06
       847.60000  1.18782e-07  5.18721e+06
       847.70000  1.18782e-07  5.18603e+06
       847.80000  1.18782e-07  5.18484e+06
       847.90000  1.18782e-07  5.18246e+06
       848.00000  1.18782e-07  5.18128e+06
       848.10000  1.18782e-07  5.15633e+06
       848.20000  1.18782e-07  5.13376e+06
       848.30000  1.18782e-07  5.11119e+06
       848.40000  1.18782e-07  5.08981e+06
       848.50000  1.47421e-08      629191.
       848.60000  1.47421e-08      626980.
       848.70000  1.47421e-08      624769.
       848.80000  1.47983e-08      625082.
       848.90000  1.47983e-08      623158.
       849.00000  1.47983e-08      621382.
       849.10000  1.47983e-08      619606.
       849.20000  1.47983e-08      618127.
       849.30000  1.47983e-08      616795.
       849.40000  1.47983e-08      615463.
       849.50000  2.94722e-06  1.22368e+08
       849.60000  2.94722e-06  1.22162e+08
       849.70000  2.94722e-06  1.22015e+08
       849.80000  2.94722e-06  1.21867e+08
       849.90000  2.94722e-06  1.21750e+08
       850.00000  2.94722e-06  1.21661e+08
       850.10000  2.94722e-06  1.22310e+08
       850.20000  2.94722e-06  1.22928e+08
       850.30000  2.94722e-06  1.23488e+08
       850.40000  2.94722e-06  1.23989e+08
       850.50000  2.91735e-06  1.23200e+08
       850.60000  2.91735e-06  1.23608e+08
       850.70000  2.91735e-06  1.23958e+08
       850.80000  2.91735e-06  1.24279e+08
       850.90000  2.91735e-06  1.24542e+08
       851.00000  2.91735e-06  1.24775e+08
       851.10000  2.91735e-06  1.24950e+08
       851.20000  2.91735e-06  1.25096e+08
       851.30000  2.92044e-06  1.25316e+08
       851.40000  2.92044e-06  1.25345e+08
       851.50000  2.89537e-06  1.24269e+08
       851.60000  2.89537e-06  1.24211e+08
       851.70000  2.89537e-06  1.24124e+08
       851.80000  2.89537e-06  1.23980e+08
       851.90000  2.89537e-06  1.23777e+08
       852.00000  2.89537e-06  1.23545e+08
       852.10000  2.89537e-06  1.23256e+08
       852.20000  2.89537e-06  1.22937e+08
       852.30000  2.89537e-06  1.22561e+08
       852.40000  2.89537e-06  1.22156e+08
       852.50000  2.87157e-06  1.20663e+08
       852.60000  2.87157e-06  1.20175e+08
       852.70000  2.87157e-06  1.19601e+08
       852.80000  2.87157e-06  1.19026e+08
       852.90000  2.87157e-06  1.18366e+08
       853.00000  2.87157e-06  1.17677e+08
       853.10000  2.87157e-06  1.16930e+08
       853.20000  2.87157e-06  1.16155e+08
       853.30000  2.87157e-06  1.15322e+08
       853.40000  2.87157e-06  1.14461e+08
       853.50000  1.89937e-06  7.51010e+07
       853.60000  1.89937e-06  7.44552e+07
       853.70000  1.89937e-06  7.37905e+07
       853.80000  1.90191e-06  7.31854e+07
       853.90000  1.90191e-06  7.24626e+07
       854.00000  1.90191e-06  7.17019e+07
       854.10000  1.90191e-06  7.22344e+07
       854.20000  1.90191e-06  7.27670e+07
       854.30000  1.90191e-06  7.32805e+07
       854.40000  1.90191e-06  7.37750e+07
       854.50000  2.83445e-06  1.10657e+08
       854.60000  2.83445e-06  1.11366e+08
       854.70000  2.83445e-06  1.12046e+08
       854.80000  2.83445e-06  1.12698e+08
       854.90000  2.83445e-06  1.13350e+08
       855.00000  2.83445e-06  1.13973e+08
       855.10000  2.83445e-06  1.14569e+08
       855.20000  2.83445e-06  1.15135e+08
       855.30000  2.83445e-06  1.15702e+08
       855.40000  2.83445e-06  1.16213e+08
       855.50000  2.81156e-06  1.15808e+08
       855.60000  2.81156e-06  1.16286e+08
       855.70000  2.81156e-06  1.16764e+08
       855.80000  2.81156e-06  1.17214e+08
       855.90000  2.81156e-06  1.17636e+08
       856.00000  2.81156e-06  1.18029e+08
       856.10000  2.81156e-06  1.18339e+08
       856.20000  2.81156e-06  1.18620e+08
       856.30000  2.81472e-06  1.19035e+08
       856.40000  2.81472e-06  1.19316e+08
       856.50000  2.79460e-06  1.18715e+08
       856.60000  2.79460e-06  1.18966e+08
       856.70000  2.79460e-06  1.19190e+08
       856.80000  2.79460e-06  1.19413e+08
       856.90000  2.79460e-06  1.19609e+08
       857.00000  2.79460e-06  1.19805e+08
       857.10000  2.79460e-06  1.20000e+08
       857.20000  2.79460e-06  1.20168e+08
       857.30000  2.79460e-06  1.20336e+08
       857.40000  2.79460e-06  1.20475e+08
       857.50000  2.77025e-06  1.19564e+08
       857.60000  2.77025e-06  1.19702e+08
       857.70000  2.77025e-06  1.19813e+08
       857.80000  2.77025e-06  1.19924e+08
       857.90000  2.77025e-06  1.20007e+08
       858.00000  2.77025e-06  1.20118e+08
       858.10000  2.77025e-06  1.20173e+08
       858.20000  2.77025e-06  1.20229e+08
       858.30000  2.77025e-06  1.20284e+08
       858.40000  2.77025e-06  1.20312e+08
       858.50000  2.75031e-06  1.19473e+08
       858.60000  2.75031e-06  1.19501e+08
       858.70000  2.75031e-06  1.19501e+08
       858.80000  2.75863e-06  1.19862e+08
       858.90000  2.75863e-06  1.19835e+08
       859.00000  2.75863e-06  1.19807e+08
       859.10000  2.75863e-06  1.19780e+08
       859.20000  2.75863e-06  1.19725e+08
       859.30000  2.75863e-06  1.19669e+08
       859.40000  2.75863e-06  1.19587e+08
       859.50000  1.82579e-06  7.90931e+07
       859.60000  1.82579e-06  7.90383e+07
       859.70000  1.82579e-06  7.89653e+07
       859.80000  1.82579e-06  7.88740e+07
       859.90000  1.82579e-06  7.88010e+07
       860.00000  1.82579e-06  7.87097e+07
       860.10000  1.82579e-06  7.86914e+07
       860.20000  1.82579e-06  7.86732e+07
       860.30000  1.82579e-06  7.86732e+07
       860.40000  1.82579e-06  7.86732e+07
       860.50000  2.71744e-06  1.17067e+08
       860.60000  2.71744e-06  1.17067e+08
       860.70000  2.71744e-06  1.17067e+08
       860.80000  2.71744e-06  1.17067e+08
       860.90000  2.71744e-06  1.17067e+08
       861.00000  2.71744e-06  1.17067e+08
       861.10000  2.71744e-06  1.17067e+08
       861.20000  2.71744e-06  1.17067e+08
       861.30000  2.72638e-06  1.17452e+08
       861.40000  2.72638e-06  1.17480e+08
       861.50000  2.70164e-06  1.16414e+08
       861.60000  2.70164e-06  1.16414e+08
       861.70000  2.70164e-06  1.16441e+08
       861.80000  2.70164e-06  1.16468e+08
       861.90000  2.70164e-06  1.16468e+08
       862.00000  2.70164e-06  1.16495e+08
       862.10000  2.70164e-06  1.16873e+08
       862.20000  2.70164e-06  1.17197e+08
       862.30000  2.70164e-06  1.17494e+08
       862.40000  2.70164e-06  1.17764e+08
       862.50000  2.68321e-06  1.17176e+08
       862.60000  2.68321e-06  1.17364e+08
       862.70000  2.68321e-06  1.17525e+08
       862.80000  2.68321e-06  1.17659e+08
       862.90000  2.68321e-06  1.17739e+08
       863.00000  2.68321e-06  1.17793e+08
       863.10000  2.68321e-06  1.17820e+08
       863.20000  2.68321e-06  1.17820e+08
       863.30000  2.68321e-06  1.17766e+08
       863.40000  2.68321e-06  1.17686e+08
       863.50000  1.77399e-06  7.77364e+07
       863.60000  1.77399e-06  7.76300e+07
       863.70000  1.77399e-06  7.75058e+07
       863.80000  1.77896e-06  7.75803e+07
       863.90000  1.77896e-06  7.74202e+07
       864.00000  1.77896e-06  7.72245e+07
       864.10000  1.77896e-06  7.70110e+07
       864.20000  1.77896e-06  7.67798e+07
       864.30000  1.77896e-06  7.65129e+07
       864.40000  1.77896e-06  7.62461e+07
       864.50000  2.64606e-06  1.12934e+08
       864.60000  2.64606e-06  1.12458e+08
       864.70000  2.64606e-06  1.11929e+08
       864.80000  2.64606e-06  1.11399e+08
       864.90000  2.64606e-06  1.10791e+08
       865.00000  2.64606e-06  1.10182e+08
       865.10000  2.64606e-06  1.09521e+08
       865.20000  2.64606e-06  1.08833e+08
       865.30000  2.64606e-06  1.08118e+08
       865.40000  2.64606e-06  1.07351e+08
       865.50000  1.74973e-06  7.04615e+07
       865.60000  1.74973e-06  6.99191e+07
       865.70000  1.74973e-06  6.93592e+07
       865.80000  1.74973e-06  6.87643e+07
       865.90000  1.74973e-06  6.81519e+07
       866.00000  1.74973e-06  6.75220e+07
       866.10000  1.74973e-06  6.77669e+07
       866.20000  1.74973e-06  6.79944e+07
       866.30000  1.75490e-06  6.84411e+07
       866.40000  1.75490e-06  6.86692e+07
       866.50000  2.61116e-06  1.02514e+08
       866.60000  2.61116e-06  1.02853e+08
       866.70000  2.61116e-06  1.03193e+08
       866.80000  2.61116e-06  1.03532e+08
       866.90000  2.61116e-06  1.03846e+08
       867.00000  2.61116e-06  1.04159e+08
       867.10000  2.61116e-06  1.04472e+08
       867.20000  2.61116e-06  1.04786e+08
       867.30000  2.61116e-06  1.05099e+08
       867.40000  2.61116e-06  1.05386e+08
       867.50000  1.72531e-06  6.98233e+07
       867.60000  1.72531e-06  7.00130e+07
       867.70000  1.72531e-06  7.02028e+07
       867.80000  1.72531e-06  7.03926e+07
       867.90000  1.72531e-06  7.05651e+07
       868.00000  1.72531e-06  7.07377e+07
       868.10000  1.72531e-06  7.09275e+07
       868.20000  1.72531e-06  7.11172e+07
       868.30000  1.72531e-06  7.12898e+07
       868.40000  1.72531e-06  7.14623e+07
       868.50000  1.71242e-06  7.10996e+07
       868.60000  1.71242e-06  7.12538e+07
       868.70000  1.71242e-06  7.14250e+07
       868.80000  1.71671e-06  7.17413e+07
       868.90000  1.71671e-06  7.18958e+07
       869.00000  1.71671e-06  7.20331e+07
       869.10000  1.71671e-06  7.21704e+07
       869.20000  1.71671e-06  7.23078e+07
       869.30000  1.71671e-06  7.24451e+07
       869.40000  1.71671e-06  7.25653e+07
       869.50000  1.70151e-06  7.20420e+07
       869.60000  1.70151e-06  7.21441e+07
       869.70000  1.70151e-06  7.22462e+07
       869.80000  1.70151e-06  7.23483e+07
       869.90000  1.70151e-06  7.24504e+07
       870.00000  1.70151e-06  7.25525e+07
       870.10000  1.70151e-06  7.26375e+07
       870.20000  1.70151e-06  7.27226e+07
       870.30000  1.70151e-06  7.27907e+07
       870.40000  1.70151e-06  7.28587e+07
       870.50000  1.68827e-06  7.23592e+07
       870.60000  1.68827e-06  7.24267e+07
       870.70000  1.68827e-06  7.24774e+07
       870.80000  1.68827e-06  7.25449e+07
       870.90000  1.68827e-06  7.25786e+07
       871.00000  1.68827e-06  7.26293e+07
       871.10000  1.68827e-06  7.26631e+07
       871.20000  1.68827e-06  7.26968e+07
       871.30000  1.69808e-06  7.31535e+07
       871.40000  1.69808e-06  7.31705e+07
       871.50000  1.68266e-06  7.25227e+07
       871.60000  1.68266e-06  7.25395e+07
       871.70000  1.68266e-06  7.25395e+07
       871.80000  1.68266e-06  7.25563e+07
       871.90000  1.68266e-06  7.25395e+07
       872.00000  1.68266e-06  7.25395e+07
       872.10000  1.68266e-06  7.24890e+07
       872.20000  1.68266e-06  7.24553e+07
       872.30000  1.68266e-06  7.24049e+07
       872.40000  1.68266e-06  7.23712e+07
       872.50000  1.66813e-06  7.16963e+07
       872.60000  1.66813e-06  7.16629e+07
       872.70000  1.66813e-06  7.16296e+07
       872.80000  1.66813e-06  7.15962e+07
       872.90000  1.66813e-06  7.15462e+07
       873.00000  1.66813e-06  7.15128e+07
       873.10000  1.66813e-06  7.14794e+07
       873.20000  1.66813e-06  7.14461e+07
       873.30000  1.66813e-06  7.14127e+07
       873.40000  1.66813e-06  7.13794e+07
       873.50000  1.65301e-06  7.06992e+07
       873.60000  1.65301e-06  7.06661e+07
       873.70000  1.65301e-06  7.06331e+07
       873.80000  1.66174e-06  7.09895e+07
       873.90000  1.66174e-06  7.09563e+07
       874.00000  1.66174e-06  7.09230e+07
       874.10000  1.66174e-06  7.08732e+07
       874.20000  1.66174e-06  7.08233e+07
       874.30000  1.66174e-06  7.07901e+07
       874.40000  1.66174e-06  7.07402e+07
       874.50000  1.64614e-06  7.00434e+07
       874.60000  1.64614e-06  7.00104e+07
       874.70000  1.64614e-06  6.99775e+07
       874.80000  1.64614e-06  6.99611e+07
       874.90000  1.64614e-06  6.99281e+07
       875.00000  1.64614e-06  6.99117e+07
       875.10000  1.64614e-06  6.98952e+07
       875.20000  1.64614e-06  6.98788e+07
       875.30000  1.64614e-06  6.98788e+07
       875.40000  1.64614e-06  6.98623e+07
       875.50000  1.63195e-06  6.92599e+07
       875.60000  1.63195e-06  6.92599e+07
       875.70000  1.63195e-06  6.92599e+07
       875.80000  1.63195e-06  6.92762e+07
       875.90000  1.63195e-06  6.92762e+07
       876.00000  1.63195e-06  6.92925e+07
       876.10000  1.63195e-06  6.93088e+07
       876.20000  1.63195e-06  6.93251e+07
       876.30000  1.64055e-06  6.97068e+07
       876.40000  1.64055e-06  6.97396e+07
       876.50000  1.62611e-06  6.91586e+07
       876.60000  1.62611e-06  6.91911e+07
       876.70000  1.62611e-06  6.92236e+07
       876.80000  1.62611e-06  6.92561e+07
       876.90000  1.62611e-06  6.93049e+07
       877.00000  1.62611e-06  6.93537e+07
       877.10000  1.62611e-06  6.94025e+07
       877.20000  1.62611e-06  6.94513e+07
       877.30000  1.62611e-06  6.95000e+07
       877.40000  1.62611e-06  6.95651e+07
       877.50000  1.61222e-06  6.90351e+07
       877.60000  1.61222e-06  6.90996e+07
       877.70000  1.61222e-06  6.91641e+07
       877.80000  1.61222e-06  6.92286e+07
       877.90000  1.61222e-06  6.93092e+07
       878.00000  1.61222e-06  6.93898e+07
       878.10000  1.61222e-06  6.92931e+07
       878.20000  1.61222e-06  6.92125e+07
       878.30000  1.61222e-06  6.91319e+07
       878.40000  1.61222e-06  6.90512e+07
       878.50000  1.59699e-06  6.83193e+07
       878.60000  1.59699e-06  6.82554e+07
       878.70000  1.59699e-06  6.81756e+07
       878.80000  1.60416e-06  6.84174e+07
       878.90000  1.60416e-06  6.83532e+07
       879.00000  1.60416e-06  6.82890e+07
       879.10000  1.60416e-06  6.82249e+07
       879.20000  1.60416e-06  6.81767e+07
       879.30000  1.60416e-06  6.81126e+07
       879.40000  1.60416e-06  6.80644e+07
       879.50000  1.58746e-06  6.73084e+07
       879.60000  1.58746e-06  6.72608e+07
       879.70000  1.58746e-06  6.72132e+07
       879.80000  1.58746e-06  6.71814e+07
       879.90000  1.58746e-06  6.71338e+07
       880.00000  1.58746e-06  6.71021e+07
       880.10000  1.58746e-06  6.70862e+07
       880.20000  1.58746e-06  6.70544e+07
       880.30000  1.58746e-06  6.70386e+07
       880.40000  1.58746e-06  6.70068e+07
       880.50000  1.57333e-06  6.63945e+07
       880.60000  1.57333e-06  6.63788e+07
       880.70000  1.57333e-06  6.63631e+07
       880.80000  1.57333e-06  6.63631e+07
       880.90000  1.57333e-06  6.63473e+07
       881.00000  1.57333e-06  6.63316e+07
       881.10000  1.57333e-06  6.63316e+07
       881.20000  1.57333e-06  6.63316e+07
       881.30000  1.58276e-06  6.67292e+07
       881.40000  1.58276e-06  6.67134e+07
       881.50000  1.56827e-06  6.61182e+07
       881.60000  1.56827e-06  6.61182e+07
       881.70000  1.56827e-06  6.61182e+07
       881.80000  1.56827e-06  6.61339e+07
       881.90000  1.56827e-06  6.61339e+07
       882.00000  1.56827e-06  6.61496e+07
       882.10000  1.56827e-06  6.62280e+07
       882.20000  1.56827e-06  6.62907e+07
       882.30000  1.56827e-06  6.63535e+07
       882.40000  1.56827e-06  6.64162e+07
       882.50000  1.55322e-06  6.58409e+07
       882.60000  1.55322e-06  6.58875e+07
       882.70000  1.55322e-06  6.59341e+07
       882.80000  1.55322e-06  6.59807e+07
       882.90000  1.55322e-06  6.60117e+07
       883.00000  1.55322e-06  6.60428e+07
       883.10000  1.55322e-06  6.60739e+07
       883.20000  1.55322e-06  6.61049e+07
       883.30000  1.55322e-06  6.61205e+07
       883.40000  1.55322e-06  6.61360e+07
       883.50000  1.53786e-06  6.54977e+07
       883.60000  1.53786e-06  6.54977e+07
       883.70000  1.53786e-06  6.54977e+07
       883.80000  1.54347e-06  6.57362e+07
       883.90000  1.54347e-06  6.57208e+07
       884.00000  1.54347e-06  6.57054e+07
       884.10000  1.54347e-06  6.56128e+07
       884.20000  1.54347e-06  6.55202e+07
       884.30000  1.54347e-06  6.54276e+07
       884.40000  1.54347e-06  6.53349e+07
       884.50000  1.52854e-06  6.46114e+07
       884.60000  1.52854e-06  6.45350e+07
       884.70000  1.52854e-06  6.44585e+07
       884.80000  1.52854e-06  6.43974e+07
       884.90000  1.52854e-06  6.43210e+07
       885.00000  1.52854e-06  6.42598e+07
       885.10000  1.52854e-06  6.42140e+07
       885.20000  1.52854e-06  6.41528e+07
       885.30000  1.52854e-06  6.41070e+07
       885.40000  1.52854e-06  6.40611e+07
       885.50000  1.51431e-06  6.34343e+07
       885.60000  1.51431e-06  6.33888e+07
       885.70000  1.51431e-06  6.33585e+07
       885.80000  1.51431e-06  6.33434e+07
       885.90000  1.51431e-06  6.33131e+07
       886.00000  1.51431e-06  6.32980e+07
       886.10000  1.51431e-06  6.32828e+07
       886.20000  1.51431e-06  6.32677e+07
       886.30000  1.51814e-06  6.34280e+07
       886.40000  1.51814e-06  6.34280e+07
       886.50000  7.50805e-07  3.13686e+07
       886.60000  7.50805e-07  3.13761e+07
       886.70000  7.50805e-07  3.13836e+07
       886.80000  7.50805e-07  3.13912e+07
       886.90000  7.50805e-07  3.13987e+07
       887.00000  7.50805e-07  3.14137e+07
       887.10000  7.50805e-07  3.14287e+07
       887.20000  7.50805e-07  3.14437e+07
       887.30000  7.50805e-07  3.14587e+07
       887.40000  7.50805e-07  3.14812e+07
       887.50000  7.43521e-07  3.11981e+07
       887.60000  7.43521e-07  3.12279e+07
       887.70000  7.43521e-07  3.12502e+07
       887.80000  7.43521e-07  3.12799e+07
       887.90000  7.43521e-07  3.13171e+07
       888.00000  7.43521e-07  3.13468e+07
       888.10000  7.43521e-07  3.13840e+07
       888.20000  7.43521e-07  3.14137e+07
       888.30000  7.43521e-07  3.14509e+07
       888.40000  7.43521e-07  3.14807e+07
       888.50000  1.47142e-06  6.23586e+07
       888.60000  1.47142e-06  6.24028e+07
       888.70000  1.47142e-06  6.24469e+07
       888.80000  1.47764e-06  6.27554e+07
       888.90000  1.47764e-06  6.27998e+07
       889.00000  1.47764e-06  6.28441e+07
       889.10000  1.47764e-06  6.28736e+07
       889.20000  1.47764e-06  6.29032e+07
       889.30000  1.47764e-06  6.29327e+07
       889.40000  1.47764e-06  6.29475e+07
       889.50000  1.46267e-06  6.23390e+07
       889.60000  1.46267e-06  6.23536e+07
       889.70000  1.46267e-06  6.23683e+07
       889.80000  1.46267e-06  6.23683e+07
       889.90000  1.46267e-06  6.23683e+07
       890.00000  1.46267e-06  6.23683e+07
       890.10000  1.46267e-06  6.23244e+07
       890.20000  1.46267e-06  6.22805e+07
       890.30000  1.46267e-06  6.22366e+07
       890.40000  1.46267e-06  6.21927e+07
       890.50000  1.44753e-06  6.15054e+07
       890.60000  1.44753e-06  6.14619e+07
       890.70000  1.44753e-06  6.14185e+07
       890.80000  1.44753e-06  6.13751e+07
       890.90000  1.44753e-06  6.13317e+07
       891.00000  1.44753e-06  6.13027e+07
       891.10000  1.44753e-06  6.12593e+07
       891.20000  1.44753e-06  6.12303e+07
       891.30000  1.45455e-06  6.14839e+07
       891.40000  1.45455e-06  6.14549e+07
       891.50000  1.43898e-06  6.07682e+07
       891.60000  1.43898e-06  6.07394e+07
       891.70000  1.43898e-06  6.07106e+07
       891.80000  1.43898e-06  6.06818e+07
       891.90000  1.43898e-06  6.06530e+07
       892.00000  1.43898e-06  6.06243e+07
       892.10000  1.43898e-06  6.05955e+07
       892.20000  1.43898e-06  6.05811e+07
       892.30000  1.43898e-06  6.05523e+07
       892.40000  1.43898e-06  6.05379e+07
       892.50000  7.11589e-07  2.99223e+07
       892.60000  7.11589e-07  2.99152e+07
       892.70000  7.11589e-07  2.99081e+07
       892.80000  7.11589e-07  2.99010e+07
       892.90000  7.11589e-07  2.98939e+07
       893.00000  7.11589e-07  2.98868e+07
       893.10000  7.11589e-07  2.98796e+07
       893.20000  7.11589e-07  2.98725e+07
       893.30000  7.11589e-07  2.98654e+07
       893.40000  7.11589e-07  2.98654e+07
       893.50000  1.40788e-06  5.90747e+07
       893.60000  1.40788e-06  5.90747e+07
       893.70000  1.40788e-06  5.90606e+07
       893.80000  1.42015e-06  5.95751e+07
       893.90000  1.42015e-06  5.95751e+07
       894.00000  1.42015e-06  5.95751e+07
       894.10000  1.42015e-06  5.96177e+07
       894.20000  1.42015e-06  5.96461e+07
       894.30000  1.42015e-06  5.96888e+07
       894.40000  1.42015e-06  5.97172e+07
       894.50000  1.40437e-06  5.90958e+07
       894.60000  1.40437e-06  5.91238e+07
       894.70000  1.40437e-06  5.91519e+07
       894.80000  1.40437e-06  5.91800e+07
       894.90000  1.40437e-06  5.92081e+07
       895.00000  1.40437e-06  5.92362e+07
       895.10000  1.40437e-06  5.92502e+07
       895.20000  1.40437e-06  5.92783e+07
       895.30000  1.40437e-06  5.92924e+07
       895.40000  1.40437e-06  5.93064e+07
       895.50000  6.94688e-07  2.93506e+07
       895.60000  6.94688e-07  2.93575e+07
       895.70000  6.94688e-07  2.93645e+07
       895.80000  6.94688e-07  2.93645e+07
       895.90000  6.94688e-07  2.93714e+07
       896.00000  6.94688e-07  2.93784e+07
       896.10000  6.94688e-07  2.93853e+07
       896.20000  6.94688e-07  2.93853e+07
       896.30000  6.99432e-07  2.95930e+07
       896.40000  6.99432e-07  2.95930e+07
       896.50000  6.91554e-07  2.92597e+07
       896.60000  6.91554e-07  2.92597e+07
       896.70000  6.91554e-07  2.92597e+07
       896.80000  6.91554e-07  2.92597e+07
       896.90000  6.91554e-07  2.92597e+07
       897.00000  6.91554e-07  2.92528e+07
       897.10000  6.91554e-07  2.92528e+07
       897.20000  6.91554e-07  2.92458e+07
       897.30000  6.91554e-07  2.92389e+07
       897.40000  6.91554e-07  2.92320e+07
       897.50000  6.83322e-07  2.88704e+07
       897.60000  6.83322e-07  2.88635e+07
       897.70000  6.83322e-07  2.88498e+07
       897.80000  6.83322e-07  2.88430e+07
       897.90000  6.83322e-07  2.88294e+07
       898.00000  6.83322e-07  2.88157e+07
       898.10000  6.83322e-07  2.87952e+07
       898.20000  6.83322e-07  2.87815e+07
       898.30000  6.83322e-07  2.87679e+07
       898.40000  6.83322e-07  2.87474e+07
       898.50000  6.75927e-07  2.84160e+07
       898.60000  6.75927e-07  2.83957e+07
       898.70000  6.75927e-07  2.83754e+07
       898.80000  6.80765e-07  2.85581e+07
       898.90000  6.80765e-07  2.85309e+07
       899.00000  6.80765e-07  2.85104e+07
       899.10000  6.80765e-07  2.84832e+07
       899.20000  6.80765e-07  2.84560e+07
       899.30000  6.80765e-07  2.84288e+07
       899.40000  6.80765e-07  2.84015e+07
       899.50000  6.72955e-07  2.80488e+07
       899.60000  6.72955e-07  2.80151e+07
       899.70000  6.72955e-07  2.79882e+07
       899.80000  6.72955e-07  2.79546e+07
       899.90000  6.72955e-07  2.79209e+07
       900.00000  6.72955e-07  2.78873e+07
       900.10000  6.72955e-07  2.78065e+07
       900.20000  6.72955e-07  2.77392e+07
       900.30000  6.72955e-07  2.76652e+07
       900.40000  6.72955e-07  2.76046e+07
       900.50000  6.66203e-07  2.72677e+07
       900.60000  6.66203e-07  2.72144e+07
       900.70000  6.66203e-07  2.71611e+07
       900.80000  6.66203e-07  2.71211e+07
       900.90000  6.66203e-07  2.70811e+07
       901.00000  6.66203e-07  2.70412e+07
       901.10000  6.66203e-07  2.70145e+07
       901.20000  6.66203e-07  2.69879e+07
       901.30000  6.68916e-07  2.70710e+07
       901.40000  6.68916e-07  2.70577e+07
       901.50000  6.62200e-07  2.67728e+07
       901.60000  6.62200e-07  2.67661e+07
       901.70000  6.62200e-07  2.67595e+07
       901.80000  6.62200e-07  2.67595e+07
       901.90000  6.62200e-07  2.67661e+07
       902.00000  6.62200e-07  2.67794e+07
       902.10000  6.62200e-07  2.68721e+07
       902.20000  6.62200e-07  2.69582e+07
       902.30000  6.62200e-07  2.70443e+07
       902.40000  6.62200e-07  2.71237e+07
       902.50000  6.55479e-07  2.69271e+07
       902.60000  6.55479e-07  2.69992e+07
       902.70000  6.55479e-07  2.70713e+07
       902.80000  6.55479e-07  2.71368e+07
       902.90000  6.55479e-07  2.72024e+07
       903.00000  6.55479e-07  2.72614e+07
       903.10000  6.55479e-07  2.73204e+07
       903.20000  6.55479e-07  2.73728e+07
       903.30000  6.55479e-07  2.74187e+07
       903.40000  6.55479e-07  2.74646e+07
       903.50000  6.48947e-07  2.72298e+07
       903.60000  6.48947e-07  2.72687e+07
       903.70000  6.48947e-07  2.73077e+07
       903.80000  6.52384e-07  2.74784e+07
       903.90000  6.52384e-07  2.75110e+07
       904.00000  6.52384e-07  2.75306e+07
       904.10000  6.52384e-07  2.75502e+07
       904.20000  6.52384e-07  2.75698e+07
       904.30000  6.52384e-07  2.75828e+07
       904.40000  6.52384e-07  2.75893e+07
       904.50000  6.45725e-07  2.73142e+07
       904.60000  6.45725e-07  2.73206e+07
       904.70000  6.45725e-07  2.73206e+07
       904.80000  6.45725e-07  2.73142e+07
       904.90000  6.45725e-07  2.73077e+07
       905.00000  6.45725e-07  2.72948e+07
       905.10000  6.45725e-07  2.72819e+07
       905.20000  6.45725e-07  2.72625e+07
       905.30000  6.45725e-07  2.72431e+07
       905.40000  6.45725e-07  2.72173e+07
       905.50000  6.39082e-07  2.69054e+07
       905.60000  6.39082e-07  2.68734e+07
       905.70000  6.39082e-07  2.68414e+07
       905.80000  6.39082e-07  2.68031e+07
       905.90000  6.39082e-07  2.67584e+07
       906.00000  6.39082e-07  2.67136e+07
       906.10000  6.39082e-07  2.66881e+07
       906.20000  6.39082e-07  2.66689e+07
       906.30000  6.42031e-07  2.67727e+07
       906.40000  6.42031e-07  2.67470e+07
       906.50000  6.35301e-07  2.64476e+07
       906.60000  6.35301e-07  2.64285e+07
       906.70000  6.35301e-07  2.64095e+07
       906.80000  6.35301e-07  2.63904e+07
       906.90000  6.35301e-07  2.63714e+07
       907.00000  6.35301e-07  2.63523e+07
       907.10000  6.35301e-07  2.63332e+07
       907.20000  6.35301e-07  2.63142e+07
       907.30000  6.35301e-07  2.62951e+07
       907.40000  6.35301e-07  2.62761e+07
       907.50000  6.28489e-07  2.59755e+07
       907.60000  6.28489e-07  2.59629e+07
       907.70000  6.28489e-07  2.59440e+07
       907.80000  6.28489e-07  2.59252e+07
       907.90000  6.28489e-07  2.59126e+07
       908.00000  6.28489e-07  2.58938e+07
       908.10000  6.28489e-07  2.58686e+07
       908.20000  6.28489e-07  2.58498e+07
       908.30000  6.28489e-07  2.58246e+07
       908.40000  6.28489e-07  2.58058e+07
       908.50000  6.21939e-07  2.55182e+07
       908.60000  6.21939e-07  2.54995e+07
       908.70000  6.21939e-07  2.54871e+07
       908.80000  6.24078e-07  2.55560e+07
       908.90000  6.24078e-07  2.55435e+07
       909.00000  6.24078e-07  2.55310e+07
       909.10000  6.24078e-07  2.55185e+07
       909.20000  6.24078e-07  2.55061e+07
       909.30000  6.24078e-07  2.54936e+07
       909.40000  6.24078e-07  2.54873e+07
       909.50000  5.94726e-07  2.42827e+07
       909.60000  5.94726e-07  2.42767e+07
       909.70000  5.94726e-07  2.42708e+07
       909.80000  5.94726e-07  2.42648e+07
       909.90000  5.94726e-07  2.42648e+07
       910.00000  5.94726e-07  2.42589e+07
       910.10000  5.94726e-07  2.42589e+07
       910.20000  5.94726e-07  2.42589e+07
       910.30000  5.94726e-07  2.42648e+07
       910.40000  5.94726e-07  2.42648e+07
       910.50000  6.10637e-07  2.49201e+07
       910.60000  6.10637e-07  2.49201e+07
       910.70000  6.10637e-07  2.49262e+07
       910.80000  6.10637e-07  2.49384e+07
       910.90000  6.10637e-07  2.49445e+07
       911.00000  6.10637e-07  2.49506e+07
       911.10000  6.10637e-07  2.49628e+07
       911.20000  6.10637e-07  2.49750e+07
       911.30000  6.11203e-07  2.50104e+07
       911.40000  6.11203e-07  2.50226e+07
       911.50000  5.79141e-07  2.37274e+07
       911.60000  5.79141e-07  2.37390e+07
       911.70000  5.79141e-07  2.37564e+07
       911.80000  5.79141e-07  2.37738e+07
       911.90000  5.79141e-07  2.37911e+07
       912.00000  5.79141e-07  2.38143e+07
       912.10000  5.79141e-07  2.38433e+07
       912.20000  5.79141e-07  2.38664e+07
       912.30000  5.79141e-07  2.38896e+07
       912.40000  5.79141e-07  2.39128e+07
       912.50000  5.14599e-07  2.12684e+07
       912.60000  5.14599e-07  2.12889e+07
       912.70000  5.14599e-07  2.13095e+07
       912.80000  5.14599e-07  2.13250e+07
       912.90000  5.14599e-07  2.13404e+07
       913.00000  5.14599e-07  2.13558e+07
       913.10000  5.14599e-07  2.13713e+07
       913.20000  5.14599e-07  2.13816e+07
       913.30000  5.14599e-07  2.13970e+07
       913.40000  5.14599e-07  2.14073e+07
       913.50000  4.76529e-07  1.98331e+07
       913.60000  4.76529e-07  1.98427e+07
       913.70000  4.76529e-07  1.98474e+07
       913.80000  4.79071e-07  1.99581e+07
       913.90000  4.79071e-07  1.99677e+07
       914.00000  4.79071e-07  1.99725e+07
       914.10000  4.79071e-07  1.99629e+07
       914.20000  4.79071e-07  1.99581e+07
       914.30000  4.79071e-07  1.99533e+07
       914.40000  4.79071e-07  1.99485e+07
       914.50000  4.93377e-07  2.05393e+07
       914.60000  4.93377e-07  2.05294e+07
       914.70000  4.93377e-07  2.05245e+07
       914.80000  4.93377e-07  2.05196e+07
       914.90000  4.93377e-07  2.05146e+07
       915.00000  4.93377e-07  2.05097e+07
       915.10000  4.93377e-07  2.05048e+07
       915.20000  4.93377e-07  2.04998e+07
       915.30000  4.93377e-07  2.04949e+07
       915.40000  4.93377e-07  2.04900e+07
       915.50000  4.94738e-07  2.05415e+07
       915.60000  4.94738e-07  2.05366e+07
       915.70000  4.94738e-07  2.05316e+07
       915.80000  4.94738e-07  2.05267e+07
       915.90000  4.94738e-07  2.05218e+07
       916.00000  4.94738e-07  2.05168e+07
       916.10000  4.94738e-07  2.05119e+07
       916.20000  4.94738e-07  2.05069e+07
       916.30000  4.98268e-07  2.06482e+07
       916.40000  4.98268e-07  2.06432e+07
       916.50000  5.77687e-07  2.39278e+07
       916.60000  5.77687e-07  2.39278e+07
       916.70000  5.77687e-07  2.39220e+07
       916.80000  5.77687e-07  2.39162e+07
       916.90000  5.77687e-07  2.39104e+07
       917.00000  5.77687e-07  2.39047e+07
       917.10000  5.77687e-07  2.39047e+07
       917.20000  5.77687e-07  2.38989e+07
       917.30000  5.77687e-07  2.38931e+07
       917.40000  5.77687e-07  2.38873e+07
       917.50000  5.34861e-07  2.21165e+07
       917.60000  5.34861e-07  2.21112e+07
       917.70000  5.34861e-07  2.21058e+07
       917.80000  5.34861e-07  2.21058e+07
       917.90000  5.34861e-07  2.21005e+07
       918.00000  5.34861e-07  2.20951e+07
       918.10000  5.34861e-07  2.21058e+07
       918.20000  5.34861e-07  2.21165e+07
       918.30000  5.34861e-07  2.21272e+07
       918.40000  5.34861e-07  2.21326e+07
       918.50000  4.79958e-07  1.98655e+07
       918.60000  4.79958e-07  1.98703e+07
       918.70000  4.79958e-07  1.98703e+07
       918.80000  4.84424e-07  2.00552e+07
       918.90000  4.84424e-07  2.00552e+07
       919.00000  4.84424e-07  2.00552e+07
       919.10000  4.84424e-07  2.00503e+07
       919.20000  4.84424e-07  2.00455e+07
       919.30000  4.84424e-07  2.00406e+07
       919.40000  4.84424e-07  2.00309e+07
       919.50000  4.25452e-07  1.75839e+07
       919.60000  4.25452e-07  1.75754e+07
       919.70000  4.25452e-07  1.75669e+07
       919.80000  4.25452e-07  1.75542e+07
       919.90000  4.25452e-07  1.75456e+07
       920.00000  4.25452e-07  1.75329e+07
       920.10000  4.25452e-07  1.74946e+07
       920.20000  4.25452e-07  1.74606e+07
       920.30000  4.25452e-07  1.74265e+07
       920.40000  4.25452e-07  1.73925e+07
       920.50000  4.43147e-07  1.80804e+07
       920.60000  4.43147e-07  1.80494e+07
       920.70000  4.43147e-07  1.80184e+07
       920.80000  4.43147e-07  1.79918e+07
       920.90000  4.43147e-07  1.79607e+07
       921.00000  4.43147e-07  1.79342e+07
       921.10000  4.43147e-07  1.79076e+07
       921.20000  4.43147e-07  1.78854e+07
       921.30000  4.44979e-07  1.79327e+07
       921.40000  4.44979e-07  1.79104e+07
       921.50000  4.42845e-07  1.78024e+07
       921.60000  4.42845e-07  1.77846e+07
       921.70000  4.42845e-07  1.77669e+07
       921.80000  4.42845e-07  1.77492e+07
       921.90000  4.42845e-07  1.77315e+07
       922.00000  4.42845e-07  1.77182e+07
       922.10000  4.42845e-07  1.77005e+07
       922.20000  4.42845e-07  1.76916e+07
       922.30000  4.42845e-07  1.76784e+07
       922.40000  4.42845e-07  1.76695e+07
       922.50000  4.63639e-07  1.84853e+07
       922.60000  4.63639e-07  1.84806e+07
       922.70000  4.63639e-07  1.84714e+07
       922.80000  4.63639e-07  1.84667e+07
       922.90000  4.63639e-07  1.84621e+07
       923.00000  4.63639e-07  1.84575e+07
       923.10000  4.63639e-07  1.84575e+07
       923.20000  4.63639e-07  1.84528e+07
       923.30000  4.63639e-07  1.84528e+07
       923.40000  4.63639e-07  1.84575e+07
       923.50000  3.83785e-07  1.52785e+07
       923.60000  3.83785e-07  1.52823e+07
       923.70000  3.83785e-07  1.52862e+07
       923.80000  3.84655e-07  1.53285e+07
       923.90000  3.84655e-07  1.53324e+07
       924.00000  3.84655e-07  1.53400e+07
       924.10000  3.84655e-07  1.53400e+07
       924.20000  3.84655e-07  1.53400e+07
       924.30000  3.84655e-07  1.53400e+07
       924.40000  3.84655e-07  1.53400e+07
       924.50000  3.88555e-07  1.54956e+07
       924.60000  3.88555e-07  1.54956e+07
       924.70000  3.88555e-07  1.54995e+07
       924.80000  3.88555e-07  1.55034e+07
       924.90000  3.88555e-07  1.55034e+07
       925.00000  3.88555e-07  1.55072e+07
       925.10000  3.88555e-07  1.55150e+07
       925.20000  3.88555e-07  1.55189e+07
       925.30000  3.88555e-07  1.55228e+07
       925.40000  3.88555e-07  1.55306e+07
       925.50000  3.89759e-07  1.55864e+07
       925.60000  3.89759e-07  1.55942e+07
       925.70000  3.89759e-07  1.56020e+07
       925.80000  3.89759e-07  1.56098e+07
       925.90000  3.89759e-07  1.56176e+07
       926.00000  3.89759e-07  1.56293e+07
       926.10000  3.89759e-07  1.56527e+07
       926.20000  3.89759e-07  1.56800e+07
       926.30000  3.91375e-07  1.57685e+07
       926.40000  3.91375e-07  1.57920e+07
       926.50000  3.77524e-07  1.52557e+07
       926.60000  3.77524e-07  1.52746e+07
       926.70000  3.77524e-07  1.52935e+07
       926.80000  3.77524e-07  1.53124e+07
       926.90000  3.77524e-07  1.53312e+07
       927.00000  3.77524e-07  1.53464e+07
       927.10000  3.77524e-07  1.53615e+07
       927.20000  3.77524e-07  1.53766e+07
       927.30000  3.77524e-07  1.53879e+07
       927.40000  3.77524e-07  1.53992e+07
       927.50000  3.56294e-07  1.45439e+07
       927.60000  3.56294e-07  1.45510e+07
       927.70000  3.56294e-07  1.45617e+07
       927.80000  3.56294e-07  1.45689e+07
       927.90000  3.56294e-07  1.45724e+07
       928.00000  3.56294e-07  1.45760e+07
       928.10000  3.56294e-07  1.45689e+07
       928.20000  3.56294e-07  1.45617e+07
       928.30000  3.56294e-07  1.45510e+07
       928.40000  3.56294e-07  1.45439e+07
       928.50000  3.80459e-07  1.55227e+07
       928.60000  3.80459e-07  1.55151e+07
       928.70000  3.80459e-07  1.55075e+07
       928.80000  3.82227e-07  1.55719e+07
       928.90000  3.82227e-07  1.55643e+07
       929.00000  3.82227e-07  1.55605e+07
       929.10000  3.82227e-07  1.55528e+07
       929.20000  3.82227e-07  1.55452e+07
       929.30000  3.82227e-07  1.55414e+07
       929.40000  3.82227e-07  1.55337e+07
       929.50000  3.48103e-07  1.41434e+07
       929.60000  3.48103e-07  1.41399e+07
       929.70000  3.48103e-07  1.41330e+07
       929.80000  3.48103e-07  1.41295e+07
       929.90000  3.48103e-07  1.41260e+07
       930.00000  3.48103e-07  1.41225e+07
       930.10000  3.48103e-07  1.41225e+07
       930.20000  3.48103e-07  1.41225e+07
       930.30000  3.48103e-07  1.41191e+07
       930.40000  3.48103e-07  1.41191e+07
       930.50000  4.06200e-07  1.64755e+07
       930.60000  4.06200e-07  1.64755e+07
       930.70000  4.06200e-07  1.64714e+07
       930.80000  4.06200e-07  1.64714e+07
       930.90000  4.06200e-07  1.64714e+07
       931.00000  4.06200e-07  1.64714e+07
       931.10000  4.06200e-07  1.64714e+07
       931.20000  4.06200e-07  1.64673e+07
       931.30000  4.08031e-07  1.65416e+07
       931.40000  4.08031e-07  1.65416e+07
       931.50000  3.71828e-07  1.50739e+07
       931.60000  3.71828e-07  1.50739e+07
       931.70000  3.71828e-07  1.50739e+07
       931.80000  3.71828e-07  1.50739e+07
       931.90000  3.71828e-07  1.50739e+07
       932.00000  3.71828e-07  1.50739e+07
       932.10000  3.71828e-07  1.50739e+07
       932.20000  3.71828e-07  1.50739e+07
       932.30000  3.71828e-07  1.50739e+07
       932.40000  3.71828e-07  1.50739e+07
       932.50000  3.39751e-07  1.37735e+07
       932.60000  3.39751e-07  1.37735e+07
       932.70000  3.39751e-07  1.37735e+07
       932.80000  3.39751e-07  1.37769e+07
       932.90000  3.39751e-07  1.37769e+07
       933.00000  3.39751e-07  1.37769e+07
       933.10000  3.39751e-07  1.37769e+07
       933.20000  3.39751e-07  1.37769e+07
       933.30000  3.39751e-07  1.37803e+07
       933.40000  3.39751e-07  1.37803e+07
       933.50000  3.52286e-07  1.42887e+07
       933.60000  3.52286e-07  1.42923e+07
       933.70000  3.52286e-07  1.42923e+07
       933.80000  3.53615e-07  1.43461e+07
       933.90000  3.53615e-07  1.43497e+07
       934.00000  3.53615e-07  1.43497e+07
       934.10000  3.53615e-07  1.43391e+07
       934.20000  3.53615e-07  1.43285e+07
       934.30000  3.53615e-07  1.43179e+07
       934.40000  3.53615e-07  1.43072e+07
       934.50000  3.38773e-07  1.36966e+07
       934.60000  3.38773e-07  1.36898e+07
       934.70000  3.38773e-07  1.36830e+07
       934.80000  3.38773e-07  1.36729e+07
       934.90000  3.38773e-07  1.36661e+07
       935.00000  3.38773e-07  1.36627e+07
       935.10000  3.38773e-07  1.36559e+07
       935.20000  3.38773e-07  1.36492e+07
       935.30000  3.38773e-07  1.36458e+07
       935.40000  3.38773e-07  1.36424e+07
       935.50000  3.21544e-07  1.29454e+07
       935.60000  3.21544e-07  1.29422e+07
       935.70000  3.21544e-07  1.29389e+07
       935.80000  3.21544e-07  1.29357e+07
       935.90000  3.21544e-07  1.29357e+07
       936.00000  3.21544e-07  1.29325e+07
       936.10000  3.21544e-07  1.29422e+07
       936.20000  3.21544e-07  1.29518e+07
       936.30000  3.22663e-07  1.30066e+07
       936.40000  3.22663e-07  1.30162e+07
       936.50000  3.25584e-07  1.31406e+07
       936.60000  3.25584e-07  1.31471e+07
       936.70000  3.25584e-07  1.31536e+07
       936.80000  3.25584e-07  1.31601e+07
       936.90000  3.25584e-07  1.31634e+07
       937.00000  3.25584e-07  1.31699e+07
       937.10000  3.25584e-07  1.31731e+07
       937.20000  3.25584e-07  1.31764e+07
       937.30000  3.25584e-07  1.31764e+07
       937.40000  3.25584e-07  1.31796e+07
       937.50000  3.15677e-07  1.27786e+07
       937.60000  3.15677e-07  1.27786e+07
       937.70000  3.15677e-07  1.27786e+07
       937.80000  3.15677e-07  1.27786e+07
       937.90000  3.15677e-07  1.27754e+07
       938.00000  3.15677e-07  1.27754e+07
       938.10000  3.15677e-07  1.27723e+07
       938.20000  3.15677e-07  1.27660e+07
       938.30000  3.15677e-07  1.27628e+07
       938.40000  3.15677e-07  1.27565e+07
       938.50000  3.64992e-07  1.47457e+07
       938.60000  3.64992e-07  1.47384e+07
       938.70000  3.64992e-07  1.47274e+07
       938.80000  3.66016e-07  1.47614e+07
       938.90000  3.66016e-07  1.47505e+07
       939.00000  3.66016e-07  1.47431e+07
       939.10000  3.66016e-07  1.47322e+07
       939.20000  3.66016e-07  1.47175e+07
       939.30000  3.66016e-07  1.47065e+07
       939.40000  3.66016e-07  1.46919e+07
       939.50000  2.69408e-07  1.08032e+07
       939.60000  2.69408e-07  1.07925e+07
       939.70000  2.69408e-07  1.07817e+07
       939.80000  2.69408e-07  1.07709e+07
       939.90000  2.69408e-07  1.07574e+07
       940.00000  2.69408e-07  1.07440e+07
       940.10000  2.69408e-07  1.07251e+07
       940.20000  2.69408e-07  1.07063e+07
       940.30000  2.69408e-07  1.06901e+07
       940.40000  2.69408e-07  1.06739e+07
       940.50000  2.75845e-07  1.09124e+07
       940.60000  2.75845e-07  1.08986e+07
       940.70000  2.75845e-07  1.08848e+07
       940.80000  2.75845e-07  1.08710e+07
       940.90000  2.75845e-07  1.08573e+07
       941.00000  2.75845e-07  1.08462e+07
       941.10000  2.75845e-07  1.08352e+07
       941.20000  2.75845e-07  1.08269e+07
       941.30000  2.76200e-07  1.08326e+07
       941.40000  2.76200e-07  1.08243e+07
       941.50000  2.69436e-07  1.05511e+07
       941.60000  2.69436e-07  1.05457e+07
       941.70000  2.69436e-07  1.05403e+07
       941.80000  2.69436e-07  1.05349e+07
       941.90000  2.69436e-07  1.05296e+07
       942.00000  2.69436e-07  1.05269e+07
       942.10000  2.69436e-07  1.05349e+07
       942.20000  2.69436e-07  1.05403e+07
       942.30000  2.69436e-07  1.05484e+07
       942.40000  2.69436e-07  1.05538e+07
       942.50000  2.56669e-07  1.00589e+07
       942.60000  2.56669e-07  1.00666e+07
       942.70000  2.56669e-07  1.00717e+07
       942.80000  2.56669e-07  1.00768e+07
       942.90000  2.56669e-07  1.00820e+07
       943.00000  2.56669e-07  1.00871e+07
       943.10000  2.56669e-07  1.00948e+07
       943.20000  2.56669e-07  1.00999e+07
       943.30000  2.56669e-07  1.01051e+07
       943.40000  2.56669e-07  1.01102e+07
       943.50000  2.70605e-07  1.06645e+07
       943.60000  2.70605e-07  1.06700e+07
       943.70000  2.70605e-07  1.06754e+07
       943.80000  2.70563e-07  1.06791e+07
       943.90000  2.70563e-07  1.06845e+07
       944.00000  2.70563e-07  1.06899e+07
       944.10000  2.70563e-07  1.06954e+07
       944.20000  2.70563e-07  1.07008e+07
       944.30000  2.70563e-07  1.07035e+07
       944.40000  2.70563e-07  1.07089e+07
       944.50000  2.35389e-07  9.32140e+06
       944.60000  2.35389e-07  9.32610e+06
       944.70000  2.35389e-07  9.32846e+06
       944.80000  2.35389e-07  9.33316e+06
       944.90000  2.35389e-07  9.33787e+06
       945.00000  2.35389e-07  9.34023e+06
       945.10000  2.35389e-07  9.34493e+06
       945.20000  2.35389e-07  9.34964e+06
       945.30000  2.35389e-07  9.35200e+06
       945.40000  2.35389e-07  9.35670e+06
       945.50000  2.43285e-07  9.67301e+06
       945.60000  2.43285e-07  9.67787e+06
       945.70000  2.43285e-07  9.68031e+06
       945.80000  2.43285e-07  9.68517e+06
       945.90000  2.43285e-07  9.68761e+06
       946.00000  2.43285e-07  9.69004e+06
       946.10000  2.43285e-07  9.69490e+06
       946.20000  2.43285e-07  9.69977e+06
       946.30000  2.43357e-07  9.70753e+06
       946.40000  2.43357e-07  9.71240e+06
       946.50000  2.18659e-07  8.73105e+06
       946.60000  2.18659e-07  8.73324e+06
       946.70000  2.18659e-07  8.73761e+06
       946.80000  2.18659e-07  8.73980e+06
       946.90000  2.18659e-07  8.74198e+06
       947.00000  2.18659e-07  8.74636e+06
       947.10000  2.18659e-07  8.74854e+06
       947.20000  2.18659e-07  8.75073e+06
       947.30000  2.18659e-07  8.75292e+06
       947.40000  2.18659e-07  8.75510e+06
       947.50000  2.24466e-07  8.98761e+06
       947.60000  2.24466e-07  8.98985e+06
       947.70000  2.24466e-07  8.99210e+06
       947.80000  2.24466e-07  8.99210e+06
       947.90000  2.24466e-07  8.99434e+06
       948.00000  2.24466e-07  8.99434e+06
       948.10000  2.24466e-07  8.99434e+06
       948.20000  2.24466e-07  8.99434e+06
       948.30000  2.24466e-07  8.99210e+06
       948.40000  2.24466e-07  8.99210e+06
       948.50000  2.48589e-07  9.95600e+06
       948.60000  2.48589e-07  9.95600e+06
       948.70000  2.48589e-07  9.95600e+06
       948.80000  2.49361e-07  9.98442e+06
       948.90000  2.49361e-07  9.98442e+06
       949.00000  2.49361e-07  9.98192e+06
       949.10000  2.49361e-07  9.98192e+06
       949.20000  2.49361e-07  9.97943e+06
       949.30000  2.49361e-07  9.97943e+06
       949.40000  2.49361e-07  9.97694e+06
       949.50000  2.12425e-07  8.49913e+06
       949.60000  2.12425e-07  8.49701e+06
       949.70000  2.12425e-07  8.49488e+06
       949.80000  2.12425e-07  8.49488e+06
       949.90000  2.12425e-07  8.49276e+06
       950.00000  2.12425e-07  8.49064e+06
       950.10000  2.12425e-07  8.49064e+06
       950.20000  2.12425e-07  8.48851e+06
       950.30000  2.12425e-07  8.48639e+06
       950.40000  2.12425e-07  8.48639e+06
       950.50000  2.11603e-07  8.45144e+06
       950.60000  2.11603e-07  8.44933e+06
       950.70000  2.11603e-07  8.44721e+06
       950.80000  2.11603e-07  8.44721e+06
       950.90000  2.11603e-07  8.44509e+06
       951.00000  2.11603e-07  8.44298e+06
       951.10000  2.11603e-07  8.44086e+06
       951.20000  2.11603e-07  8.43875e+06
       951.30000  2.11402e-07  8.43070e+06
       951.40000  2.11402e-07  8.42859e+06
       951.50000  2.21368e-07  8.82374e+06
       951.60000  2.21368e-07  8.82152e+06
       951.70000  2.21368e-07  8.81931e+06
       951.80000  2.21368e-07  8.81709e+06
       951.90000  2.21368e-07  8.81488e+06
       952.00000  2.21368e-07  8.81267e+06
       952.10000  2.21368e-07  8.79496e+06
       952.20000  2.21368e-07  8.77725e+06
       952.30000  2.21368e-07  8.76175e+06
       952.40000  2.21368e-07  8.74626e+06
       952.50000  1.95047e-07  7.69265e+06
       952.60000  1.95047e-07  7.67900e+06
       952.70000  1.95047e-07  7.66729e+06
       952.80000  1.95047e-07  7.65559e+06
       952.90000  1.95047e-07  7.64389e+06
       953.00000  1.95047e-07  7.63414e+06
       953.10000  1.95047e-07  7.62438e+06
       953.20000  1.95047e-07  7.61463e+06
       953.30000  1.95047e-07  7.60683e+06
       953.40000  1.95047e-07  7.59708e+06
       953.50000  1.71798e-07  6.68467e+06
       953.60000  1.71798e-07  6.67952e+06
       953.70000  1.71798e-07  6.67265e+06
       953.80000  1.72165e-07  6.68171e+06
       953.90000  1.72165e-07  6.67655e+06
       954.00000  1.72165e-07  6.67311e+06
       954.10000  1.72165e-07  6.67138e+06
       954.20000  1.72165e-07  6.66966e+06
       954.30000  1.72165e-07  6.66966e+06
       954.40000  1.72165e-07  6.66966e+06
       954.50000  2.05910e-07  7.97489e+06
       954.60000  2.05910e-07  7.97489e+06
       954.70000  2.05910e-07  7.97489e+06
       954.80000  2.05910e-07  7.97489e+06
       954.90000  2.05910e-07  7.97695e+06
       955.00000  2.05910e-07  7.97695e+06
       955.10000  2.05910e-07  7.97901e+06
       955.20000  2.05910e-07  7.97901e+06
       955.30000  2.05910e-07  7.98107e+06
       955.40000  2.05910e-07  7.98312e+06
       955.50000  1.90749e-07  7.39724e+06
       955.60000  1.90749e-07  7.39915e+06
       955.70000  1.90749e-07  7.40106e+06
       955.80000  1.90749e-07  7.40487e+06
       955.90000  1.90749e-07  7.40678e+06
       956.00000  1.90749e-07  7.41059e+06
       956.10000  1.90749e-07  7.41441e+06
       956.20000  1.90749e-07  7.41632e+06
       956.30000  1.91397e-07  7.44532e+06
       956.40000  1.91397e-07  7.45107e+06
       956.50000  1.92010e-07  7.47881e+06
       956.60000  1.92010e-07  7.48265e+06
       956.70000  1.92010e-07  7.48841e+06
       956.80000  1.92010e-07  7.49225e+06
       956.90000  1.92010e-07  7.49801e+06
       957.00000  1.92010e-07  7.50377e+06
       957.10000  1.92010e-07  7.50953e+06
       957.20000  1.92010e-07  7.51529e+06
       957.30000  1.92010e-07  7.52297e+06
       957.40000  1.92010e-07  7.52873e+06
       957.50000  1.92063e-07  7.53657e+06
       957.60000  1.92063e-07  7.54425e+06
       957.70000  1.92063e-07  7.55194e+06
       957.80000  1.92063e-07  7.55962e+06
       957.90000  1.92063e-07  7.56730e+06
       958.00000  1.92063e-07  7.57498e+06
       958.10000  1.92063e-07  7.57498e+06
       958.20000  1.92063e-07  7.57306e+06
       958.30000  1.92063e-07  7.57306e+06
       958.40000  1.92063e-07  7.57306e+06
       958.50000  1.76852e-07  6.97328e+06
       958.60000  1.76852e-07  6.97151e+06
       958.70000  1.76852e-07  6.97151e+06
       958.80000  1.77035e-07  6.97871e+06
       958.90000  1.77035e-07  6.97694e+06
       959.00000  1.77035e-07  6.97694e+06
       959.10000  1.77035e-07  6.97517e+06
       959.20000  1.77035e-07  6.97517e+06
       959.30000  1.77035e-07  6.97340e+06
       959.40000  1.77035e-07  6.97163e+06
       959.50000  1.95361e-07  7.69333e+06
       959.60000  1.95361e-07  7.69137e+06
       959.70000  1.95361e-07  7.69137e+06
       959.80000  1.95361e-07  7.68942e+06
       959.90000  1.95361e-07  7.68746e+06
       960.00000  1.95361e-07  7.68551e+06
       960.10000  1.95361e-07  7.68356e+06
       960.20000  1.95361e-07  7.68160e+06
       960.30000  1.95361e-07  7.67965e+06
       960.40000  1.95361e-07  7.67770e+06
       960.50000  1.86894e-07  7.34306e+06
       960.60000  1.86894e-07  7.34120e+06
       960.70000  1.86894e-07  7.33933e+06
       960.80000  1.86894e-07  7.33746e+06
       960.90000  1.86894e-07  7.33559e+06
       961.00000  1.86894e-07  7.33372e+06
       961.10000  1.86894e-07  7.33185e+06
       961.20000  1.86894e-07  7.32998e+06
       961.30000  1.87261e-07  7.34249e+06
       961.40000  1.87261e-07  7.34062e+06
       961.50000  1.69431e-07  6.64000e+06
       961.60000  1.69431e-07  6.63661e+06
       961.70000  1.69431e-07  6.63492e+06
       961.80000  1.69431e-07  6.63322e+06
       961.90000  1.69431e-07  6.63153e+06
       962.00000  1.69431e-07  6.62983e+06
       962.10000  1.69431e-07  6.62645e+06
       962.20000  1.69431e-07  6.62475e+06
       962.30000  1.69431e-07  6.62306e+06
       962.40000  1.69431e-07  6.61967e+06
       962.50000  1.69324e-07  6.61379e+06
       962.60000  1.69324e-07  6.61209e+06
       962.70000  1.69324e-07  6.60871e+06
       962.80000  1.69324e-07  6.60701e+06
       962.90000  1.69324e-07  6.60363e+06
       963.00000  1.69324e-07  6.60193e+06
       963.10000  1.69324e-07  6.60024e+06
       963.20000  1.69324e-07  6.59685e+06
       963.30000  1.69324e-07  6.59516e+06
       963.40000  1.69324e-07  6.59177e+06
       963.50000  1.61208e-07  6.27420e+06
       963.60000  1.61208e-07  6.27097e+06
       963.70000  1.61208e-07  6.26936e+06
       963.80000  1.61548e-07  6.27937e+06
       963.90000  1.61548e-07  6.27614e+06
       964.00000  1.61548e-07  6.27452e+06
       964.10000  1.61548e-07  6.27129e+06
       964.20000  1.61548e-07  6.26645e+06
       964.30000  1.61548e-07  6.26321e+06
       964.40000  1.61548e-07  6.26160e+06
       964.50000  1.56142e-07  6.04893e+06
       964.60000  1.56142e-07  6.04580e+06
       964.70000  1.56142e-07  6.04424e+06
       964.80000  1.56142e-07  6.04112e+06
       964.90000  1.56142e-07  6.03956e+06
       965.00000  1.56142e-07  6.03644e+06
       965.10000  1.56142e-07  6.03488e+06
       965.20000  1.56142e-07  6.03331e+06
       965.30000  1.56142e-07  6.03175e+06
       965.40000  1.56142e-07  6.03175e+06
       965.50000  1.75132e-07  6.76360e+06
       965.60000  1.75132e-07  6.76185e+06
       965.70000  1.75132e-07  6.76185e+06
       965.80000  1.75132e-07  6.76010e+06
       965.90000  1.75132e-07  6.76010e+06
       966.00000  1.75132e-07  6.76010e+06
       966.10000  1.75132e-07  6.76185e+06
       966.20000  1.75132e-07  6.76360e+06
       966.30000  1.75706e-07  6.78930e+06
       966.40000  1.75706e-07  6.79105e+06
       966.50000  1.72624e-07  6.67363e+06
       966.60000  1.72624e-07  6.67536e+06
       966.70000  1.72624e-07  6.67708e+06
       966.80000  1.72624e-07  6.67881e+06
       966.90000  1.72624e-07  6.68054e+06
       967.00000  1.72624e-07  6.68226e+06
       967.10000  1.72624e-07  6.68399e+06
       967.20000  1.72624e-07  6.68572e+06
       967.30000  1.72624e-07  6.68744e+06
       967.40000  1.72624e-07  6.68917e+06
       967.50000  1.59279e-07  6.17205e+06
       967.60000  1.59279e-07  6.17365e+06
       967.70000  1.59279e-07  6.17524e+06
       967.80000  1.59279e-07  6.17524e+06
       967.90000  1.59279e-07  6.17683e+06
       968.00000  1.59279e-07  6.17842e+06
       968.10000  1.59279e-07  6.17842e+06
       968.20000  1.59279e-07  6.18002e+06
       968.30000  1.59279e-07  6.18002e+06
       968.40000  1.59279e-07  6.18002e+06
       968.50000  1.70891e-07  6.63227e+06
       968.60000  1.70891e-07  6.63227e+06
       968.70000  1.70891e-07  6.63227e+06
       968.80000  1.71294e-07  6.64964e+06
       968.90000  1.71294e-07  6.64964e+06
       969.00000  1.71294e-07  6.64964e+06
       969.10000  1.71294e-07  6.64964e+06
       969.20000  1.71294e-07  6.64964e+06
       969.30000  1.71294e-07  6.64964e+06
       969.40000  1.71294e-07  6.64964e+06
       969.50000  1.56322e-07  6.06843e+06
       969.60000  1.56322e-07  6.06843e+06
       969.70000  1.56322e-07  6.06843e+06
       969.80000  1.56322e-07  6.06843e+06
       969.90000  1.56322e-07  6.06843e+06
       970.00000  1.56322e-07  6.06843e+06
       970.10000  1.56322e-07  6.06999e+06
       970.20000  1.56322e-07  6.07156e+06
       970.30000  1.56322e-07  6.07156e+06
       970.40000  1.56322e-07  6.07312e+06
       970.50000  1.31319e-07  5.10173e+06
       970.60000  1.31319e-07  5.10304e+06
       970.70000  1.31319e-07  5.10304e+06
       970.80000  1.31319e-07  5.10304e+06
       970.90000  1.31319e-07  5.10304e+06
       971.00000  1.31319e-07  5.10304e+06
       971.10000  1.31319e-07  5.10304e+06
       971.20000  1.31319e-07  5.10173e+06
       971.30000  1.31531e-07  5.11000e+06
       971.40000  1.31531e-07  5.10868e+06
       971.50000  1.48100e-07  5.75222e+06
       971.60000  1.48100e-07  5.75074e+06
       971.70000  1.48100e-07  5.74926e+06
       971.80000  1.48100e-07  5.74778e+06
       971.90000  1.48100e-07  5.74630e+06
       972.00000  1.48100e-07  5.74334e+06
       972.10000  1.48100e-07  5.73741e+06
       972.20000  1.48100e-07  5.73149e+06
       972.30000  1.48100e-07  5.72705e+06
       972.40000  1.48100e-07  5.72112e+06
       972.50000  1.51469e-07  5.84672e+06
       972.60000  1.51469e-07  5.84066e+06
       972.70000  1.51469e-07  5.83611e+06
       972.80000  1.51469e-07  5.83157e+06
       972.90000  1.51469e-07  5.82702e+06
       973.00000  1.51469e-07  5.82399e+06
       973.10000  1.51469e-07  5.81945e+06
       973.20000  1.51469e-07  5.81642e+06
       973.30000  1.51469e-07  5.81339e+06
       973.40000  1.51469e-07  5.81036e+06
       973.50000  1.35269e-07  5.18622e+06
       973.60000  1.35269e-07  5.18352e+06
       973.70000  1.35269e-07  5.18216e+06
       973.80000  1.35342e-07  5.18226e+06
       973.90000  1.35342e-07  5.18091e+06
       974.00000  1.35342e-07  5.17956e+06
       974.10000  1.35342e-07  5.18091e+06
       974.20000  1.35342e-07  5.18362e+06
       974.30000  1.35342e-07  5.18497e+06
       974.40000  1.35342e-07  5.18632e+06
       974.50000  1.29364e-07  4.95852e+06
       974.60000  1.29364e-07  4.95981e+06
       974.70000  1.29364e-07  4.96110e+06
       974.80000  1.29364e-07  4.96240e+06
       974.90000  1.29364e-07  4.96240e+06
       975.00000  1.29364e-07  4.96369e+06
       975.10000  1.29364e-07  4.96498e+06
       975.20000  1.29364e-07  4.96498e+06
       975.30000  1.29364e-07  4.96628e+06
       975.40000  1.29364e-07  4.96628e+06
       975.50000  1.25434e-07  4.81543e+06
       975.60000  1.25434e-07  4.81668e+06
       975.70000  1.25434e-07  4.81668e+06
       975.80000  1.25434e-07  4.81668e+06
       975.90000  1.25434e-07  4.81668e+06
       976.00000  1.25434e-07  4.81668e+06
       976.10000  1.25434e-07  4.81543e+06
       976.20000  1.25434e-07  4.81417e+06
       976.30000  1.25350e-07  4.80968e+06
       976.40000  1.25350e-07  4.80843e+06
       976.50000  1.26958e-07  4.87010e+06
       976.60000  1.26958e-07  4.86883e+06
       976.70000  1.26958e-07  4.86756e+06
       976.80000  1.26958e-07  4.86629e+06
       976.90000  1.26958e-07  4.86629e+06
       977.00000  1.26958e-07  4.86502e+06
       977.10000  1.26958e-07  4.86375e+06
       977.20000  1.26958e-07  4.86248e+06
       977.30000  1.26958e-07  4.86248e+06
       977.40000  1.26958e-07  4.86121e+06
       977.50000  1.34574e-07  5.15150e+06
       977.60000  1.34574e-07  5.15150e+06
       977.70000  1.34574e-07  5.15015e+06
       977.80000  1.34574e-07  5.14881e+06
       977.90000  1.34574e-07  5.14881e+06
       978.00000  1.34574e-07  5.14746e+06
       978.10000  1.34574e-07  5.14746e+06
       978.20000  1.34574e-07  5.14612e+06
       978.30000  1.34574e-07  5.14612e+06
       978.40000  1.34574e-07  5.14477e+06
       978.50000  1.25821e-07  4.80887e+06
       978.60000  1.25821e-07  4.80887e+06
       978.70000  1.25821e-07  4.80887e+06
       978.80000  1.25800e-07  4.80681e+06
       978.90000  1.25800e-07  4.80681e+06
       979.00000  1.25800e-07  4.80556e+06
       979.10000  1.25800e-07  4.80556e+06
       979.20000  1.25800e-07  4.80430e+06
       979.30000  1.25800e-07  4.80430e+06
       979.40000  1.25800e-07  4.80430e+06
       979.50000  1.25231e-07  4.78133e+06
       979.60000  1.25231e-07  4.78133e+06
       979.70000  1.25231e-07  4.78133e+06
       979.80000  1.25231e-07  4.78008e+06
       979.90000  1.25231e-07  4.78008e+06
       980.00000  1.25231e-07  4.78008e+06
       980.10000  1.25231e-07  4.78258e+06
       980.20000  1.25231e-07  4.78383e+06
       980.30000  1.25231e-07  4.78634e+06
       980.40000  1.25231e-07  4.78759e+06
       980.50000  1.15664e-07  4.42416e+06
       980.60000  1.15664e-07  4.42531e+06
       980.70000  1.15664e-07  4.42647e+06
       980.80000  1.15664e-07  4.42763e+06
       980.90000  1.15664e-07  4.42878e+06
       981.00000  1.15664e-07  4.42994e+06
       981.10000  1.15664e-07  4.43110e+06
       981.20000  1.15664e-07  4.43225e+06
       981.30000  1.16285e-07  4.45603e+06
       981.40000  1.16285e-07  4.45720e+06
       981.50000  1.13751e-07  4.36008e+06
       981.60000  1.13751e-07  4.36008e+06
       981.70000  1.13751e-07  4.36122e+06
       981.80000  1.13751e-07  4.36122e+06
       981.90000  1.13751e-07  4.36122e+06
       982.00000  1.13751e-07  4.36008e+06
       982.10000  1.13751e-07  4.35894e+06
       982.20000  1.13751e-07  4.35667e+06
       982.30000  1.13751e-07  4.35553e+06
       982.40000  1.13751e-07  4.35326e+06
       982.50000  1.20347e-07  4.60449e+06
       982.60000  1.20347e-07  4.60208e+06
       982.70000  1.20347e-07  4.60088e+06
       982.80000  1.20347e-07  4.59967e+06
       982.90000  1.20347e-07  4.59727e+06
       983.00000  1.20347e-07  4.59606e+06
       983.10000  1.20347e-07  4.59486e+06
       983.20000  1.20347e-07  4.59366e+06
       983.30000  1.20347e-07  4.59245e+06
       983.40000  1.20347e-07  4.59005e+06
       983.50000  1.06024e-07  4.04271e+06
       983.60000  1.06024e-07  4.04165e+06
       983.70000  1.06024e-07  4.04058e+06
       983.80000  1.06107e-07  4.04268e+06
       983.90000  1.06107e-07  4.04162e+06
       984.00000  1.06107e-07  4.04056e+06
       984.10000  1.06107e-07  4.04056e+06
       984.20000  1.06107e-07  4.03950e+06
       984.30000  1.06107e-07  4.03844e+06
       984.40000  1.06107e-07  4.03738e+06
       984.50000  1.08577e-07  4.13134e+06
       984.60000  1.08577e-07  4.13026e+06
       984.70000  1.08577e-07  4.12917e+06
       984.80000  1.08577e-07  4.12917e+06
       984.90000  1.08577e-07  4.12809e+06
       985.00000  1.08577e-07  4.12700e+06
       985.10000  1.08577e-07  4.12700e+06
       985.20000  1.08577e-07  4.12591e+06
       985.30000  1.08577e-07  4.12591e+06
       985.40000  1.08577e-07  4.12591e+06
       985.50000  1.02296e-07  3.88624e+06
       985.60000  1.02296e-07  3.88624e+06
       985.70000  1.02296e-07  3.88624e+06
       985.80000  1.02296e-07  3.88522e+06
       985.90000  1.02296e-07  3.88522e+06
       986.00000  1.02296e-07  3.88522e+06
       986.10000  1.02296e-07  3.88419e+06
       986.20000  1.02296e-07  3.88419e+06
       986.30000  1.01710e-07  3.86194e+06
       986.40000  1.01710e-07  3.86092e+06
       986.50000  1.04265e-07  3.95687e+06
       986.60000  1.04265e-07  3.95687e+06
       986.70000  1.04265e-07  3.95583e+06
       986.80000  1.04265e-07  3.95583e+06
       986.90000  1.04265e-07  3.95478e+06
       987.00000  1.04265e-07  3.95374e+06
       987.10000  1.04265e-07  3.95270e+06
       987.20000  1.04265e-07  3.95270e+06
       987.30000  1.04265e-07  3.95166e+06
       987.40000  1.04265e-07  3.95061e+06
       987.50000  1.04316e-07  3.95148e+06
       987.60000  1.04316e-07  3.95044e+06
       987.70000  1.04316e-07  3.94940e+06
       987.80000  1.04316e-07  3.94836e+06
       987.90000  1.04316e-07  3.94731e+06
       988.00000  1.04316e-07  3.94627e+06
       988.10000  1.04316e-07  3.94314e+06
       988.20000  1.04316e-07  3.94105e+06
       988.30000  1.04316e-07  3.93792e+06
       988.40000  1.04316e-07  3.93584e+06
       988.50000  9.50834e-08  3.58560e+06
       988.60000  9.50834e-08  3.58369e+06
       988.70000  9.50834e-08  3.58179e+06
       988.80000  9.53459e-08  3.58977e+06
       988.90000  9.53459e-08  3.58786e+06
       989.00000  9.53459e-08  3.58691e+06
       989.10000  9.53459e-08  3.58596e+06
       989.20000  9.53459e-08  3.58405e+06
       989.30000  9.53459e-08  3.58310e+06
       989.40000  9.53459e-08  3.58214e+06
       989.50000  9.82812e-08  3.69144e+06
       989.60000  9.82812e-08  3.69046e+06
       989.70000  9.82812e-08  3.69046e+06
       989.80000  9.82812e-08  3.68948e+06
       989.90000  9.82812e-08  3.68948e+06
       990.00000  9.82812e-08  3.68948e+06
       990.10000  9.82812e-08  3.68849e+06
       990.20000  9.82812e-08  3.68849e+06
       990.30000  9.82812e-08  3.68948e+06
       990.40000  9.82812e-08  3.68948e+06
       990.50000  9.58284e-08  3.59740e+06
       990.60000  9.58284e-08  3.59836e+06
       990.70000  9.58284e-08  3.59836e+06
       990.80000  9.58284e-08  3.59932e+06
       990.90000  9.58284e-08  3.60027e+06
       991.00000  9.58284e-08  3.60123e+06
       991.10000  9.58284e-08  3.60219e+06
       991.20000  9.58284e-08  3.60315e+06
       991.30000  9.60315e-08  3.61175e+06
       991.40000  9.60315e-08  3.61367e+06
       991.50000  9.61532e-08  3.61921e+06
       991.60000  9.61532e-08  3.62113e+06
       991.70000  9.61532e-08  3.62305e+06
       991.80000  9.61532e-08  3.62497e+06
       991.90000  9.61532e-08  3.62690e+06
       992.00000  9.61532e-08  3.62882e+06
       992.10000  9.61532e-08  3.62978e+06
       992.20000  9.61532e-08  3.62978e+06
       992.30000  9.61532e-08  3.62978e+06
       992.40000  9.61532e-08  3.62978e+06
       992.50000  9.23110e-08  3.48566e+06
       992.60000  9.23110e-08  3.48566e+06
       992.70000  9.23110e-08  3.48566e+06
       992.80000  9.23110e-08  3.48566e+06
       992.90000  9.23110e-08  3.48566e+06
       993.00000  9.23110e-08  3.48658e+06
       993.10000  9.23110e-08  3.48658e+06
       993.20000  9.23110e-08  3.48658e+06
       993.30000  9.23110e-08  3.48658e+06
       993.40000  9.23110e-08  3.48658e+06
       993.50000  8.53085e-08  3.22210e+06
       993.60000  8.53085e-08  3.22210e+06
       993.70000  8.53085e-08  3.22210e+06
       993.80000  8.53562e-08  3.22390e+06
       993.90000  8.53562e-08  3.22305e+06
       994.00000  8.53562e-08  3.22305e+06
       994.10000  8.53562e-08  3.22305e+06
       994.20000  8.53562e-08  3.22220e+06
       994.30000  8.53562e-08  3.22220e+06
       994.40000  8.53562e-08  3.22134e+06
       994.50000  9.84882e-08  3.71694e+06
       994.60000  9.84882e-08  3.71596e+06
       994.70000  9.84882e-08  3.71596e+06
       994.80000  9.84882e-08  3.71497e+06
       994.90000  9.84882e-08  3.71497e+06
       995.00000  9.84882e-08  3.71399e+06
       995.10000  9.84882e-08  3.71399e+06
       995.20000  9.84882e-08  3.71399e+06
       995.30000  9.84882e-08  3.71300e+06
       995.40000  9.84882e-08  3.71300e+06
       995.50000  7.75726e-08  2.92449e+06
       995.60000  7.75726e-08  2.92371e+06
       995.70000  7.75726e-08  2.92371e+06
       995.80000  7.75726e-08  2.92371e+06
       995.90000  7.75726e-08  2.92371e+06
       996.00000  7.75726e-08  2.92294e+06
       996.10000  7.75726e-08  2.92371e+06
       996.20000  7.75726e-08  2.92371e+06
       996.30000  7.76631e-08  2.92712e+06
       996.40000  7.76631e-08  2.92712e+06
       996.50000  7.37733e-08  2.78051e+06
       996.60000  7.37733e-08  2.78051e+06
       996.70000  7.37733e-08  2.78051e+06
       996.80000  7.37733e-08  2.78051e+06
       996.90000  7.37733e-08  2.78051e+06
       997.00000  7.37733e-08  2.78051e+06
       997.10000  7.37733e-08  2.78051e+06
       997.20000  7.37733e-08  2.78051e+06
       997.30000  7.37733e-08  2.78051e+06
       997.40000  7.37733e-08  2.78051e+06
       997.50000  7.75695e-08  2.92359e+06
       997.60000  7.75695e-08  2.92359e+06
       997.70000  7.75695e-08  2.92359e+06
       997.80000  7.75695e-08  2.92359e+06
       997.90000  7.75695e-08  2.92359e+06
       998.00000  7.75695e-08  2.92282e+06
       998.10000  7.75695e-08  2.92282e+06
       998.20000  7.75695e-08  2.92204e+06
       998.30000  7.75695e-08  2.92204e+06
       998.40000  7.75695e-08  2.92127e+06
       998.50000  7.62612e-08  2.87123e+06
       998.60000  7.62612e-08  2.87123e+06
       998.70000  7.62612e-08  2.87047e+06
       998.80000  7.68868e-08  2.89402e+06
       998.90000  7.68868e-08  2.89402e+06
       999.00000  7.68868e-08  2.89325e+06
       999.10000  7.68868e-08  2.89325e+06
       999.20000  7.68868e-08  2.89248e+06
       999.30000  7.68868e-08  2.89248e+06
       999.40000  7.68868e-08  2.89248e+06
       999.50000  6.50808e-08  2.44769e+06
       999.60000  6.50808e-08  2.44769e+06
       999.70000  6.50808e-08  2.44769e+06
       999.80000  6.50808e-08  2.44769e+06
       999.90000  6.50808e-08  2.44769e+06
       1000.0000  6.50808e-08  2.44704e+06
       1000.1000  6.50808e-08  2.44704e+06
       1000.2000  6.50808e-08  2.44704e+06
       1000.3000  6.50808e-08  2.44704e+06
       1000.4000  6.50808e-08  2.44704e+06
       1000.5000  6.40101e-08  2.40678e+06
       1000.6000  6.40101e-08  2.40678e+06
       1000.7000  6.40101e-08  2.40678e+06
       1000.8000  6.40101e-08  2.40678e+06
       1000.9000  6.40101e-08  2.40678e+06
       1001.0000  6.40101e-08  2.40678e+06
       1001.1000  6.40101e-08  2.40678e+06
       1001.2000  6.40101e-08  2.40742e+06
       1001.3000  6.32599e-08  2.37920e+06
       1001.4000  6.32599e-08  2.37920e+06
       1001.5000  6.02562e-08  2.26624e+06
       1001.6000  6.02562e-08  2.26624e+06
       1001.7000  6.02562e-08  2.26684e+06
       1001.8000  6.02562e-08  2.26684e+06
       1001.9000  6.02562e-08  2.26684e+06
       1002.0000  6.02562e-08  2.26744e+06
       1002.1000  6.02562e-08  2.26382e+06
       1002.2000  6.02562e-08  2.26021e+06
       1002.3000  6.02562e-08  2.25720e+06
       1002.4000  6.02562e-08  2.25358e+06
       1002.5000  5.57829e-08  2.08349e+06
       1002.6000  5.57829e-08  2.08014e+06
       1002.7000  5.57829e-08  2.07736e+06
       1002.8000  5.57829e-08  2.07457e+06
       1002.9000  5.57829e-08  2.07178e+06
       1003.0000  5.57829e-08  2.06899e+06
       1003.1000  5.57829e-08  2.06620e+06
       1003.2000  5.57829e-08  2.06341e+06
       1003.3000  5.57829e-08  2.06118e+06
       1003.4000  5.57829e-08  2.05839e+06
       1003.5000  6.14309e-08  2.26434e+06
       1003.6000  6.14309e-08  2.26189e+06
       1003.7000  6.14309e-08  2.25881e+06
       1003.8000  6.14145e-08  2.25576e+06
       1003.9000  6.14145e-08  2.25330e+06
       1004.0000  6.14145e-08  2.25084e+06
       1004.1000  6.14145e-08  2.24716e+06
       1004.2000  6.14145e-08  2.24286e+06
       1004.3000  6.14145e-08  2.23979e+06
       1004.4000  6.14145e-08  2.23610e+06
       1004.5000  6.07963e-08  2.21055e+06
       1004.6000  6.07963e-08  2.20751e+06
       1004.7000  6.07963e-08  2.20508e+06
       1004.8000  6.07963e-08  2.20265e+06
       1004.9000  6.07963e-08  2.20083e+06
       1005.0000  6.07963e-08  2.19900e+06
       1005.1000  6.07963e-08  2.19718e+06
       1005.2000  6.07963e-08  2.19596e+06
       1005.3000  6.07963e-08  2.19475e+06
       1005.4000  6.07963e-08  2.19414e+06
       1005.5000  6.02423e-08  2.17354e+06
       1005.6000  6.02423e-08  2.17294e+06
       1005.7000  6.02423e-08  2.17294e+06
       1005.8000  6.02423e-08  2.17354e+06
       1005.9000  6.02423e-08  2.17354e+06
       1006.0000  6.02423e-08  2.17414e+06
       1006.1000  6.02423e-08  2.17535e+06
       1006.2000  6.02423e-08  2.17655e+06
       1006.3000  6.01171e-08  2.17323e+06
       1006.4000  6.01171e-08  2.17504e+06
       1006.5000  5.67357e-08  2.05440e+06
       1006.6000  5.67357e-08  2.05667e+06
       1006.7000  5.67357e-08  2.05894e+06
       1006.8000  5.67357e-08  2.06121e+06
       1006.9000  5.67357e-08  2.06405e+06
       1007.0000  5.67357e-08  2.06688e+06
       1007.1000  5.67357e-08  2.07029e+06
       1007.2000  5.67357e-08  2.07369e+06
       1007.3000  5.67357e-08  2.07709e+06
       1007.4000  5.67357e-08  2.08107e+06
       1007.5000  5.52690e-08  2.03114e+06
       1007.6000  5.52690e-08  2.03556e+06
       1007.7000  5.52690e-08  2.03998e+06
       1007.8000  5.52690e-08  2.04440e+06
       1007.9000  5.52690e-08  2.04938e+06
       1008.0000  5.52690e-08  2.05435e+06
       1008.1000  5.52690e-08  2.05490e+06
       1008.2000  5.52690e-08  2.05490e+06
       1008.3000  5.52690e-08  2.05490e+06
       1008.4000  5.52690e-08  2.05490e+06
       1008.5000  5.73538e-08  2.13241e+06
       1008.6000  5.73538e-08  2.13241e+06
       1008.7000  5.73538e-08  2.13241e+06
       1008.8000  5.72334e-08  2.12794e+06
       1008.9000  5.72334e-08  2.12794e+06
       1009.0000  5.72334e-08  2.12736e+06
       1009.1000  5.72334e-08  2.12736e+06
       1009.2000  5.72334e-08  2.12736e+06
       1009.3000  5.72334e-08  2.12736e+06
       1009.4000  5.72334e-08  2.12679e+06
       1009.5000  5.58143e-08  2.07406e+06
       1009.6000  5.58143e-08  2.07406e+06
       1009.7000  5.58143e-08  2.07350e+06
       1009.8000  5.58143e-08  2.07350e+06
       1009.9000  5.58143e-08  2.07294e+06
       1010.0000  5.58143e-08  2.07294e+06
       1010.1000  5.58143e-08  2.07239e+06
       1010.2000  5.58143e-08  2.07183e+06
       1010.3000  5.58143e-08  2.07127e+06
       1010.4000  5.58143e-08  2.07071e+06
       1010.5000  5.55415e-08  2.06004e+06
       1010.6000  5.55415e-08  2.05948e+06
       1010.7000  5.55415e-08  2.05892e+06
       1010.8000  5.55415e-08  2.05837e+06
       1010.9000  5.55415e-08  2.05781e+06
       1011.0000  5.55415e-08  2.05726e+06
       1011.1000  5.55415e-08  2.05726e+06
       1011.2000  5.55415e-08  2.05670e+06
       1011.3000  5.53928e-08  2.05064e+06
       1011.4000  5.53928e-08  2.05009e+06
       1011.5000  5.28589e-08  1.95578e+06
       1011.6000  5.28589e-08  1.95525e+06
       1011.7000  5.28589e-08  1.95472e+06
       1011.8000  5.28589e-08  1.95419e+06
       1011.9000  5.28589e-08  1.95366e+06
       1012.0000  5.28589e-08  1.95314e+06
       1012.1000  5.28589e-08  1.95261e+06
       1012.2000  5.28589e-08  1.95208e+06
       1012.3000  5.28589e-08  1.95155e+06
       1012.4000  5.28589e-08  1.95102e+06
       1012.5000  5.43028e-08  2.00377e+06
       1012.6000  5.43028e-08  2.00323e+06
       1012.7000  5.43028e-08  2.00269e+06
       1012.8000  5.43028e-08  2.00214e+06
       1012.9000  5.43028e-08  2.00214e+06
       1013.0000  5.43028e-08  2.00160e+06
       1013.1000  5.43028e-08  2.00106e+06
       1013.2000  5.43028e-08  2.00051e+06
       1013.3000  5.43028e-08  1.99997e+06
       1013.4000  5.43028e-08  1.99943e+06
       1013.5000  4.74928e-08  1.74821e+06
       1013.6000  4.74928e-08  1.74773e+06
       1013.7000  4.74928e-08  1.74726e+06
       1013.8000  4.74559e-08  1.74543e+06
       1013.9000  4.74559e-08  1.74495e+06
       1014.0000  4.74559e-08  1.74448e+06
       1014.1000  4.74559e-08  1.74353e+06
       1014.2000  4.74559e-08  1.74258e+06
       1014.3000  4.74559e-08  1.74163e+06
       1014.4000  4.74559e-08  1.74068e+06
       1014.5000  4.66846e-08  1.71193e+06
       1014.6000  4.66846e-08  1.71099e+06
       1014.7000  4.66846e-08  1.71006e+06
       1014.8000  4.66846e-08  1.70959e+06
       1014.9000  4.66846e-08  1.70866e+06
       1015.0000  4.66846e-08  1.70819e+06
       1015.1000  4.66846e-08  1.70726e+06
       1015.2000  4.66846e-08  1.70679e+06
       1015.3000  4.66846e-08  1.70632e+06
       1015.4000  4.66846e-08  1.70539e+06
       1015.5000  4.83653e-08  1.76630e+06
       1015.6000  4.83653e-08  1.76582e+06
       1015.7000  4.83653e-08  1.76533e+06
       1015.8000  4.83653e-08  1.76485e+06
       1015.9000  4.83653e-08  1.76437e+06
       1016.0000  4.83653e-08  1.76388e+06
       1016.1000  4.83653e-08  1.76388e+06
       1016.2000  4.83653e-08  1.76388e+06
       1016.3000  4.84436e-08  1.76674e+06
       1016.4000  4.84436e-08  1.76625e+06
       1016.5000  4.78916e-08  1.74613e+06
       1016.6000  4.78916e-08  1.74613e+06
       1016.7000  4.78916e-08  1.74613e+06
       1016.8000  4.78916e-08  1.74565e+06
       1016.9000  4.78916e-08  1.74565e+06
       1017.0000  4.78916e-08  1.74517e+06
       1017.1000  4.78916e-08  1.74517e+06
       1017.2000  4.78916e-08  1.74469e+06
       1017.3000  4.78916e-08  1.74469e+06
       1017.4000  4.78916e-08  1.74421e+06
       1017.5000  4.31740e-08  1.57240e+06
       1017.6000  4.31740e-08  1.57196e+06
       1017.7000  4.31740e-08  1.57153e+06
       1017.8000  4.31740e-08  1.57110e+06
       1017.9000  4.31740e-08  1.57067e+06
       1018.0000  4.31740e-08  1.57067e+06
       1018.1000  4.31740e-08  1.56981e+06
       1018.2000  4.31740e-08  1.56894e+06
       1018.3000  4.31740e-08  1.56808e+06
       1018.4000  4.31740e-08  1.56722e+06
       1018.5000  4.75595e-08  1.72593e+06
       1018.6000  4.75595e-08  1.72498e+06
       1018.7000  4.75595e-08  1.72451e+06
       1018.8000  4.75370e-08  1.72274e+06
       1018.9000  4.75370e-08  1.72227e+06
       1019.0000  4.75370e-08  1.72132e+06
       1019.1000  4.75370e-08  1.72084e+06
       1019.2000  4.75370e-08  1.72037e+06
       1019.3000  4.75370e-08  1.71989e+06
       1019.4000  4.75370e-08  1.71894e+06
       1019.5000  4.59242e-08  1.66016e+06
       1019.6000  4.59242e-08  1.65970e+06
       1019.7000  4.59242e-08  1.65924e+06
       1019.8000  4.59242e-08  1.65924e+06
       1019.9000  4.59242e-08  1.65878e+06
       1020.0000  4.59242e-08  1.65832e+06
       1020.1000  4.59242e-08  1.65786e+06
       1020.2000  4.59242e-08  1.65740e+06
       1020.3000  4.59242e-08  1.65740e+06
       1020.4000  4.59242e-08  1.65694e+06
       1020.5000  4.48485e-08  1.61813e+06
       1020.6000  4.48485e-08  1.61768e+06
       1020.7000  4.48485e-08  1.61768e+06
       1020.8000  4.48485e-08  1.61724e+06
       1020.9000  4.48485e-08  1.61724e+06
       1021.0000  4.48485e-08  1.61724e+06
       1021.1000  4.48485e-08  1.61724e+06
       1021.2000  4.48485e-08  1.61724e+06
       1021.3000  4.47532e-08  1.61380e+06
       1021.4000  4.47532e-08  1.61380e+06
       1021.5000  3.72186e-08  1.34210e+06
       1021.6000  3.72186e-08  1.34210e+06
       1021.7000  3.72186e-08  1.34210e+06
       1021.8000  3.72186e-08  1.34248e+06
       1021.9000  3.72186e-08  1.34248e+06
       1022.0000  3.72186e-08  1.34285e+06
       1022.1000  3.72186e-08  1.34285e+06
       1022.2000  3.72186e-08  1.34322e+06
       1022.3000  3.72186e-08  1.34359e+06
       1022.4000  3.72186e-08  1.34359e+06
       1022.5000  4.02040e-08  1.45177e+06
       1022.6000  4.02040e-08  1.45217e+06
       1022.7000  4.02040e-08  1.45257e+06
       1022.8000  4.02040e-08  1.45297e+06
       1022.9000  4.02040e-08  1.45337e+06
       1023.0000  4.02040e-08  1.45378e+06
       1023.1000  4.02040e-08  1.45458e+06
       1023.2000  4.02040e-08  1.45498e+06
       1023.3000  4.02040e-08  1.45538e+06
       1023.4000  4.02040e-08  1.45619e+06
       1023.5000  3.78812e-08  1.37244e+06
       1023.6000  3.78812e-08  1.37319e+06
       1023.7000  3.78812e-08  1.37357e+06
       1023.8000  3.77703e-08  1.37031e+06
       1023.9000  3.77703e-08  1.37106e+06
       1024.0000  3.77703e-08  1.37182e+06
       1024.1000  3.77703e-08  1.37182e+06
       1024.2000  3.77703e-08  1.37144e+06
       1024.3000  3.77703e-08  1.37144e+06
       1024.4000  3.77703e-08  1.37144e+06
       1024.5000  3.47734e-08  1.26262e+06
       1024.6000  3.47734e-08  1.26228e+06
       1024.7000  3.47734e-08  1.26228e+06
       1024.8000  3.47734e-08  1.26228e+06
       1024.9000  3.47734e-08  1.26193e+06
       1025.0000  3.47734e-08  1.26193e+06
       1025.1000  3.47734e-08  1.26193e+06
       1025.2000  3.47734e-08  1.26158e+06
       1025.3000  3.47734e-08  1.26158e+06
       1025.4000  3.47734e-08  1.26158e+06
       1025.5000  4.03267e-08  1.46265e+06
       1025.6000  4.03267e-08  1.46265e+06
       1025.7000  4.03267e-08  1.46225e+06
       1025.8000  4.03267e-08  1.46225e+06
       1025.9000  4.03267e-08  1.46184e+06
       1026.0000  4.03267e-08  1.46184e+06
       1026.1000  4.03267e-08  1.46184e+06
       1026.2000  4.03267e-08  1.46144e+06
       1026.3000  4.01827e-08  1.45622e+06
       1026.4000  4.01827e-08  1.45582e+06
       1026.5000  3.74463e-08  1.35668e+06
       1026.6000  3.74463e-08  1.35630e+06
       1026.7000  3.74463e-08  1.35593e+06
       1026.8000  3.74463e-08  1.35593e+06
       1026.9000  3.74463e-08  1.35555e+06
       1027.0000  3.74463e-08  1.35555e+06
       1027.1000  3.74463e-08  1.35518e+06
       1027.2000  3.74463e-08  1.35481e+06
       1027.3000  3.74463e-08  1.35481e+06
       1027.4000  3.74463e-08  1.35443e+06
       1027.5000  3.23192e-08  1.16866e+06
       1027.6000  3.23192e-08  1.16866e+06
       1027.7000  3.23192e-08  1.16834e+06
       1027.8000  3.23192e-08  1.16802e+06
       1027.9000  3.23192e-08  1.16769e+06
       1028.0000  3.23192e-08  1.16737e+06
       1028.1000  3.23192e-08  1.16737e+06
       1028.2000  3.23192e-08  1.16705e+06
       1028.3000  3.23192e-08  1.16672e+06
       1028.4000  3.23192e-08  1.16640e+06
       1028.5000  3.11110e-08  1.12249e+06
       1028.6000  3.11110e-08  1.12217e+06
       1028.7000  3.11110e-08  1.12186e+06
       1028.8000  3.11201e-08  1.12188e+06
       1028.9000  3.11201e-08  1.12157e+06
       1029.0000  3.11201e-08  1.12126e+06
       1029.1000  3.11201e-08  1.12095e+06
       1029.2000  3.11201e-08  1.12064e+06
       1029.3000  3.11201e-08  1.12032e+06
       1029.4000  3.11201e-08  1.12001e+06
       1029.5000  3.17462e-08  1.14223e+06
       1029.6000  3.17462e-08  1.14191e+06
       1029.7000  3.17462e-08  1.14159e+06
       1029.8000  3.17462e-08  1.14128e+06
       1029.9000  3.17462e-08  1.14096e+06
       1030.0000  3.17462e-08  1.14032e+06
       1030.1000  3.17462e-08  1.14064e+06
       1030.2000  3.17462e-08  1.14064e+06
       1030.3000  3.17462e-08  1.14064e+06
       1030.4000  3.17462e-08  1.14064e+06
       1030.5000  3.41261e-08  1.22615e+06
       1030.6000  3.41261e-08  1.22615e+06
       1030.7000  3.41261e-08  1.22581e+06
       1030.8000  3.41261e-08  1.22581e+06
       1030.9000  3.41261e-08  1.22581e+06
       1031.0000  3.41261e-08  1.22547e+06
       1031.1000  3.41261e-08  1.22547e+06
       1031.2000  3.41261e-08  1.22513e+06
       1031.3000  3.41360e-08  1.22548e+06
       1031.4000  3.41360e-08  1.22514e+06
       1031.5000  2.96650e-08  1.06438e+06
       1031.6000  2.96650e-08  1.06408e+06
       1031.7000  2.96650e-08  1.06379e+06
       1031.8000  2.96650e-08  1.06349e+06
       1031.9000  2.96650e-08  1.06319e+06
       1032.0000  2.96650e-08  1.06290e+06
       1032.1000  2.96650e-08  1.06201e+06
       1032.2000  2.96650e-08  1.06082e+06
       1032.3000  2.96650e-08  1.05993e+06
       1032.4000  2.96650e-08  1.05934e+06
       1032.5000  2.79703e-08      997979.
       1032.6000  2.79703e-08      997140.
       1032.7000  2.79703e-08      996580.
       1032.8000  2.79703e-08      995741.
       1032.9000  2.79703e-08      995182.
       1033.0000  2.79703e-08      994622.
       1033.1000  2.79703e-08      994063.
       1033.2000  2.79703e-08      993783.
       1033.3000  2.79703e-08      993224.
       1033.4000  2.79703e-08      992944.
       1033.5000  2.99072e-08  1.06111e+06
       1033.6000  2.99072e-08  1.06081e+06
       1033.7000  2.99072e-08  1.06051e+06
       1033.8000  2.99503e-08  1.06174e+06
       1033.9000  2.99503e-08  1.06174e+06
       1034.0000  2.99503e-08  1.06144e+06
       1034.1000  2.99503e-08  1.06144e+06
       1034.2000  2.99503e-08  1.06114e+06
       1034.3000  2.99503e-08  1.06114e+06
       1034.4000  2.99503e-08  1.06114e+06
       1034.5000  2.70760e-08      959302.
       1034.6000  2.70760e-08      959573.
       1034.7000  2.70760e-08      959573.
       1034.8000  2.70760e-08      959844.
       1034.9000  2.70760e-08      959844.
       1035.0000  2.70760e-08      960115.
       1035.1000  2.70760e-08      960385.
       1035.2000  2.70760e-08      960656.
       1035.3000  2.70760e-08      961198.
       1035.4000  2.70760e-08      961468.
       1035.5000  2.77808e-08      987053.
       1035.6000  2.77808e-08      987609.
       1035.7000  2.77808e-08      987886.
       1035.8000  2.77808e-08      988442.
       1035.9000  2.77808e-08      989276.
       1036.0000  2.77808e-08      989831.
       1036.1000  2.77808e-08      989276.
       1036.2000  2.77808e-08      988720.
       1036.3000  2.77349e-08      986530.
       1036.4000  2.77349e-08      985976.
       1036.5000  2.73324e-08      971120.
       1036.6000  2.73324e-08      970574.
       1036.7000  2.73324e-08      970300.
       1036.8000  2.73324e-08      969754.
       1036.9000  2.73324e-08      969207.
       1037.0000  2.73324e-08      968934.
       1037.1000  2.73324e-08      968660.
       1037.2000  2.73324e-08      968114.
       1037.3000  2.73324e-08      967840.
       1037.4000  2.73324e-08      967567.
       1037.5000  2.41165e-08      853484.
       1037.6000  2.41165e-08      853243.
       1037.7000  2.41165e-08      853002.
       1037.8000  2.41165e-08      852761.
       1037.9000  2.41165e-08      852519.
       1038.0000  2.41165e-08      852278.
       1038.1000  2.41165e-08      852278.
       1038.2000  2.41165e-08      852278.
       1038.3000  2.41165e-08      852519.
       1038.4000  2.41165e-08      852519.
       1038.5000  2.28693e-08      808431.
       1038.6000  2.28693e-08      808431.
       1038.7000  2.28693e-08      808431.
       1038.8000  2.28191e-08      806656.
       1038.9000  2.28191e-08      806656.
       1039.0000  2.28191e-08      806656.
       1039.1000  2.28191e-08      806656.
       1039.2000  2.28191e-08      806656.
       1039.3000  2.28191e-08      806656.
       1039.4000  2.28191e-08      806656.
       1039.5000  1.80534e-08      638187.
       1039.6000  1.80534e-08      638187.
       1039.7000  1.80534e-08      638187.
       1039.8000  1.80534e-08      638187.
       1039.9000  1.80534e-08      638187.
       1040.0000  1.80534e-08      638187.
       1040.1000  1.80534e-08      638187.
       1040.2000  1.80534e-08      638187.
       1040.3000  1.80534e-08      638187.
       1040.4000  1.80534e-08      638187.
       1040.5000  2.01390e-08      711912.
       1040.6000  2.01390e-08      711912.
       1040.7000  2.01390e-08      711912.
       1040.8000  2.01390e-08      711912.
       1040.9000  2.01390e-08      711912.
       1041.0000  2.01390e-08      711912.
       1041.1000  2.01390e-08      711912.
       1041.2000  2.01390e-08      711912.
       1041.3000  2.01315e-08      711650.
       1041.4000  2.01315e-08      711650.
       1041.5000  1.87843e-08      664024.
       1041.6000  1.87843e-08      664024.
       1041.7000  1.87843e-08      664024.
       1041.8000  1.87843e-08      663836.
       1041.9000  1.87843e-08      663836.
       1042.0000  1.87843e-08      663836.
       1042.1000  1.87843e-08      664024.
       1042.2000  1.87843e-08      664024.
       1042.3000  1.87843e-08      664212.
       1042.4000  1.87843e-08      664212.
       1042.5000  1.75763e-08      621500.
       1042.6000  1.75763e-08      621500.
       1042.7000  1.75763e-08      621500.
       1042.8000  1.75763e-08      621324.
       1042.9000  1.75763e-08      621324.
       1043.0000  1.75763e-08      621324.
       1043.1000  1.75763e-08      621148.
       1043.2000  1.75763e-08      620972.
       1043.3000  1.75763e-08      620972.
       1043.4000  1.75763e-08      620797.
       1043.5000  1.64163e-08      579661.
       1043.6000  1.64163e-08      579497.
       1043.7000  1.64163e-08      579332.
       1043.8000  1.64675e-08      580808.
       1043.9000  1.64675e-08      580643.
       1044.0000  1.64675e-08      580314.
       1044.1000  1.64675e-08      579655.
       1044.2000  1.64675e-08      578832.
       1044.3000  1.64675e-08      578173.
       1044.4000  1.64675e-08      577514.
       1044.5000  1.51510e-08      530741.
       1044.6000  1.51510e-08      530286.
       1044.7000  1.51510e-08      529680.
       1044.8000  1.51510e-08      529226.
       1044.9000  1.51510e-08      528771.
       1045.0000  1.51510e-08      528317.
       1045.1000  1.51510e-08      528014.
       1045.2000  1.51510e-08      527559.
       1045.3000  1.51510e-08      527256.
       1045.4000  1.51510e-08      526953.
       1045.5000  1.58503e-08      551114.
       1045.6000  1.58503e-08      550796.
       1045.7000  1.58503e-08      550638.
       1045.8000  1.58503e-08      550480.
       1045.9000  1.58503e-08      550321.
       1046.0000  1.58503e-08      550162.
       1046.1000  1.58503e-08      550162.
       1046.2000  1.58503e-08      550004.
       1046.3000  1.58896e-08      551369.
       1046.4000  1.58896e-08      551369.
       1046.5000  1.33650e-08      463899.
       1046.6000  1.33650e-08      463899.
       1046.7000  1.33650e-08      464033.
       1046.8000  1.33650e-08      464166.
       1046.9000  1.33650e-08      464300.
       1047.0000  1.33650e-08      464567.
       1047.1000  1.33650e-08      464701.
       1047.2000  1.33650e-08      464968.
       1047.3000  1.33650e-08      465236.
       1047.4000  1.33650e-08      465503.
       1047.5000  1.18454e-08      412929.
       1047.6000  1.18454e-08      413166.
       1047.7000  1.18454e-08      413522.
       1047.8000  1.18454e-08      413877.
       1047.9000  1.18454e-08      414232.
       1048.0000  1.18454e-08      414706.
       1048.1000  1.18454e-08      414706.
       1048.2000  1.18454e-08      414706.
       1048.3000  1.18454e-08      414706.
       1048.4000  1.18454e-08      414588.
       1048.5000  1.06209e-08      371733.
       1048.6000  1.06209e-08      371733.
       1048.7000  1.06209e-08      371733.
       1048.8000  1.06184e-08      371645.
       1048.9000  1.06184e-08      371645.
       1049.0000  1.06184e-08      371539.
       1049.1000  1.06184e-08      371539.
       1049.2000  1.06184e-08      371539.
       1049.3000  1.06184e-08      371433.
       1049.4000  1.06184e-08      371433.
       1049.5000  8.71697e-09      304920.
       1049.6000  8.71697e-09      304833.
       1049.7000  8.71697e-09      304833.
       1049.8000  8.71697e-09      304833.
       1049.9000  8.71697e-09      304745.
       1050.0000  8.71697e-09      304745.
       1050.1000  8.71697e-09      304658.
       1050.2000  8.71697e-09      304658.
       1050.3000  8.71697e-09      304571.
       1050.4000  8.71697e-09      304484.
       1050.5000  7.73291e-09      270111.
       1050.6000  7.73291e-09      270033.
       1050.7000  7.73291e-09      270033.
       1050.8000  7.73291e-09      269956.
       1050.9000  7.73291e-09      269879.
       1051.0000  7.73291e-09      269879.
       1051.1000  7.73291e-09      269801.
       1051.2000  7.73291e-09      269801.
       1051.3000  7.70414e-09      268721.
       1051.4000  7.70414e-09      268644.
       1051.5000  6.39269e-09      222913.
       1051.6000  6.39269e-09      222849.
       1051.7000  6.39269e-09      222785.
       1051.8000  6.39269e-09      222785.
       1051.9000  6.39269e-09      222721.
       1052.0000  6.39269e-09      222721.
       1052.1000  6.39269e-09      222657.
       1052.2000  6.39269e-09      222593.
       1052.3000  6.39269e-09      222593.
       1052.4000  6.39269e-09      222529.
       1052.5000  5.74103e-09      199788.
       1052.6000  5.74103e-09      199788.
       1052.7000  5.74103e-09      199730.
       1052.8000  5.74103e-09      199673.
       1052.9000  5.74103e-09      199673.
       1053.0000  5.74103e-09      199616.
       1053.1000  5.74103e-09      199616.
       1053.2000  5.74103e-09      199558.
       1053.3000  5.74103e-09      199501.
       1053.4000  5.74103e-09      199501.
       1053.5000  4.26933e-09      148317.
       1053.6000  4.26933e-09      148274.
       1053.7000  4.26933e-09      148274.
       1053.8000  4.24041e-09      147227.
       1053.9000  4.24041e-09      147185.
       1054.0000  4.24041e-09      147185.
       1054.1000  4.24041e-09      147270.
       1054.2000  4.24041e-09      147312.
       1054.3000  4.24041e-09      147397.
       1054.4000  4.24041e-09      147482.
       1054.5000  3.09210e-09      107574.
       1054.6000  3.09210e-09      107605.
       1054.7000  3.09210e-09      107636.
       1054.8000  3.09210e-09      107667.
       1054.9000  3.09210e-09      107698.
       1055.0000  3.09210e-09      107729.
       1055.1000  3.09210e-09      107729.
       1055.2000  3.09210e-09      107729.
       1055.3000  3.09210e-09      107760.
       1055.4000  3.09210e-09      107760.
       1055.5000  1.91992e-09      66889.9
       1055.6000  1.91992e-09      66889.9
       1055.7000  1.91992e-09      66889.9
       1055.8000  1.91992e-09      66870.7
       1055.9000  1.91992e-09      66851.5
       1056.0000  1.91992e-09      66832.3
       1056.1000  1.91992e-09      66774.7
       1056.2000  1.91992e-09      66717.1
       1056.3000  1.90045e-09      65983.7
       1056.4000  1.90045e-09      65907.7
       1056.5000  6.10685e-10      21160.2
       1056.6000  6.10685e-10      21148.0
       1056.7000  6.10685e-10      21129.7
       1056.8000  6.10685e-10      21111.4
       1056.9000  6.10685e-10      21093.0
       1057.0000  6.10685e-10      21080.8
