PDS_VERSION_ID         = PDS3
RECORD_TYPE            = STREAM
OBJECT                 = TEXT
  PUBLICATION_DATE     = 2014-04-25
  INTERCHANGE_FORMAT   = ASCII
  NOTE                 = "System transmission vs. wavelength."
END_OBJECT             = TEXT
END
    
The systrans directory contains the non-wavelength-integrated system 
transmission values (QE*optics*filter1*filter2) for each filter combination. 
The naming convention for these files is as follows:

<camera><filter 1><filter 2>_systrans.tab

where <camera> is "issna" or "isswa," and <filter 1> and <filter 2> represent
the filter names. For polarized filter combinations, values are given for the
parallel orientation of the filter (full transmission), with values for the 
perpendicular (blocking) orientation provided in files with subscript 
"_b_systrans.tab". 

Columns in systrans files are as follows:

 1st column: Wavelength (nm)  
 2nd column: Transmitted Flux
 3rd column: Transmitted Flux * Solar Flux (phot per cm^2-s-angstrom at 1 AU)

The solar spectrum used for this calculation is provided in solarflux.tab.

\begindata
       600.00000  3.39752e-07  1.80952e+07
       600.10000  3.39752e-07  1.80680e+07
       600.20000  3.39752e-07  1.80374e+07
       600.30000  3.39752e-07  1.80001e+07
       600.40000  3.39752e-07  1.79559e+07
       600.50000  3.27005e-07  1.72397e+07
       600.60000  3.27005e-07  1.72626e+07
       600.70000  3.27005e-07  1.72822e+07
       600.80000  3.27005e-07  1.73018e+07
       600.90000  3.27005e-07  1.73149e+07
       601.00000  3.27005e-07  1.73247e+07
       601.10000  3.27005e-07  1.73280e+07
       601.20000  3.27005e-07  1.73313e+07
       601.30000  3.26962e-07  1.73290e+07
       601.40000  3.26962e-07  1.73224e+07
       601.50000  3.58316e-07  1.89764e+07
       601.60000  3.58316e-07  1.88940e+07
       601.70000  3.58316e-07  1.88259e+07
       601.80000  3.58316e-07  1.87650e+07
       601.90000  3.58316e-07  1.87184e+07
       602.00000  3.58316e-07  1.86826e+07
       602.10000  3.58316e-07  1.86539e+07
       602.20000  3.58316e-07  1.86396e+07
       602.30000  3.58316e-07  1.86360e+07
       602.40000  3.58316e-07  1.86432e+07
       602.50000  4.37301e-07  2.27702e+07
       602.60000  4.37301e-07  2.28052e+07
       602.70000  4.37301e-07  2.28533e+07
       602.80000  4.37301e-07  2.29146e+07
       602.90000  4.37301e-07  2.29889e+07
       603.00000  4.37301e-07  2.30764e+07
       603.10000  4.37301e-07  2.31769e+07
       603.20000  4.37301e-07  2.32906e+07
       603.30000  4.37301e-07  2.34174e+07
       603.40000  4.37301e-07  2.35574e+07
       603.50000  2.94026e-07  1.59421e+07
       603.60000  2.94026e-07  1.59362e+07
       603.70000  2.94026e-07  1.59303e+07
       603.80000  2.93901e-07  1.59177e+07
       603.90000  2.93901e-07  1.59089e+07
       604.00000  2.93901e-07  1.59030e+07
       604.10000  2.93901e-07  1.58942e+07
       604.20000  2.93901e-07  1.58883e+07
       604.30000  2.93901e-07  1.58795e+07
       604.40000  2.93901e-07  1.58736e+07
       604.50000  1.86578e-07  1.00715e+07
       604.60000  1.86578e-07  1.00640e+07
       604.70000  1.86578e-07  1.00566e+07
       604.80000  1.86578e-07  1.00491e+07
       604.90000  1.86578e-07  1.00416e+07
       605.00000  1.86578e-07  1.00360e+07
       605.10000  1.86578e-07  1.00304e+07
       605.20000  1.86578e-07  1.00267e+07
       605.30000  1.86578e-07  1.00211e+07
       605.40000  1.86578e-07  1.00174e+07
       605.50000  3.10098e-07  1.66430e+07
       605.60000  3.10098e-07  1.66399e+07
       605.70000  3.10098e-07  1.66337e+07
       605.80000  3.10098e-07  1.66306e+07
       605.90000  3.10098e-07  1.66306e+07
       606.00000  3.10098e-07  1.66275e+07
       606.10000  3.10098e-07  1.66275e+07
       606.20000  3.10098e-07  1.66275e+07
       606.30000  3.10107e-07  1.66279e+07
       606.40000  3.10107e-07  1.66310e+07
       606.50000  4.45356e-07  2.38889e+07
       606.60000  4.45356e-07  2.38978e+07
       606.70000  4.45356e-07  2.39022e+07
       606.80000  4.45356e-07  2.39112e+07
       606.90000  4.45356e-07  2.39112e+07
       607.00000  4.45356e-07  2.39156e+07
       607.10000  4.45356e-07  2.39156e+07
       607.20000  4.45356e-07  2.39156e+07
       607.30000  4.45356e-07  2.39112e+07
       607.40000  4.45356e-07  2.39067e+07
       607.50000  3.98818e-07  2.14046e+07
       607.60000  3.98818e-07  2.13807e+07
       607.70000  3.98818e-07  2.13607e+07
       607.80000  3.98818e-07  2.13448e+07
       607.90000  3.98818e-07  2.13288e+07
       608.00000  3.98818e-07  2.13129e+07
       608.10000  3.98818e-07  2.13009e+07
       608.20000  3.98818e-07  2.12889e+07
       608.30000  3.98818e-07  2.12809e+07
       608.40000  3.98818e-07  2.12730e+07
       608.50000  5.10782e-07  2.72400e+07
       608.60000  5.10782e-07  2.72349e+07
       608.70000  5.10782e-07  2.72298e+07
       608.80000  5.10672e-07  2.72239e+07
       608.90000  5.10672e-07  2.72290e+07
       609.00000  5.10672e-07  2.72341e+07
       609.10000  5.10672e-07  2.72392e+07
       609.20000  5.10672e-07  2.72495e+07
       609.30000  5.10672e-07  2.72597e+07
       609.40000  5.10672e-07  2.72750e+07
       609.50000  5.60274e-07  2.99466e+07
       609.60000  5.60274e-07  2.98122e+07
       609.70000  5.60274e-07  2.96945e+07
       609.80000  5.60274e-07  2.95937e+07
       609.90000  5.60274e-07  2.95096e+07
       610.00000  5.60274e-07  2.94368e+07
       610.10000  5.60274e-07  2.93752e+07
       610.20000  5.60274e-07  2.93303e+07
       610.30000  5.60274e-07  2.93023e+07
       610.40000  5.60274e-07  2.92911e+07
       610.50000  4.80371e-07  2.51090e+07
       610.60000  4.80371e-07  2.52339e+07
       610.70000  4.80371e-07  2.53444e+07
       610.80000  4.80371e-07  2.54453e+07
       610.90000  4.80371e-07  2.55317e+07
       611.00000  4.80371e-07  2.56038e+07
       611.10000  4.80371e-07  2.56662e+07
       611.20000  4.80371e-07  2.57143e+07
       611.30000  4.80372e-07  2.57528e+07
       611.40000  4.80372e-07  2.57768e+07
       611.50000  5.30071e-07  2.84542e+07
       611.60000  5.30071e-07  2.84542e+07
       611.70000  5.30071e-07  2.84383e+07
       611.80000  5.30071e-07  2.84118e+07
       611.90000  5.30071e-07  2.83694e+07
       612.00000  5.30071e-07  2.83164e+07
       612.10000  5.30071e-07  2.82475e+07
       612.20000  5.30071e-07  2.81627e+07
       612.30000  5.30071e-07  2.80673e+07
       612.40000  5.30071e-07  2.79560e+07
       612.50000  6.67429e-07  3.50467e+07
       612.60000  6.67429e-07  3.49599e+07
       612.70000  6.67429e-07  3.48798e+07
       612.80000  6.67429e-07  3.48131e+07
       612.90000  6.67429e-07  3.47597e+07
       613.00000  6.67429e-07  3.47130e+07
       613.10000  6.67429e-07  3.46796e+07
       613.20000  6.67429e-07  3.46529e+07
       613.30000  6.67429e-07  3.46396e+07
       613.40000  6.67429e-07  3.46396e+07
       613.50000  7.61041e-07  3.95056e+07
       613.60000  7.61041e-07  3.96198e+07
       613.70000  7.61041e-07  3.97187e+07
       613.80000  7.60210e-07  3.97666e+07
       613.90000  7.60210e-07  3.98578e+07
       614.00000  7.60210e-07  3.99414e+07
       614.10000  7.60210e-07  4.00098e+07
       614.20000  7.60210e-07  4.00783e+07
       614.30000  7.60210e-07  4.01391e+07
       614.40000  7.60210e-07  4.01923e+07
       614.50000  7.57741e-07  4.01072e+07
       614.60000  7.57741e-07  4.01451e+07
       614.70000  7.57741e-07  4.01754e+07
       614.80000  7.57741e-07  4.01982e+07
       614.90000  7.57741e-07  4.02133e+07
       615.00000  7.57741e-07  4.02209e+07
       615.10000  7.57741e-07  4.02285e+07
       615.20000  7.57741e-07  4.02209e+07
       615.30000  7.57741e-07  4.02133e+07
       615.40000  7.57741e-07  4.01982e+07
       615.50000  8.86876e-07  4.70133e+07
       615.60000  8.86876e-07  4.64900e+07
       615.70000  8.86876e-07  4.60111e+07
       615.80000  8.86876e-07  4.55943e+07
       615.90000  8.86876e-07  4.52395e+07
       616.00000  8.86876e-07  4.49291e+07
       616.10000  8.86876e-07  4.46808e+07
       616.20000  8.86876e-07  4.44857e+07
       616.30000  8.87001e-07  4.43501e+07
       616.40000  8.87001e-07  4.42702e+07
       616.50000  8.11232e-07  4.04562e+07
       616.60000  8.11232e-07  4.08050e+07
       616.70000  8.11232e-07  4.11295e+07
       616.80000  8.11232e-07  4.14296e+07
       616.90000  8.11232e-07  4.17136e+07
       617.00000  8.11232e-07  4.19813e+07
       617.10000  8.11232e-07  4.22246e+07
       617.20000  8.11232e-07  4.24437e+07
       617.30000  8.11232e-07  4.26465e+07
       617.40000  8.11232e-07  4.28331e+07
       617.50000  8.26558e-07  4.38076e+07
       617.60000  8.26558e-07  4.39481e+07
       617.70000  8.26558e-07  4.40721e+07
       617.80000  8.26558e-07  4.41795e+07
       617.90000  8.26558e-07  4.42539e+07
       618.00000  8.26558e-07  4.43200e+07
       618.10000  8.26558e-07  4.43614e+07
       618.20000  8.26558e-07  4.43779e+07
       618.30000  8.26558e-07  4.43779e+07
       618.40000  8.26558e-07  4.43531e+07
       618.50000  8.69458e-07  4.66116e+07
       618.60000  8.69458e-07  4.65247e+07
       618.70000  8.69458e-07  4.64377e+07
       618.80000  8.68583e-07  4.63302e+07
       618.90000  8.68583e-07  4.62694e+07
       619.00000  8.68583e-07  4.62260e+07
       619.10000  8.68583e-07  4.61912e+07
       619.20000  8.68583e-07  4.61739e+07
       619.30000  8.68583e-07  4.61652e+07
       619.40000  8.68583e-07  4.61652e+07
       619.50000  1.02167e-06  5.43224e+07
       619.60000  1.02167e-06  5.45166e+07
       619.70000  1.02167e-06  5.46902e+07
       619.80000  1.02167e-06  5.48435e+07
       619.90000  1.02167e-06  5.49763e+07
       620.00000  1.02167e-06  5.50785e+07
       620.10000  1.02167e-06  5.51602e+07
       620.20000  1.02167e-06  5.52215e+07
       620.30000  1.02167e-06  5.52624e+07
       620.40000  1.02167e-06  5.52726e+07
       620.50000  1.22338e-06  6.61851e+07
       620.60000  1.22338e-06  6.59159e+07
       620.70000  1.22338e-06  6.56590e+07
       620.80000  1.22338e-06  6.54388e+07
       620.90000  1.22338e-06  6.52431e+07
       621.00000  1.22338e-06  6.50718e+07
       621.10000  1.22338e-06  6.49250e+07
       621.20000  1.22338e-06  6.48149e+07
       621.30000  1.22181e-06  6.46340e+07
       621.40000  1.22181e-06  6.45607e+07
       621.50000  1.29396e-06  6.83342e+07
       621.60000  1.29396e-06  6.85671e+07
       621.70000  1.29396e-06  6.87741e+07
       621.80000  1.29396e-06  6.89423e+07
       621.90000  1.29396e-06  6.90976e+07
       622.00000  1.29396e-06  6.92141e+07
       622.10000  1.29396e-06  6.93046e+07
       622.20000  1.29396e-06  6.93564e+07
       622.30000  1.29396e-06  6.93952e+07
       622.40000  1.29396e-06  6.93952e+07
       622.50000  1.33647e-06  7.16482e+07
       622.60000  1.33647e-06  7.15947e+07
       622.70000  1.33647e-06  7.15145e+07
       622.80000  1.33647e-06  7.14076e+07
       622.90000  1.33647e-06  7.12606e+07
       623.00000  1.33647e-06  7.11002e+07
       623.10000  1.33647e-06  7.08997e+07
       623.20000  1.33647e-06  7.06592e+07
       623.30000  1.33647e-06  7.04052e+07
       623.40000  1.33647e-06  7.01112e+07
       623.50000  1.56588e-06  8.17860e+07
       623.60000  1.56588e-06  8.17704e+07
       623.70000  1.56588e-06  8.17704e+07
       623.80000  1.56251e-06  8.15631e+07
       623.90000  1.56251e-06  8.15475e+07
       624.00000  1.56251e-06  8.15162e+07
       624.10000  1.56251e-06  8.14693e+07
       624.20000  1.56251e-06  8.14225e+07
       624.30000  1.56251e-06  8.13756e+07
       624.40000  1.56251e-06  8.13131e+07
       624.50000  1.64984e-06  8.57915e+07
       624.60000  1.64984e-06  8.54616e+07
       624.70000  1.64984e-06  8.51976e+07
       624.80000  1.64984e-06  8.49666e+07
       624.90000  1.64984e-06  8.47851e+07
       625.00000  1.64984e-06  8.46531e+07
       625.10000  1.64984e-06  8.45707e+07
       625.20000  1.64984e-06  8.45212e+07
       625.30000  1.64984e-06  8.45377e+07
       625.40000  1.64984e-06  8.45872e+07
       625.50000  1.80644e-06  9.27247e+07
       625.60000  1.80644e-06  9.28692e+07
       625.70000  1.80644e-06  9.30859e+07
       625.80000  1.80644e-06  9.33388e+07
       625.90000  1.80644e-06  9.36459e+07
       626.00000  1.80644e-06  9.40072e+07
       626.10000  1.80644e-06  9.44227e+07
       626.20000  1.80644e-06  9.48743e+07
       626.30000  1.80359e-06  9.52477e+07
       626.40000  1.80359e-06  9.58068e+07
       626.50000  1.98869e-06  1.06296e+08
       626.60000  1.98869e-06  1.06316e+08
       626.70000  1.98869e-06  1.06335e+08
       626.80000  1.98869e-06  1.06355e+08
       626.90000  1.98869e-06  1.06375e+08
       627.00000  1.98869e-06  1.06395e+08
       627.10000  1.98869e-06  1.06415e+08
       627.20000  1.98869e-06  1.06415e+08
       627.30000  1.98869e-06  1.06435e+08
       627.40000  1.98869e-06  1.06455e+08
       627.50000  1.99506e-06  1.06815e+08
       627.60000  1.99506e-06  1.06895e+08
       627.70000  1.99506e-06  1.06955e+08
       627.80000  1.99506e-06  1.06995e+08
       627.90000  1.99506e-06  1.07035e+08
       628.00000  1.99506e-06  1.07055e+08
       628.10000  1.99506e-06  1.07075e+08
       628.20000  1.99506e-06  1.07075e+08
       628.30000  1.99506e-06  1.07055e+08
       628.40000  1.99506e-06  1.07035e+08
       628.50000  2.00298e-06  1.07420e+08
       628.60000  2.00298e-06  1.07360e+08
       628.70000  2.00298e-06  1.07300e+08
       628.80000  1.99875e-06  1.06993e+08
       628.90000  1.99875e-06  1.06893e+08
       629.00000  1.99875e-06  1.06793e+08
       629.10000  1.99875e-06  1.06673e+08
       629.20000  1.99875e-06  1.06553e+08
       629.30000  1.99875e-06  1.06413e+08
       629.40000  1.99875e-06  1.06254e+08
       629.50000  2.00572e-06  1.06464e+08
       629.60000  2.00572e-06  1.06243e+08
       629.70000  2.00572e-06  1.06023e+08
       629.80000  2.00572e-06  1.05822e+08
       629.90000  2.00572e-06  1.05642e+08
       630.00000  2.00572e-06  1.05461e+08
       630.10000  2.00572e-06  1.05280e+08
       630.20000  2.00572e-06  1.05140e+08
       630.30000  2.00572e-06  1.04980e+08
       630.40000  2.00572e-06  1.04859e+08
       630.50000  4.02496e-06  2.10183e+08
       630.60000  4.02496e-06  2.09942e+08
       630.70000  4.02496e-06  2.09741e+08
       630.80000  4.02496e-06  2.09580e+08
       630.90000  4.02496e-06  2.09419e+08
       631.00000  4.02496e-06  2.09298e+08
       631.10000  4.02496e-06  2.09419e+08
       631.20000  4.02496e-06  2.09539e+08
       631.30000  4.02476e-06  2.09690e+08
       631.40000  4.02476e-06  2.09811e+08
       631.50000  4.03768e-06  2.10606e+08
       631.60000  4.03768e-06  2.10727e+08
       631.70000  4.03768e-06  2.10848e+08
       631.80000  4.03768e-06  2.10929e+08
       631.90000  4.03768e-06  2.11050e+08
       632.00000  4.03768e-06  2.11171e+08
       632.10000  4.03768e-06  2.11292e+08
       632.20000  4.03768e-06  2.11373e+08
       632.30000  4.03768e-06  2.11494e+08
       632.40000  4.03768e-06  2.11615e+08
       632.50000  4.05062e-06  2.12374e+08
       632.60000  4.05062e-06  2.12455e+08
       632.70000  4.05062e-06  2.12577e+08
       632.80000  4.05062e-06  2.12658e+08
       632.90000  4.05062e-06  2.12739e+08
       633.00000  4.05062e-06  2.12860e+08
       633.10000  4.05062e-06  2.12941e+08
       633.20000  4.05062e-06  2.13022e+08
       633.30000  4.05062e-06  2.13103e+08
       633.40000  4.05062e-06  2.13184e+08
       633.50000  6.09515e-06  3.20910e+08
       633.60000  6.09515e-06  3.21031e+08
       633.70000  6.09515e-06  3.21153e+08
       633.80000  6.09421e-06  3.21165e+08
       633.90000  6.09421e-06  3.21287e+08
       634.00000  6.09421e-06  3.21409e+08
       634.10000  6.09421e-06  3.21470e+08
       634.20000  6.09421e-06  3.21592e+08
       634.30000  6.09421e-06  3.21653e+08
       634.40000  6.09421e-06  3.21774e+08
       634.50000  6.11470e-06  3.22917e+08
       634.60000  6.11470e-06  3.22978e+08
       634.70000  6.11470e-06  3.23101e+08
       634.80000  6.11470e-06  3.23162e+08
       634.90000  6.11470e-06  3.23223e+08
       635.00000  6.11470e-06  3.23284e+08
       635.10000  6.11470e-06  3.23345e+08
       635.20000  6.11470e-06  3.23345e+08
       635.30000  6.11470e-06  3.23406e+08
       635.40000  6.11470e-06  3.23406e+08
       635.50000  6.13073e-06  3.24316e+08
       635.60000  6.13073e-06  3.24377e+08
       635.70000  6.13073e-06  3.24377e+08
       635.80000  6.13073e-06  3.24438e+08
       635.90000  6.13073e-06  3.24438e+08
       636.00000  6.13073e-06  3.24500e+08
       636.10000  6.13073e-06  3.24500e+08
       636.20000  6.13073e-06  3.24561e+08
       636.30000  6.09439e-06  3.22637e+08
       636.40000  6.09439e-06  3.22698e+08
       636.50000  8.15299e-06  4.31701e+08
       636.60000  8.15299e-06  4.31782e+08
       636.70000  8.15299e-06  4.31782e+08
       636.80000  8.15299e-06  4.31864e+08
       636.90000  8.15299e-06  4.31864e+08
       637.00000  8.15299e-06  4.31864e+08
       637.10000  8.15299e-06  4.31945e+08
       637.20000  8.15299e-06  4.31945e+08
       637.30000  8.15299e-06  4.32027e+08
       637.40000  8.15299e-06  4.32027e+08
       637.50000  8.17472e-06  4.33178e+08
       637.60000  8.17472e-06  4.33260e+08
       637.70000  8.17472e-06  4.33260e+08
       637.80000  8.17472e-06  4.33342e+08
       637.90000  8.17472e-06  4.33342e+08
       638.00000  8.17472e-06  4.33342e+08
       638.10000  8.17472e-06  4.33423e+08
       638.20000  8.17472e-06  4.33423e+08
       638.30000  8.17472e-06  4.33423e+08
       638.40000  8.17472e-06  4.33505e+08
       638.50000  1.02520e-05  5.43665e+08
       638.60000  1.02520e-05  5.43665e+08
       638.70000  1.02520e-05  5.43767e+08
       638.80000  1.01848e-05  5.40202e+08
       638.90000  1.01848e-05  5.40202e+08
       639.00000  1.01848e-05  5.40202e+08
       639.10000  1.01848e-05  5.39387e+08
       639.20000  1.01848e-05  5.38572e+08
       639.30000  1.01848e-05  5.37757e+08
       639.40000  1.01848e-05  5.37044e+08
       639.50000  1.22570e-05  6.45330e+08
       639.60000  1.22570e-05  6.44595e+08
       639.70000  1.22570e-05  6.43737e+08
       639.80000  1.22570e-05  6.43002e+08
       639.90000  1.22570e-05  6.42389e+08
       640.00000  1.22570e-05  6.41653e+08
       640.10000  1.22570e-05  6.41040e+08
       640.20000  1.22570e-05  6.40550e+08
       640.30000  1.22570e-05  6.40060e+08
       640.40000  1.22570e-05  6.39570e+08
       640.50000  1.43243e-05  7.46868e+08
       640.60000  1.43243e-05  7.46438e+08
       640.70000  1.43243e-05  7.46008e+08
       640.80000  1.43243e-05  7.45722e+08
       640.90000  1.43243e-05  7.45292e+08
       641.00000  1.43243e-05  7.45149e+08
       641.10000  1.43243e-05  7.45435e+08
       641.20000  1.43243e-05  7.45722e+08
       641.30000  1.42274e-05  7.40962e+08
       641.40000  1.42274e-05  7.41247e+08
       641.50000  1.62985e-05  8.49477e+08
       641.60000  1.62985e-05  8.49803e+08
       641.70000  1.62985e-05  8.50129e+08
       641.80000  1.62985e-05  8.50455e+08
       641.90000  1.62985e-05  8.50781e+08
       642.00000  1.62985e-05  8.51107e+08
       642.10000  1.62985e-05  8.51270e+08
       642.20000  1.62985e-05  8.51596e+08
       642.30000  1.62985e-05  8.51922e+08
       642.40000  1.62985e-05  8.52248e+08
       642.50000  1.83652e-05  9.60681e+08
       642.60000  1.83652e-05  9.61048e+08
       642.70000  1.83652e-05  9.61416e+08
       642.80000  1.83652e-05  9.61783e+08
       642.90000  1.83652e-05  9.62150e+08
       643.00000  1.83652e-05  9.62518e+08
       643.10000  1.83652e-05  9.62701e+08
       643.20000  1.83652e-05  9.63068e+08
       643.30000  1.83652e-05  9.63436e+08
       643.40000  1.83652e-05  9.63803e+08
       643.50000  2.24915e-05  1.18080e+09
       643.60000  2.24915e-05  1.18125e+09
       643.70000  2.24915e-05  1.18148e+09
       643.80000  2.24615e-05  1.18035e+09
       643.90000  2.24615e-05  1.18080e+09
       644.00000  2.24615e-05  1.18125e+09
       644.10000  2.24615e-05  1.18170e+09
       644.20000  2.24615e-05  1.18192e+09
       644.30000  2.24615e-05  1.18237e+09
       644.40000  2.24615e-05  1.18282e+09
       644.50000  2.65985e-05  1.40121e+09
       644.60000  2.65985e-05  1.40147e+09
       644.70000  2.65985e-05  1.40201e+09
       644.80000  2.65985e-05  1.40254e+09
       644.90000  2.65985e-05  1.40307e+09
       645.00000  2.65985e-05  1.40334e+09
       645.10000  2.65985e-05  1.40307e+09
       645.20000  2.65985e-05  1.40254e+09
       645.30000  2.65985e-05  1.40227e+09
       645.40000  2.65985e-05  1.40174e+09
       645.50000  3.07500e-05  1.61960e+09
       645.60000  3.07500e-05  1.61899e+09
       645.70000  3.07500e-05  1.61837e+09
       645.80000  3.07500e-05  1.61745e+09
       645.90000  3.07500e-05  1.61653e+09
       646.00000  3.07500e-05  1.61561e+09
       646.10000  3.07500e-05  1.61468e+09
       646.20000  3.07500e-05  1.61376e+09
       646.30000  3.07312e-05  1.61154e+09
       646.40000  3.07312e-05  1.61031e+09
       646.50000  3.69518e-05  1.93516e+09
       646.60000  3.69518e-05  1.93332e+09
       646.70000  3.69518e-05  1.93184e+09
       646.80000  3.69518e-05  1.93036e+09
       646.90000  3.69518e-05  1.92851e+09
       647.00000  3.69518e-05  1.92704e+09
       647.10000  3.69518e-05  1.92186e+09
       647.20000  3.69518e-05  1.91706e+09
       647.30000  3.69518e-05  1.91262e+09
       647.40000  3.69518e-05  1.90819e+09
       647.50000  4.31882e-05  2.22549e+09
       647.60000  4.31882e-05  2.22160e+09
       647.70000  4.31882e-05  2.21728e+09
       647.80000  4.31882e-05  2.21383e+09
       647.90000  4.31882e-05  2.21037e+09
       648.00000  4.31882e-05  2.20735e+09
       648.10000  4.31882e-05  2.20476e+09
       648.20000  4.31882e-05  2.20260e+09
       648.30000  4.31882e-05  2.20044e+09
       648.40000  4.31882e-05  2.19871e+09
       648.50000  5.15144e-05  2.62105e+09
       648.60000  5.15144e-05  2.62002e+09
       648.70000  5.15144e-05  2.61899e+09
       648.80000  5.15677e-05  2.62119e+09
       648.90000  5.15677e-05  2.62119e+09
       649.00000  5.15677e-05  2.62170e+09
       649.10000  5.15677e-05  2.62222e+09
       649.20000  5.15677e-05  2.62376e+09
       649.30000  5.15677e-05  2.62480e+09
       649.40000  5.15677e-05  2.62686e+09
       649.50000  6.19782e-05  3.16027e+09
       649.60000  6.19782e-05  3.16337e+09
       649.70000  6.19782e-05  3.16709e+09
       649.80000  6.19782e-05  3.17142e+09
       649.90000  6.19782e-05  3.17576e+09
       650.00000  6.19782e-05  3.18072e+09
       650.10000  6.19782e-05  3.18630e+09
       650.20000  6.19782e-05  3.19250e+09
       650.30000  6.19782e-05  3.19931e+09
       650.40000  6.19782e-05  3.20613e+09
       650.50000  7.17203e-05  3.71870e+09
       650.60000  7.17203e-05  3.72802e+09
       650.70000  7.17203e-05  3.73734e+09
       650.80000  7.17203e-05  3.74810e+09
       650.90000  7.17203e-05  3.75886e+09
       651.00000  7.17203e-05  3.77034e+09
       651.10000  7.17203e-05  3.77320e+09
       651.20000  7.17203e-05  3.77607e+09
       651.30000  7.16304e-05  3.77349e+09
       651.40000  7.16304e-05  3.77564e+09
       651.50000  8.76456e-05  4.62243e+09
       651.60000  8.76456e-05  4.62330e+09
       651.70000  8.76456e-05  4.62506e+09
       651.80000  8.76456e-05  4.62593e+09
       651.90000  8.76456e-05  4.62593e+09
       652.00000  8.76456e-05  4.62593e+09
       652.10000  8.76456e-05  4.62506e+09
       652.20000  8.76456e-05  4.62418e+09
       652.30000  8.76456e-05  4.62330e+09
       652.40000  8.76456e-05  4.62155e+09
       652.50000  0.000109608  5.77633e+09
       652.60000  0.000109608  5.77304e+09
       652.70000  0.000109608  5.76975e+09
       652.80000  0.000109608  5.76427e+09
       652.90000  0.000109608  5.75988e+09
       653.00000  0.000109608  5.75440e+09
       653.10000  0.000109608  5.75002e+09
       653.20000  0.000109608  5.74563e+09
       653.30000  0.000109608  5.73906e+09
       653.40000  0.000109608  5.73248e+09
       653.50000  0.000123629  6.45838e+09
       653.60000  0.000123629  6.44973e+09
       653.70000  0.000123629  6.43984e+09
       653.80000  0.000123478  6.42088e+09
       653.90000  0.000123478  6.40976e+09
       654.00000  0.000123478  6.39742e+09
       654.10000  0.000123478  6.38507e+09
       654.20000  0.000123478  6.37025e+09
       654.30000  0.000123478  6.35543e+09
       654.40000  0.000123478  6.34062e+09
       654.50000  0.000143489  7.34951e+09
       654.60000  0.000143489  7.32942e+09
       654.70000  0.000143489  7.30790e+09
       654.80000  0.000143489  7.28637e+09
       654.90000  0.000143489  7.26342e+09
       655.00000  0.000143489  7.23902e+09
       655.10000  0.000143489  7.17015e+09
       655.20000  0.000143489  7.10414e+09
       655.30000  0.000143489  7.04244e+09
       655.40000  0.000143489  6.98505e+09
       655.50000  0.000183467  8.86146e+09
       655.60000  0.000183467  8.79725e+09
       655.70000  0.000183467  8.73670e+09
       655.80000  0.000183467  8.68166e+09
       655.90000  0.000183467  8.63029e+09
       656.00000  0.000183467  8.58442e+09
       656.10000  0.000183467  8.54406e+09
       656.20000  0.000183467  8.50737e+09
       656.30000  0.000183327  8.46973e+09
       656.40000  0.000183327  8.44223e+09
       656.50000  0.000219378  1.00760e+10
       656.60000  0.000219378  1.00563e+10
       656.70000  0.000219378  1.00409e+10
       656.80000  0.000219378  1.00321e+10
       656.90000  0.000219378  1.00278e+10
       657.00000  0.000219378  1.00300e+10
       657.10000  0.000219378  1.01155e+10
       657.20000  0.000219378  1.01989e+10
       657.30000  0.000219378  1.02800e+10
       657.40000  0.000219378  1.03590e+10
       657.50000  0.000271289  1.29025e+10
       657.60000  0.000271289  1.29948e+10
       657.70000  0.000271289  1.30816e+10
       657.80000  0.000271289  1.31657e+10
       657.90000  0.000271289  1.32444e+10
       658.00000  0.000271289  1.33230e+10
       658.10000  0.000271289  1.33990e+10
       658.20000  0.000271289  1.34695e+10
       658.30000  0.000271289  1.35373e+10
       658.40000  0.000271289  1.36025e+10
       658.50000  0.000329297  1.65834e+10
       658.60000  0.000329297  1.66558e+10
       658.70000  0.000329297  1.67217e+10
       658.80000  0.000328955  1.67701e+10
       658.90000  0.000328955  1.68293e+10
       659.00000  0.000328955  1.68820e+10
       659.10000  0.000328955  1.69346e+10
       659.20000  0.000328955  1.69839e+10
       659.30000  0.000328955  1.70267e+10
       659.40000  0.000328955  1.70662e+10
       659.50000  0.000404985  2.10552e+10
       659.60000  0.000404985  2.10957e+10
       659.70000  0.000404985  2.11281e+10
       659.80000  0.000404985  2.11605e+10
       659.90000  0.000404985  2.11848e+10
       660.00000  0.000404985  2.12050e+10
       660.10000  0.000404985  2.12212e+10
       660.20000  0.000404985  2.12293e+10
       660.30000  0.000404985  2.12374e+10
       660.40000  0.000404985  2.12374e+10
       660.50000  0.000510887  2.67858e+10
       660.60000  0.000510887  2.67756e+10
       660.70000  0.000510887  2.67603e+10
       660.80000  0.000510887  2.67347e+10
       660.90000  0.000510887  2.67092e+10
       661.00000  0.000510887  2.66734e+10
       661.10000  0.000510887  2.66581e+10
       661.20000  0.000510887  2.66377e+10
       661.30000  0.000509619  2.65562e+10
       661.40000  0.000509619  2.65410e+10
       661.50000  0.000645355  3.35907e+10
       661.60000  0.000645355  3.35778e+10
       661.70000  0.000645355  3.35585e+10
       661.80000  0.000645355  3.35456e+10
       661.90000  0.000645355  3.35327e+10
       662.00000  0.000645355  3.35198e+10
       662.10000  0.000645355  3.35068e+10
       662.20000  0.000645355  3.34939e+10
       662.30000  0.000645355  3.34875e+10
       662.40000  0.000645355  3.34810e+10
       662.50000  0.000822881  4.26746e+10
       662.60000  0.000822881  4.26746e+10
       662.70000  0.000822881  4.26664e+10
       662.80000  0.000822881  4.26582e+10
       662.90000  0.000822881  4.26582e+10
       663.00000  0.000822881  4.26582e+10
       663.10000  0.000822881  4.26911e+10
       663.20000  0.000822881  4.27158e+10
       663.30000  0.000822881  4.27487e+10
       663.40000  0.000822881  4.27734e+10
       663.50000   0.00104026  5.41037e+10
       663.60000   0.00104026  5.41349e+10
       663.70000   0.00104026  5.41557e+10
       663.80000   0.00103804  5.40713e+10
       663.90000   0.00103804  5.40921e+10
       664.00000   0.00103804  5.41025e+10
       664.10000   0.00103804  5.41232e+10
       664.20000   0.00103804  5.41336e+10
       664.30000   0.00103804  5.41440e+10
       664.40000   0.00103804  5.41544e+10
       664.50000   0.00132898  6.93329e+10
       664.60000   0.00132898  6.93329e+10
       664.70000   0.00132898  6.93329e+10
       664.80000   0.00132898  6.93329e+10
       664.90000   0.00132898  6.93329e+10
       665.00000   0.00132898  6.93196e+10
       665.10000   0.00132898  6.93063e+10
       665.20000   0.00132898  6.92930e+10
       665.30000   0.00132898  6.92664e+10
       665.40000   0.00132898  6.92398e+10
       665.50000   0.00173140  9.01713e+10
       665.60000   0.00173140  9.01367e+10
       665.70000   0.00173140  9.00848e+10
       665.80000   0.00173140  9.00501e+10
       665.90000   0.00173140  8.99982e+10
       666.00000   0.00173140  8.99289e+10
       666.10000   0.00173140  8.98770e+10
       666.20000   0.00173140  8.98077e+10
       666.30000   0.00172705  8.95131e+10
       666.40000   0.00172705  8.94440e+10
       666.50000   0.00225195  1.16516e+11
       666.60000   0.00225195  1.16403e+11
       666.70000   0.00225195  1.16291e+11
       666.80000   0.00225195  1.16178e+11
       666.90000   0.00225195  1.16066e+11
       667.00000   0.00225195  1.15930e+11
       667.10000   0.00225195  1.16066e+11
       667.20000   0.00225195  1.16178e+11
       667.30000   0.00225195  1.16291e+11
       667.40000   0.00225195  1.16403e+11
       667.50000   0.00295654  1.52972e+11
       667.60000   0.00295654  1.53090e+11
       667.70000   0.00295654  1.53208e+11
       667.80000   0.00295654  1.53297e+11
       667.90000   0.00295654  1.53386e+11
       668.00000   0.00295654  1.53474e+11
       668.10000   0.00295654  1.53563e+11
       668.20000   0.00295654  1.53622e+11
       668.30000   0.00295654  1.53681e+11
       668.40000   0.00295654  1.53711e+11
       668.50000   0.00391496  2.03578e+11
       668.60000   0.00391496  2.03617e+11
       668.70000   0.00391496  2.03617e+11
       668.80000   0.00390856  2.03284e+11
       668.90000   0.00390856  2.03284e+11
       669.00000   0.00390856  2.03245e+11
       669.10000   0.00390856  2.02971e+11
       669.20000   0.00390856  2.02698e+11
       669.30000   0.00390856  2.02463e+11
       669.40000   0.00390856  2.02229e+11
       669.50000   0.00521559  2.69542e+11
       669.60000   0.00521559  2.69229e+11
       669.70000   0.00521559  2.68968e+11
       669.80000   0.00521559  2.68707e+11
       669.90000   0.00521559  2.68446e+11
       670.00000   0.00521559  2.68238e+11
       670.10000   0.00521559  2.68029e+11
       670.20000   0.00521559  2.67820e+11
       670.30000   0.00521559  2.67612e+11
       670.40000   0.00521559  2.67455e+11
       670.50000   0.00699929  3.58714e+11
       670.60000   0.00699929  3.58504e+11
       670.70000   0.00699929  3.58364e+11
       670.80000   0.00699929  3.58224e+11
       670.90000   0.00699929  3.58084e+11
       671.00000   0.00699929  3.58014e+11
       671.10000   0.00699929  3.57874e+11
       671.20000   0.00699929  3.57874e+11
       671.30000   0.00699955  3.57817e+11
       671.40000   0.00699955  3.57817e+11
       671.50000   0.00945483  4.83331e+11
       671.60000   0.00945483  4.83331e+11
       671.70000   0.00945483  4.83331e+11
       671.80000   0.00945483  4.83426e+11
       671.90000   0.00945483  4.83520e+11
       672.00000   0.00945483  4.83709e+11
       672.10000   0.00945483  4.83898e+11
       672.20000   0.00945483  4.84087e+11
       672.30000   0.00945483  4.84277e+11
       672.40000   0.00945483  4.84560e+11
       672.50000    0.0128630  6.59613e+11
       672.60000    0.0128630  6.59999e+11
       672.70000    0.0128630  6.60385e+11
       672.80000    0.0128630  6.60899e+11
       672.90000    0.0128630  6.61414e+11
       673.00000    0.0128630  6.62057e+11
       673.10000    0.0128630  6.61800e+11
       673.20000    0.0128630  6.61543e+11
       673.30000    0.0128630  6.61285e+11
       673.40000    0.0128630  6.61157e+11
       673.50000    0.0175845  9.03491e+11
       673.60000    0.0175845  9.03315e+11
       673.70000    0.0175845  9.03139e+11
       673.80000    0.0175915  9.03148e+11
       673.90000    0.0175915  9.02972e+11
       674.00000    0.0175915  9.02796e+11
       674.10000    0.0175915  9.02620e+11
       674.20000    0.0175915  9.02444e+11
       674.30000    0.0175915  9.02268e+11
       674.40000    0.0175915  9.02092e+11
       674.50000    0.0240112  1.23105e+12
       674.60000    0.0240112  1.23105e+12
       674.70000    0.0240112  1.23081e+12
       674.80000    0.0240112  1.23081e+12
       674.90000    0.0240112  1.23057e+12
       675.00000    0.0240112  1.23057e+12
       675.10000    0.0240112  1.23081e+12
       675.20000    0.0240112  1.23105e+12
       675.30000    0.0240112  1.23129e+12
       675.40000    0.0240112  1.23153e+12
       675.50000    0.0325697  1.67050e+12
       675.60000    0.0325697  1.67083e+12
       675.70000    0.0325697  1.67115e+12
       675.80000    0.0325697  1.67115e+12
       675.90000    0.0325697  1.67148e+12
       676.00000    0.0325697  1.67148e+12
       676.10000    0.0325697  1.67180e+12
       676.20000    0.0325697  1.67180e+12
       676.30000    0.0325365  1.67010e+12
       676.40000    0.0325365  1.67010e+12
       676.50000    0.0439037  2.25402e+12
       676.60000    0.0439037  2.25402e+12
       676.70000    0.0439037  2.25402e+12
       676.80000    0.0439037  2.25358e+12
       676.90000    0.0439037  2.25358e+12
       677.00000    0.0439037  2.25358e+12
       677.10000    0.0439037  2.25358e+12
       677.20000    0.0439037  2.25314e+12
       677.30000    0.0439037  2.25314e+12
       677.40000    0.0439037  2.25270e+12
       677.50000    0.0582890  2.99081e+12
       677.60000    0.0582890  2.99023e+12
       677.70000    0.0582890  2.99023e+12
       677.80000    0.0582890  2.98964e+12
       677.90000    0.0582890  2.98906e+12
       678.00000    0.0582890  2.98848e+12
       678.10000    0.0582890  2.98789e+12
       678.20000    0.0582890  2.98731e+12
       678.30000    0.0582890  2.98673e+12
       678.40000    0.0582890  2.98615e+12
       678.50000    0.0751912  3.85054e+12
       678.60000    0.0751912  3.84979e+12
       678.70000    0.0751912  3.84904e+12
       678.80000    0.0751856  3.84725e+12
       678.90000    0.0751856  3.84649e+12
       679.00000    0.0751856  3.84499e+12
       679.10000    0.0751856  3.84499e+12
       679.20000    0.0751856  3.84574e+12
       679.30000    0.0751856  3.84574e+12
       679.40000    0.0751856  3.84574e+12
       679.50000    0.0942362  4.82018e+12
       679.60000    0.0942362  4.82018e+12
       679.70000    0.0942362  4.82018e+12
       679.80000    0.0942362  4.82018e+12
       679.90000    0.0942362  4.82018e+12
       680.00000    0.0942362  4.81924e+12
       680.10000    0.0942362  4.81924e+12
       680.20000    0.0942362  4.81924e+12
       680.30000    0.0942362  4.81829e+12
       680.40000    0.0942362  4.81829e+12
       680.50000     0.115259  5.89204e+12
       680.60000     0.115259  5.89204e+12
       680.70000     0.115259  5.89088e+12
       680.80000     0.115259  5.88973e+12
       680.90000     0.115259  5.88858e+12
       681.00000     0.115259  5.88858e+12
       681.10000     0.115259  5.88743e+12
       681.20000     0.115259  5.88627e+12
       681.30000     0.115248  5.88572e+12
       681.40000     0.115248  5.88456e+12
       681.50000     0.135886  6.93698e+12
       681.60000     0.135886  6.93563e+12
       681.70000     0.135886  6.93427e+12
       681.80000     0.135886  6.93155e+12
       681.90000     0.135886  6.93019e+12
       682.00000     0.135886  6.92883e+12
       682.10000     0.135886  6.92611e+12
       682.20000     0.135886  6.92340e+12
       682.30000     0.135886  6.92204e+12
       682.40000     0.135886  6.91932e+12
       682.50000     0.153287  7.80233e+12
       682.60000     0.153287  7.79926e+12
       682.70000     0.153287  7.79620e+12
       682.80000     0.153287  7.79313e+12
       682.90000     0.153287  7.78853e+12
       683.00000     0.153287  7.78547e+12
       683.10000     0.153287  7.78240e+12
       683.20000     0.153287  7.77780e+12
       683.30000     0.153287  7.77320e+12
       683.40000     0.153287  7.76861e+12
       683.50000     0.167184  8.46955e+12
       683.60000     0.167184  8.46453e+12
       683.70000     0.167184  8.45952e+12
       683.80000     0.167056  8.44635e+12
       683.90000     0.167056  8.44134e+12
       684.00000     0.167056  8.43633e+12
       684.10000     0.167056  8.42965e+12
       684.20000     0.167056  8.42464e+12
       684.30000     0.167056  8.41795e+12
       684.40000     0.167056  8.41294e+12
       684.50000     0.177057  8.90952e+12
       684.60000     0.177057  8.90244e+12
       684.70000     0.177057  8.89535e+12
       684.80000     0.177057  8.88827e+12
       684.90000     0.177057  8.87942e+12
       685.00000     0.177057  8.87234e+12
       685.10000     0.177057  8.87942e+12
       685.20000     0.177057  8.88827e+12
       685.30000     0.177057  8.89535e+12
       685.40000     0.177057  8.90067e+12
       685.50000     0.183123  9.21292e+12
       685.60000     0.183123  9.22025e+12
       685.70000     0.183123  9.22574e+12
       685.80000     0.183123  9.23123e+12
       685.90000     0.183123  9.23673e+12
       686.00000     0.183123  9.24222e+12
       686.10000     0.183123  9.24771e+12
       686.20000     0.183123  9.25138e+12
       686.30000     0.182931  9.24715e+12
       686.40000     0.182931  9.25081e+12
       686.50000     0.185939  9.40665e+12
       686.60000     0.185939  9.41037e+12
       686.70000     0.185939  9.41409e+12
       686.80000     0.185939  9.41595e+12
       686.90000     0.185939  9.41967e+12
       687.00000     0.185939  9.42153e+12
       687.10000     0.185939  9.42339e+12
       687.20000     0.185939  9.42339e+12
       687.30000     0.185939  9.42339e+12
       687.40000     0.185939  9.42339e+12
       687.50000     0.187300  9.49234e+12
       687.60000     0.187300  9.49234e+12
       687.70000     0.187300  9.49234e+12
       687.80000     0.187300  9.49234e+12
       687.90000     0.187300  9.49234e+12
       688.00000     0.187300  9.49047e+12
       688.10000     0.187300  9.49047e+12
       688.20000     0.187300  9.49047e+12
       688.30000     0.187300  9.48859e+12
       688.40000     0.187300  9.48859e+12
       688.50000     0.187879  9.51605e+12
       688.60000     0.187879  9.51417e+12
       688.70000     0.187879  9.51417e+12
       688.80000     0.187639  9.50016e+12
       688.90000     0.187639  9.49829e+12
       689.00000     0.187639  9.49641e+12
       689.10000     0.187639  9.49453e+12
       689.20000     0.187639  9.49266e+12
       689.30000     0.187639  9.49078e+12
       689.40000     0.187639  9.48891e+12
       689.50000     0.188065  9.50856e+12
       689.60000     0.188065  9.50668e+12
       689.70000     0.188065  9.50292e+12
       689.80000     0.188065  9.50104e+12
       689.90000     0.188065  9.49916e+12
       690.00000     0.188065  9.49540e+12
       690.10000     0.188065  9.49164e+12
       690.20000     0.188065  9.48976e+12
       690.30000     0.188065  9.48599e+12
       690.40000     0.188065  9.48223e+12
       690.50000     0.188403  9.49740e+12
       690.60000     0.188403  9.49363e+12
       690.70000     0.188403  9.48986e+12
       690.80000     0.188403  9.48609e+12
       690.90000     0.188403  9.48232e+12
       691.00000     0.188403  9.47855e+12
       691.10000     0.188403  9.48232e+12
       691.20000     0.188403  9.48421e+12
       691.30000     0.188223  9.47891e+12
       691.40000     0.188223  9.48080e+12
       691.50000     0.188439  9.49355e+12
       691.60000     0.188439  9.49732e+12
       691.70000     0.188439  9.49921e+12
       691.80000     0.188439  9.50109e+12
       691.90000     0.188439  9.50298e+12
       692.00000     0.188439  9.50298e+12
       692.10000     0.188439  9.50486e+12
       692.20000     0.188439  9.50674e+12
       692.30000     0.188439  9.50674e+12
       692.40000     0.188439  9.50674e+12
       692.50000     0.188000  9.48647e+12
       692.60000     0.188000  9.48647e+12
       692.70000     0.188000  9.48647e+12
       692.80000     0.188000  9.48647e+12
       692.90000     0.188000  9.48647e+12
       693.00000     0.188000  9.48459e+12
       693.10000     0.188000  9.48459e+12
       693.20000     0.188000  9.48271e+12
       693.30000     0.188000  9.48083e+12
       693.40000     0.188000  9.47895e+12
       693.50000     0.186991  9.42620e+12
       693.60000     0.186991  9.42433e+12
       693.70000     0.186991  9.42246e+12
       693.80000     0.186249  9.38321e+12
       693.90000     0.186249  9.37949e+12
       694.00000     0.186249  9.37762e+12
       694.10000     0.186249  9.37576e+12
       694.20000     0.186249  9.37204e+12
       694.30000     0.186249  9.37017e+12
       694.40000     0.186249  9.36645e+12
       694.50000     0.184583  9.27901e+12
       694.60000     0.184583  9.27717e+12
       694.70000     0.184583  9.27347e+12
       694.80000     0.184583  9.26978e+12
       694.90000     0.184583  9.26609e+12
       695.00000     0.184583  9.26240e+12
       695.10000     0.184583  9.25871e+12
       695.20000     0.184583  9.25502e+12
       695.30000     0.184583  9.24948e+12
       695.40000     0.184583  9.24579e+12
       695.50000     0.182197  9.12262e+12
       695.60000     0.182197  9.11715e+12
       695.70000     0.182197  9.11351e+12
       695.80000     0.182197  9.10804e+12
       695.90000     0.182197  9.10258e+12
       696.00000     0.182197  9.09893e+12
       696.10000     0.182197  9.09347e+12
       696.20000     0.182197  9.08800e+12
       696.30000     0.182018  9.07362e+12
       696.40000     0.182018  9.06816e+12
       696.50000     0.179224  8.92358e+12
       696.60000     0.179224  8.91820e+12
       696.70000     0.179224  8.91103e+12
       696.80000     0.179224  8.90566e+12
       696.90000     0.179224  8.90028e+12
       697.00000     0.179224  8.89311e+12
       697.10000     0.179224  8.90566e+12
       697.20000     0.179224  8.91462e+12
       697.30000     0.179224  8.92537e+12
       697.40000     0.179224  8.93433e+12
       697.50000     0.176597  8.81218e+12
       697.60000     0.176597  8.81925e+12
       697.70000     0.176597  8.82631e+12
       697.80000     0.176597  8.83161e+12
       697.90000     0.176597  8.83690e+12
       698.00000     0.176597  8.84044e+12
       698.10000     0.176597  8.84397e+12
       698.20000     0.176597  8.84750e+12
       698.30000     0.176597  8.84927e+12
       698.40000     0.176597  8.85103e+12
       698.50000     0.174476  8.74648e+12
       698.60000     0.174476  8.74648e+12
       698.70000     0.174476  8.74474e+12
       698.80000     0.174178  8.72807e+12
       698.90000     0.174178  8.72633e+12
       699.00000     0.174178  8.72285e+12
       699.10000     0.174178  8.70717e+12
       699.20000     0.174178  8.68975e+12
       699.30000     0.174178  8.67582e+12
       699.40000     0.174178  8.66014e+12
       699.50000     0.172736  8.57462e+12
       699.60000     0.172736  8.56080e+12
       699.70000     0.172736  8.54871e+12
       699.80000     0.172736  8.53661e+12
       699.90000     0.172736  8.52452e+12
       700.00000     0.172736  8.51416e+12
       700.10000     0.172736  8.50379e+12
       700.20000     0.172736  8.49343e+12
       700.30000     0.172736  8.48479e+12
       700.40000     0.172736  8.47616e+12
       700.50000     0.172557  8.45874e+12
       700.60000     0.172557  8.45184e+12
       700.70000     0.172557  8.44493e+12
       700.80000     0.172557  8.43976e+12
       700.90000     0.172557  8.43458e+12
       701.00000     0.172557  8.42940e+12
       701.10000     0.172557  8.42768e+12
       701.20000     0.172557  8.42595e+12
       701.30000     0.172439  8.41848e+12
       701.40000     0.172439  8.41848e+12
       701.50000     0.173281  8.45957e+12
       701.60000     0.173281  8.45957e+12
       701.70000     0.173281  8.45957e+12
       701.80000     0.173281  8.46130e+12
       701.90000     0.173281  8.46130e+12
       702.00000     0.173281  8.46303e+12
       702.10000     0.173281  8.46650e+12
       702.20000     0.173281  8.46823e+12
       702.30000     0.173281  8.47170e+12
       702.40000     0.173281  8.47343e+12
       702.50000     0.175019  8.56195e+12
       702.60000     0.175019  8.56720e+12
       702.70000     0.175019  8.57070e+12
       702.80000     0.175019  8.57595e+12
       702.90000     0.175019  8.58120e+12
       703.00000     0.175019  8.58645e+12
       703.10000     0.175019  8.60220e+12
       703.20000     0.175019  8.61796e+12
       703.30000     0.175019  8.63196e+12
       703.40000     0.175019  8.64596e+12
       703.50000     0.177463  8.77909e+12
       703.60000     0.177463  8.79329e+12
       703.70000     0.177463  8.80394e+12
       703.80000     0.176985  8.79263e+12
       703.90000     0.176985  8.80325e+12
       704.00000     0.176985  8.81210e+12
       704.10000     0.176985  8.82272e+12
       704.20000     0.176985  8.83157e+12
       704.30000     0.176985  8.83865e+12
       704.40000     0.176985  8.84573e+12
       704.50000     0.179927  8.99996e+12
       704.60000     0.179927  9.00716e+12
       704.70000     0.179927  9.01256e+12
       704.80000     0.179927  9.01616e+12
       704.90000     0.179927  9.02156e+12
       705.00000     0.179927  9.02515e+12
       705.10000     0.179927  9.02695e+12
       705.20000     0.179927  9.02875e+12
       705.30000     0.179927  9.03055e+12
       705.40000     0.179927  9.03235e+12
       705.50000     0.182662  9.16963e+12
       705.60000     0.182662  9.16963e+12
       705.70000     0.182662  9.16780e+12
       705.80000     0.182662  9.16598e+12
       705.90000     0.182662  9.16415e+12
       706.00000     0.182662  9.16050e+12
       706.10000     0.182662  9.15684e+12
       706.20000     0.182662  9.15136e+12
       706.30000     0.182799  9.15276e+12
       706.40000     0.182799  9.14727e+12
       706.50000     0.185103  9.25513e+12
       706.60000     0.185103  9.24773e+12
       706.70000     0.185103  9.24032e+12
       706.80000     0.185103  9.23107e+12
       706.90000     0.185103  9.22181e+12
       707.00000     0.185103  9.21256e+12
       707.10000     0.185103  9.20515e+12
       707.20000     0.185103  9.19960e+12
       707.30000     0.185103  9.19220e+12
       707.40000     0.185103  9.18664e+12
       707.50000     0.186843  9.26740e+12
       707.60000     0.186843  9.26179e+12
       707.70000     0.186843  9.25806e+12
       707.80000     0.186843  9.25245e+12
       707.90000     0.186843  9.24872e+12
       708.00000     0.186843  9.24498e+12
       708.10000     0.186843  9.24124e+12
       708.20000     0.186843  9.23751e+12
       708.30000     0.186843  9.23377e+12
       708.40000     0.186843  9.23003e+12
       708.50000     0.188020  9.28630e+12
       708.60000     0.188020  9.28254e+12
       708.70000     0.188020  9.28066e+12
       708.80000     0.187380  9.24719e+12
       708.90000     0.187380  9.24532e+12
       709.00000     0.187380  9.24532e+12
       709.10000     0.187380  9.24906e+12
       709.20000     0.187380  9.25281e+12
       709.30000     0.187380  9.25468e+12
       709.40000     0.187380  9.25843e+12
       709.50000     0.187837  9.28289e+12
       709.60000     0.187837  9.28665e+12
       709.70000     0.187837  9.28853e+12
       709.80000     0.187837  9.29040e+12
       709.90000     0.187837  9.29228e+12
       710.00000     0.187837  9.29416e+12
       710.10000     0.187837  9.29604e+12
       710.20000     0.187837  9.29792e+12
       710.30000     0.187837  9.29792e+12
       710.40000     0.187837  9.29980e+12
       710.50000     0.187868  9.30135e+12
       710.60000     0.187868  9.30135e+12
       710.70000     0.187868  9.30135e+12
       710.80000     0.187868  9.30135e+12
       710.90000     0.187868  9.30135e+12
       711.00000     0.187868  9.30135e+12
       711.10000     0.187868  9.30135e+12
       711.20000     0.187868  9.29947e+12
       711.30000     0.187909  9.30148e+12
       711.40000     0.187909  9.29960e+12
       711.50000     0.187640  9.28443e+12
       711.60000     0.187640  9.28255e+12
       711.70000     0.187640  9.28067e+12
       711.80000     0.187640  9.27880e+12
       711.90000     0.187640  9.27692e+12
       712.00000     0.187640  9.27317e+12
       712.10000     0.187640  9.27129e+12
       712.20000     0.187640  9.26754e+12
       712.30000     0.187640  9.26566e+12
       712.40000     0.187640  9.26191e+12
       712.50000     0.187449  9.24875e+12
       712.60000     0.187449  9.24500e+12
       712.70000     0.187449  9.23938e+12
       712.80000     0.187449  9.23563e+12
       712.90000     0.187449  9.23188e+12
       713.00000     0.187449  9.22626e+12
       713.10000     0.187449  9.22626e+12
       713.20000     0.187449  9.22626e+12
       713.30000     0.187449  9.22626e+12
       713.40000     0.187449  9.22438e+12
       713.50000     0.187294  9.21673e+12
       713.60000     0.187294  9.21673e+12
       713.70000     0.187294  9.21485e+12
       713.80000     0.187250  9.21270e+12
       713.90000     0.187250  9.21083e+12
       714.00000     0.187250  9.21083e+12
       714.10000     0.187250  9.20896e+12
       714.20000     0.187250  9.20709e+12
       714.30000     0.187250  9.20709e+12
       714.40000     0.187250  9.20521e+12
       714.50000     0.187375  9.20947e+12
       714.60000     0.187375  9.20759e+12
       714.70000     0.187375  9.20759e+12
       714.80000     0.187375  9.20572e+12
       714.90000     0.187375  9.20385e+12
       715.00000     0.187375  9.20197e+12
       715.10000     0.187375  9.20010e+12
       715.20000     0.187375  9.20010e+12
       715.30000     0.187375  9.20010e+12
       715.40000     0.187375  9.19823e+12
       715.50000     0.187345  9.19488e+12
       715.60000     0.187345  9.19301e+12
       715.70000     0.187345  9.19113e+12
       715.80000     0.187345  9.18926e+12
       715.90000     0.187345  9.18739e+12
       716.00000     0.187345  9.18364e+12
       716.10000     0.187345  9.18177e+12
       716.20000     0.187345  9.17802e+12
       716.30000     0.187075  9.16105e+12
       716.40000     0.187075  9.15730e+12
       716.50000     0.186886  9.14435e+12
       716.60000     0.186886  9.14061e+12
       716.70000     0.186886  9.13687e+12
       716.80000     0.186886  9.13127e+12
       716.90000     0.186886  9.12753e+12
       717.00000     0.186886  9.12192e+12
       717.10000     0.186886  9.11632e+12
       717.20000     0.186886  9.11071e+12
       717.30000     0.186886  9.10510e+12
       717.40000     0.186886  9.09950e+12
       717.50000     0.186731  9.08633e+12
       717.60000     0.186731  9.07886e+12
       717.70000     0.186731  9.07326e+12
       717.80000     0.186731  9.06579e+12
       717.90000     0.186731  9.05832e+12
       718.00000     0.186731  9.05085e+12
       718.10000     0.186731  9.04338e+12
       718.20000     0.186731  9.03591e+12
       718.30000     0.186731  9.02844e+12
       718.40000     0.186731  9.01911e+12
       718.50000     0.186122  8.98225e+12
       718.60000     0.186122  8.97295e+12
       718.70000     0.186122  8.96364e+12
       718.80000     0.185358  8.91756e+12
       718.90000     0.185358  8.90829e+12
       719.00000     0.185358  8.89902e+12
       719.10000     0.185358  8.89902e+12
       719.20000     0.185358  8.89902e+12
       719.30000     0.185358  8.89902e+12
       719.40000     0.185358  8.90088e+12
       719.50000     0.184119  8.84141e+12
       719.60000     0.184119  8.84325e+12
       719.70000     0.184119  8.84325e+12
       719.80000     0.184119  8.84509e+12
       719.90000     0.184119  8.84693e+12
       720.00000     0.184119  8.85062e+12
       720.10000     0.184119  8.85246e+12
       720.20000     0.184119  8.85430e+12
       720.30000     0.184119  8.85798e+12
       720.40000     0.184119  8.85982e+12
       720.50000     0.182477  8.78446e+12
       720.60000     0.182477  8.78811e+12
       720.70000     0.182477  8.79176e+12
       720.80000     0.182477  8.79541e+12
       720.90000     0.182477  8.80088e+12
       721.00000     0.182477  8.80453e+12
       721.10000     0.182477  8.81365e+12
       721.20000     0.182477  8.82278e+12
       721.30000     0.182106  8.81393e+12
       721.40000     0.182106  8.82121e+12
       721.50000     0.180250  8.74034e+12
       721.60000     0.180250  8.74755e+12
       721.70000     0.180250  8.75476e+12
       721.80000     0.180250  8.76378e+12
       721.90000     0.180250  8.77099e+12
       722.00000     0.180250  8.77639e+12
       722.10000     0.180250  8.78360e+12
       722.20000     0.180250  8.79081e+12
       722.30000     0.180250  8.79622e+12
       722.40000     0.180250  8.80163e+12
       722.50000     0.178360  8.71469e+12
       722.60000     0.178360  8.72182e+12
       722.70000     0.178360  8.72539e+12
       722.80000     0.178360  8.73074e+12
       722.90000     0.178360  8.73609e+12
       723.00000     0.178360  8.73966e+12
       723.10000     0.178360  8.74501e+12
       723.20000     0.178360  8.74858e+12
       723.30000     0.178360  8.75215e+12
       723.40000     0.178360  8.75571e+12
       723.50000     0.176149  8.65066e+12
       723.60000     0.176149  8.65242e+12
       723.70000     0.176149  8.65594e+12
       723.80000     0.175608  8.63114e+12
       723.90000     0.175608  8.63290e+12
       724.00000     0.175608  8.63465e+12
       724.10000     0.175608  8.63641e+12
       724.20000     0.175608  8.63816e+12
       724.30000     0.175608  8.63992e+12
       724.40000     0.175608  8.64168e+12
       724.50000     0.173648  8.54521e+12
       724.60000     0.173648  8.54521e+12
       724.70000     0.173648  8.54521e+12
       724.80000     0.173648  8.54521e+12
       724.90000     0.173648  8.54521e+12
       725.00000     0.173648  8.54521e+12
       725.10000     0.173648  8.54869e+12
       725.20000     0.173648  8.55216e+12
       725.30000     0.173648  8.55390e+12
       725.40000     0.173648  8.55737e+12
       725.50000     0.172243  8.48985e+12
       725.60000     0.172243  8.49157e+12
       725.70000     0.172243  8.49157e+12
       725.80000     0.172243  8.49329e+12
       725.90000     0.172243  8.49329e+12
       726.00000     0.172243  8.49329e+12
       726.10000     0.172243  8.49329e+12
       726.20000     0.172243  8.49329e+12
       726.30000     0.171795  8.46947e+12
       726.40000     0.171795  8.46776e+12
       726.50000     0.171084  8.43100e+12
       726.60000     0.171084  8.42929e+12
       726.70000     0.171084  8.42758e+12
       726.80000     0.171084  8.42416e+12
       726.90000     0.171084  8.42073e+12
       727.00000     0.171084  8.41731e+12
       727.10000     0.171084  8.40534e+12
       727.20000     0.171084  8.39336e+12
       727.30000     0.171084  8.38139e+12
       727.40000     0.171084  8.37112e+12
       727.50000     0.170743  8.34419e+12
       727.60000     0.170743  8.33395e+12
       727.70000     0.170743  8.32541e+12
       727.80000     0.170743  8.31687e+12
       727.90000     0.170743  8.30833e+12
       728.00000     0.170743  8.30150e+12
       728.10000     0.170743  8.29467e+12
       728.20000     0.170743  8.28784e+12
       728.30000     0.170743  8.28101e+12
       728.40000     0.170743  8.27589e+12
       728.50000     0.171112  8.28868e+12
       728.60000     0.171112  8.28526e+12
       728.70000     0.171112  8.28013e+12
       728.80000     0.171148  8.28016e+12
       728.90000     0.171148  8.27674e+12
       729.00000     0.171148  8.27503e+12
       729.10000     0.171148  8.27331e+12
       729.20000     0.171148  8.27160e+12
       729.30000     0.171148  8.27160e+12
       729.40000     0.171148  8.26989e+12
       729.50000     0.172159  8.32043e+12
       729.60000     0.172159  8.32043e+12
       729.70000     0.172159  8.32215e+12
       729.80000     0.172159  8.32387e+12
       729.90000     0.172159  8.32732e+12
       730.00000     0.172159  8.33076e+12
       730.10000     0.172159  8.33420e+12
       730.20000     0.172159  8.33765e+12
       730.30000     0.172159  8.34281e+12
       730.40000     0.172159  8.34798e+12
       730.50000     0.173506  8.41851e+12
       730.60000     0.173506  8.42545e+12
       730.70000     0.173506  8.43239e+12
       730.80000     0.173506  8.43933e+12
       730.90000     0.173506  8.44801e+12
       731.00000     0.173506  8.45668e+12
       731.10000     0.173506  8.45495e+12
       731.20000     0.173506  8.45321e+12
       731.30000     0.173378  8.44526e+12
       731.40000     0.173378  8.44526e+12
       731.50000     0.175025  8.52373e+12
       731.60000     0.175025  8.52198e+12
       731.70000     0.175025  8.52023e+12
       731.80000     0.175025  8.52023e+12
       731.90000     0.175025  8.51848e+12
       732.00000     0.175025  8.51673e+12
       732.10000     0.175025  8.51498e+12
       732.20000     0.175025  8.51322e+12
       732.30000     0.175025  8.51322e+12
       732.40000     0.175025  8.51147e+12
       732.50000     0.176849  8.59841e+12
       732.60000     0.176849  8.59664e+12
       732.70000     0.176849  8.59487e+12
       732.80000     0.176849  8.59311e+12
       732.90000     0.176849  8.59134e+12
       733.00000     0.176849  8.58957e+12
       733.10000     0.176849  8.58780e+12
       733.20000     0.176849  8.58426e+12
       733.30000     0.176849  8.58249e+12
       733.40000     0.176849  8.57896e+12
       733.50000     0.178685  8.66623e+12
       733.60000     0.178685  8.66444e+12
       733.70000     0.178685  8.66087e+12
       733.80000     0.178390  8.64478e+12
       733.90000     0.178390  8.64300e+12
       734.00000     0.178390  8.64121e+12
       734.10000     0.178390  8.63943e+12
       734.20000     0.178390  8.63765e+12
       734.30000     0.178390  8.63586e+12
       734.40000     0.178390  8.63586e+12
       734.50000     0.180324  8.72769e+12
       734.60000     0.180324  8.72589e+12
       734.70000     0.180324  8.72589e+12
       734.80000     0.180324  8.72408e+12
       734.90000     0.180324  8.72408e+12
       735.00000     0.180324  8.72228e+12
       735.10000     0.180324  8.72228e+12
       735.20000     0.180324  8.72228e+12
       735.30000     0.180324  8.72228e+12
       735.40000     0.180324  8.72048e+12
       735.50000     0.182236  8.81294e+12
       735.60000     0.182236  8.81294e+12
       735.70000     0.182236  8.81294e+12
       735.80000     0.182236  8.81477e+12
       735.90000     0.182236  8.81477e+12
       736.00000     0.182236  8.81477e+12
       736.10000     0.182236  8.81477e+12
       736.20000     0.182236  8.81659e+12
       736.30000     0.181888  8.79976e+12
       736.40000     0.181888  8.80157e+12
       736.50000     0.183189  8.86451e+12
       736.60000     0.183189  8.86634e+12
       736.70000     0.183189  8.86817e+12
       736.80000     0.183189  8.86817e+12
       736.90000     0.183189  8.87001e+12
       737.00000     0.183189  8.87184e+12
       737.10000     0.183189  8.86268e+12
       737.20000     0.183189  8.85169e+12
       737.30000     0.183189  8.84253e+12
       737.40000     0.183189  8.83337e+12
       737.50000     0.184382  8.87983e+12
       737.60000     0.184382  8.87061e+12
       737.70000     0.184382  8.86139e+12
       737.80000     0.184382  8.85217e+12
       737.90000     0.184382  8.84480e+12
       738.00000     0.184382  8.83558e+12
       738.10000     0.184382  8.82636e+12
       738.20000     0.184382  8.81714e+12
       738.30000     0.184382  8.80976e+12
       738.40000     0.184382  8.80239e+12
       738.50000     0.185578  8.85023e+12
       738.60000     0.185578  8.84281e+12
       738.70000     0.185578  8.83538e+12
       738.80000     0.184799  8.79088e+12
       738.90000     0.184799  8.78348e+12
       739.00000     0.184799  8.77609e+12
       739.10000     0.184799  8.76131e+12
       739.20000     0.184799  8.74837e+12
       739.30000     0.184799  8.73728e+12
       739.40000     0.184799  8.72620e+12
       739.50000     0.185340  8.74062e+12
       739.60000     0.185340  8.73135e+12
       739.70000     0.185340  8.72394e+12
       739.80000     0.185340  8.71467e+12
       739.90000     0.185340  8.70911e+12
       740.00000     0.185340  8.70170e+12
       740.10000     0.185340  8.69799e+12
       740.20000     0.185340  8.69243e+12
       740.30000     0.185340  8.68872e+12
       740.40000     0.185340  8.68687e+12
       740.50000     0.185983  8.71515e+12
       740.60000     0.185983  8.71329e+12
       740.70000     0.185983  8.71329e+12
       740.80000     0.185983  8.71329e+12
       740.90000     0.185983  8.71515e+12
       741.00000     0.185983  8.71701e+12
       741.10000     0.185983  8.72073e+12
       741.20000     0.185983  8.72445e+12
       741.30000     0.185856  8.72223e+12
       741.40000     0.185856  8.72781e+12
       741.50000     0.186062  8.74307e+12
       741.60000     0.186062  8.75052e+12
       741.70000     0.186062  8.75982e+12
       741.80000     0.186062  8.76726e+12
       741.90000     0.186062  8.77843e+12
       742.00000     0.186062  8.78773e+12
       742.10000     0.186062  8.79889e+12
       742.20000     0.186062  8.81192e+12
       742.30000     0.186062  8.82494e+12
       742.40000     0.186062  8.83797e+12
       742.50000     0.186079  8.85366e+12
       742.60000     0.186079  8.86854e+12
       742.70000     0.186079  8.88529e+12
       742.80000     0.186079  8.90204e+12
       742.90000     0.186079  8.92065e+12
       743.00000     0.186079  8.93926e+12
       743.10000     0.186079  8.93553e+12
       743.20000     0.186079  8.93367e+12
       743.30000     0.186079  8.93181e+12
       743.40000     0.186079  8.92809e+12
       743.50000     0.186140  8.92915e+12
       743.60000     0.186140  8.92729e+12
       743.70000     0.186140  8.92543e+12
       743.80000     0.186057  8.91958e+12
       743.90000     0.186057  8.91772e+12
       744.00000     0.186057  8.91586e+12
       744.10000     0.186057  8.91586e+12
       744.20000     0.186057  8.91400e+12
       744.30000     0.186057  8.91400e+12
       744.40000     0.186057  8.91400e+12
       744.50000     0.185730  8.89648e+12
       744.60000     0.185730  8.89648e+12
       744.70000     0.185730  8.89648e+12
       744.80000     0.185730  8.89648e+12
       744.90000     0.185730  8.89833e+12
       745.00000     0.185730  8.89833e+12
       745.10000     0.185730  8.90391e+12
       745.20000     0.185730  8.90948e+12
       745.30000     0.185730  8.91319e+12
       745.40000     0.185730  8.91876e+12
       745.50000     0.185126  8.89346e+12
       745.60000     0.185126  8.89717e+12
       745.70000     0.185126  8.90087e+12
       745.80000     0.185126  8.90457e+12
       745.90000     0.185126  8.90642e+12
       746.00000     0.185126  8.91013e+12
       746.10000     0.185126  8.91198e+12
       746.20000     0.185126  8.91383e+12
       746.30000     0.184282  8.87502e+12
       746.40000     0.184282  8.87686e+12
       746.50000     0.183677  8.84955e+12
       746.60000     0.183677  8.84955e+12
       746.70000     0.183677  8.85139e+12
       746.80000     0.183677  8.85139e+12
       746.90000     0.183677  8.85139e+12
       747.00000     0.183677  8.85139e+12
       747.10000     0.183677  8.84588e+12
       747.20000     0.183677  8.84221e+12
       747.30000     0.183677  8.83853e+12
       747.40000     0.183677  8.83486e+12
       747.50000     0.182475  8.77340e+12
       747.60000     0.182475  8.76975e+12
       747.70000     0.182475  8.76610e+12
       747.80000     0.182475  8.76245e+12
       747.90000     0.182475  8.75880e+12
       748.00000     0.182475  8.75515e+12
       748.10000     0.182475  8.75333e+12
       748.20000     0.182475  8.74968e+12
       748.30000     0.182475  8.74603e+12
       748.40000     0.182475  8.74420e+12
       748.50000     0.181064  8.67294e+12
       748.60000     0.181064  8.66932e+12
       748.70000     0.181064  8.66751e+12
       748.80000     0.180425  8.63334e+12
       748.90000     0.180425  8.63154e+12
       749.00000     0.180425  8.62974e+12
       749.10000     0.180425  8.62613e+12
       749.20000     0.180425  8.62432e+12
       749.30000     0.180425  8.62252e+12
       749.40000     0.180425  8.62071e+12
       749.50000     0.178871  8.54465e+12
       749.60000     0.178871  8.54286e+12
       749.70000     0.178871  8.53929e+12
       749.80000     0.178871  8.53750e+12
       749.90000     0.178871  8.53750e+12
       750.00000     0.178871  8.53571e+12
       750.10000     0.178871  8.53392e+12
       750.20000     0.178871  8.53213e+12
       750.30000     0.178871  8.53034e+12
       750.40000     0.178871  8.53034e+12
       750.50000     0.177081  8.44320e+12
       750.60000     0.177081  8.44143e+12
       750.70000     0.177081  8.44143e+12
       750.80000     0.177081  8.43966e+12
       750.90000     0.177081  8.43966e+12
       751.00000     0.177081  8.43789e+12
       751.10000     0.177081  8.43789e+12
       751.20000     0.177081  8.43789e+12
       751.30000     0.176684  8.41724e+12
       751.40000     0.176684  8.41724e+12
       751.50000     0.174124  8.29528e+12
       751.60000     0.174124  8.29528e+12
       751.70000     0.174124  8.29528e+12
       751.80000     0.174124  8.29528e+12
       751.90000     0.174124  8.29528e+12
       752.00000     0.174124  8.29528e+12
       752.10000     0.174124  8.29528e+12
       752.20000     0.174124  8.29528e+12
       752.30000     0.174124  8.29528e+12
       752.40000     0.174124  8.29528e+12
       752.50000     0.171776  8.18514e+12
       752.60000     0.171776  8.18514e+12
       752.70000     0.171776  8.18514e+12
       752.80000     0.171776  8.18686e+12
       752.90000     0.171776  8.18686e+12
       753.00000     0.171776  8.18858e+12
       753.10000     0.171776  8.18858e+12
       753.20000     0.171776  8.18858e+12
       753.30000     0.171776  8.18858e+12
       753.40000     0.171776  8.18858e+12
       753.50000     0.169945  8.10130e+12
       753.60000     0.169945  8.10130e+12
       753.70000     0.169945  8.10130e+12
       753.80000     0.169860  8.09721e+12
       753.90000     0.169860  8.09721e+12
       754.00000     0.169860  8.09721e+12
       754.10000     0.169860  8.09721e+12
       754.20000     0.169860  8.09551e+12
       754.30000     0.169860  8.09551e+12
       754.40000     0.169860  8.09551e+12
       754.50000     0.168489  8.03018e+12
       754.60000     0.168489  8.03018e+12
       754.70000     0.168489  8.02850e+12
       754.80000     0.168489  8.02850e+12
       754.90000     0.168489  8.02681e+12
       755.00000     0.168489  8.02681e+12
       755.10000     0.168489  8.02513e+12
       755.20000     0.168489  8.02513e+12
       755.30000     0.168489  8.02344e+12
       755.40000     0.168489  8.02344e+12
       755.50000     0.167557  7.97739e+12
       755.60000     0.167557  7.97571e+12
       755.70000     0.167557  7.97571e+12
       755.80000     0.167557  7.97404e+12
       755.90000     0.167557  7.97236e+12
       756.00000     0.167557  7.97236e+12
       756.10000     0.167557  7.97069e+12
       756.20000     0.167557  7.96901e+12
       756.30000     0.167290  7.95464e+12
       756.40000     0.167290  7.95464e+12
       756.50000     0.167055  7.94181e+12
       756.60000     0.167055  7.94014e+12
       756.70000     0.167055  7.93847e+12
       756.80000     0.167055  7.93847e+12
       756.90000     0.167055  7.93680e+12
       757.00000     0.167055  7.93513e+12
       757.10000     0.167055  7.93346e+12
       757.20000     0.167055  7.93179e+12
       757.30000     0.167055  7.93179e+12
       757.40000     0.167055  7.93012e+12
       757.50000     0.167320  7.94102e+12
       757.60000     0.167320  7.93934e+12
       757.70000     0.167320  7.93767e+12
       757.80000     0.167320  7.93600e+12
       757.90000     0.167320  7.93432e+12
       758.00000     0.167320  7.93432e+12
       758.10000     0.167320  7.93265e+12
       758.20000     0.167320  7.93098e+12
       758.30000     0.167320  7.92930e+12
       758.40000     0.167320  7.92763e+12
       758.50000     0.167843  7.95072e+12
       758.60000     0.167843  7.94904e+12
       758.70000     0.167843  7.94736e+12
       758.80000     0.167390  7.92425e+12
       758.90000     0.167390  7.92257e+12
       759.00000     0.167390  7.92090e+12
       759.10000     0.167390  7.92090e+12
       759.20000     0.167390  7.91922e+12
       759.30000     0.167390  7.91922e+12
       759.40000     0.167390  7.91755e+12
       759.50000     0.168232  7.95738e+12
       759.60000     0.168232  7.95738e+12
       759.70000     0.168232  7.95569e+12
       759.80000     0.168232  7.95569e+12
       759.90000     0.168232  7.95569e+12
       760.00000     0.168232  7.95569e+12
       760.10000     0.168232  7.95569e+12
       760.20000     0.168232  7.95569e+12
       760.30000     0.168232  7.95738e+12
       760.40000     0.168232  7.95738e+12
       760.50000     0.169145  8.00057e+12
       760.60000     0.169145  8.00226e+12
       760.70000     0.169145  8.00226e+12
       760.80000     0.169145  8.00395e+12
       760.90000     0.169145  8.00395e+12
       761.00000     0.169145  8.00564e+12
       761.10000     0.169145  8.01241e+12
       761.20000     0.169145  8.01749e+12
       761.30000     0.168794  8.00588e+12
       761.40000     0.168794  8.01095e+12
       761.50000     0.169523  8.05064e+12
       761.60000     0.169523  8.05403e+12
       761.70000     0.169523  8.05742e+12
       761.80000     0.169523  8.06081e+12
       761.90000     0.169523  8.06421e+12
       762.00000     0.169523  8.06590e+12
       762.10000     0.169523  8.06929e+12
       762.20000     0.169523  8.07099e+12
       762.30000     0.169523  8.07268e+12
       762.40000     0.169523  8.07268e+12
       762.50000     0.169906  8.09094e+12
       762.60000     0.169906  8.09264e+12
       762.70000     0.169906  8.09264e+12
       762.80000     0.169906  8.09094e+12
       762.90000     0.169906  8.09094e+12
       763.00000     0.169906  8.08924e+12
       763.10000     0.169906  8.08754e+12
       763.20000     0.169906  8.08584e+12
       763.30000     0.169906  8.08244e+12
       763.40000     0.169906  8.07905e+12
       763.50000     0.170139  8.08670e+12
       763.60000     0.170139  8.08330e+12
       763.70000     0.170139  8.07989e+12
       763.80000     0.169703  8.05412e+12
       763.90000     0.169703  8.04903e+12
       764.00000     0.169703  8.04394e+12
       764.10000     0.169703  8.03885e+12
       764.20000     0.169703  8.03206e+12
       764.30000     0.169703  8.02527e+12
       764.40000     0.169703  8.01848e+12
       764.50000     0.169613  8.00745e+12
       764.60000     0.169613  8.00066e+12
       764.70000     0.169613  7.99218e+12
       764.80000     0.169613  7.98370e+12
       764.90000     0.169613  7.97522e+12
       765.00000     0.169613  7.96504e+12
       765.10000     0.169613  7.94639e+12
       765.20000     0.169613  7.92773e+12
       765.30000     0.169613  7.91077e+12
       765.40000     0.169613  7.89381e+12
       765.50000     0.169131  7.85613e+12
       765.60000     0.169131  7.84260e+12
       765.70000     0.169131  7.82738e+12
       765.80000     0.169131  7.81554e+12
       765.90000     0.169131  7.80370e+12
       766.00000     0.169131  7.79186e+12
       766.10000     0.169131  7.78171e+12
       766.20000     0.169131  7.77156e+12
       766.30000     0.169126  7.76290e+12
       766.40000     0.169126  7.75613e+12
       766.50000     0.168052  7.70014e+12
       766.60000     0.168052  7.69342e+12
       766.70000     0.168052  7.69006e+12
       766.80000     0.168052  7.68502e+12
       766.90000     0.168052  7.68166e+12
       767.00000     0.168052  7.67998e+12
       767.10000     0.168052  7.68838e+12
       767.20000     0.168052  7.69846e+12
       767.30000     0.168052  7.70686e+12
       767.40000     0.168052  7.71527e+12
       767.50000     0.167201  7.68455e+12
       767.60000     0.167201  7.69291e+12
       767.70000     0.167201  7.70127e+12
       767.80000     0.167201  7.70796e+12
       767.90000     0.167201  7.71632e+12
       768.00000     0.167201  7.72300e+12
       768.10000     0.167201  7.72969e+12
       768.20000     0.167201  7.73638e+12
       768.30000     0.167201  7.74140e+12
       768.40000     0.167201  7.74809e+12
       768.50000     0.166060  7.70021e+12
       768.60000     0.166060  7.70519e+12
       768.70000     0.166060  7.71017e+12
       768.80000     0.165972  7.71105e+12
       768.90000     0.165972  7.71603e+12
       769.00000     0.165972  7.71935e+12
       769.10000     0.165972  7.72433e+12
       769.20000     0.165972  7.72765e+12
       769.30000     0.165972  7.73097e+12
       769.40000     0.165972  7.73429e+12
       769.50000     0.165072  7.69401e+12
       769.60000     0.165072  7.69731e+12
       769.70000     0.165072  7.69896e+12
       769.80000     0.165072  7.70227e+12
       769.90000     0.165072  7.70392e+12
       770.00000     0.165072  7.70392e+12
       770.10000     0.165072  7.70557e+12
       770.20000     0.165072  7.70722e+12
       770.30000     0.165072  7.70722e+12
       770.40000     0.165072  7.70722e+12
       770.50000     0.164167  7.66497e+12
       770.60000     0.164167  7.66497e+12
       770.70000     0.164167  7.66497e+12
       770.80000     0.164167  7.66497e+12
       770.90000     0.164167  7.66333e+12
       771.00000     0.164167  7.66168e+12
       771.10000     0.164167  7.66825e+12
       771.20000     0.164167  7.67318e+12
       771.30000     0.163665  7.65460e+12
       771.40000     0.163665  7.65951e+12
       771.50000     0.163001  7.63333e+12
       771.60000     0.163001  7.63659e+12
       771.70000     0.163001  7.64148e+12
       771.80000     0.163001  7.64474e+12
       771.90000     0.163001  7.64637e+12
       772.00000     0.163001  7.64963e+12
       772.10000     0.163001  7.65126e+12
       772.20000     0.163001  7.65289e+12
       772.30000     0.163001  7.65452e+12
       772.40000     0.163001  7.65615e+12
       772.50000     0.162480  7.63169e+12
       772.60000     0.162480  7.63169e+12
       772.70000     0.162480  7.63169e+12
       772.80000     0.162480  7.63007e+12
       772.90000     0.162480  7.63007e+12
       773.00000     0.162480  7.62844e+12
       773.10000     0.162480  7.61869e+12
       773.20000     0.162480  7.61057e+12
       773.30000     0.162480  7.60082e+12
       773.40000     0.162480  7.59270e+12
       773.50000     0.161870  7.55611e+12
       773.60000     0.161870  7.54964e+12
       773.70000     0.161870  7.54316e+12
       773.80000     0.161230  7.50687e+12
       773.90000     0.161230  7.50042e+12
       774.00000     0.161230  7.49397e+12
       774.10000     0.161230  7.48913e+12
       774.20000     0.161230  7.48430e+12
       774.30000     0.161230  7.48107e+12
       774.40000     0.161230  7.47624e+12
       774.50000     0.160390  7.43407e+12
       774.60000     0.160390  7.43247e+12
       774.70000     0.160390  7.42926e+12
       774.80000     0.160390  7.42766e+12
       774.90000     0.160390  7.42605e+12
       775.00000     0.160390  7.42445e+12
       775.10000     0.160390  7.42445e+12
       775.20000     0.160390  7.42445e+12
       775.30000     0.160390  7.42445e+12
       775.40000     0.160390  7.42445e+12
       775.50000     0.159186  7.37031e+12
       775.60000     0.159186  7.37190e+12
       775.70000     0.159186  7.37349e+12
       775.80000     0.159186  7.37508e+12
       775.90000     0.159186  7.37827e+12
       776.00000     0.159186  7.38145e+12
       776.10000     0.159186  7.38464e+12
       776.20000     0.159186  7.38941e+12
       776.30000     0.158782  7.37544e+12
       776.40000     0.158782  7.38020e+12
       776.50000     0.157290  7.31556e+12
       776.60000     0.157290  7.32185e+12
       776.70000     0.157290  7.32814e+12
       776.80000     0.157290  7.33443e+12
       776.90000     0.157290  7.34230e+12
       777.00000     0.157290  7.34859e+12
       777.10000     0.157290  7.34544e+12
       777.20000     0.157290  7.34387e+12
       777.30000     0.157290  7.34073e+12
       777.40000     0.157290  7.33758e+12
       777.50000     0.155484  7.25023e+12
       777.60000     0.155484  7.24868e+12
       777.70000     0.155484  7.24557e+12
       777.80000     0.155484  7.24401e+12
       777.90000     0.155484  7.24246e+12
       778.00000     0.155484  7.23935e+12
       778.10000     0.155484  7.23779e+12
       778.20000     0.155484  7.23624e+12
       778.30000     0.155484  7.23468e+12
       778.40000     0.155484  7.23313e+12
       778.50000     0.153223  7.12794e+12
       778.60000     0.153223  7.12640e+12
       778.70000     0.153223  7.12487e+12
       778.80000     0.152835  7.10682e+12
       778.90000     0.152835  7.10682e+12
       779.00000     0.152835  7.10529e+12
       779.10000     0.152835  7.10835e+12
       779.20000     0.152835  7.10988e+12
       779.30000     0.152835  7.11294e+12
       779.40000     0.152835  7.11446e+12
       779.50000     0.150043  6.98600e+12
       779.60000     0.150043  6.98750e+12
       779.70000     0.150043  6.98901e+12
       779.80000     0.150043  6.99051e+12
       779.90000     0.150043  6.99201e+12
       780.00000     0.150043  6.99351e+12
       780.10000     0.150043  6.99351e+12
       780.20000     0.150043  6.99501e+12
       780.30000     0.150043  6.99501e+12
       780.40000     0.150043  6.99501e+12
       780.50000     0.147644  6.88314e+12
       780.60000     0.147644  6.88314e+12
       780.70000     0.147644  6.88314e+12
       780.80000     0.147644  6.88314e+12
       780.90000     0.147644  6.88314e+12
       781.00000     0.147644  6.88167e+12
       781.10000     0.147644  6.88167e+12
       781.20000     0.147644  6.88019e+12
       781.30000     0.146823  6.84047e+12
       781.40000     0.146823  6.83900e+12
       781.50000     0.144700  6.73868e+12
       781.60000     0.144700  6.73724e+12
       781.70000     0.144700  6.73579e+12
       781.80000     0.144700  6.73434e+12
       781.90000     0.144700  6.73145e+12
       782.00000     0.144700  6.73000e+12
       782.10000     0.144700  6.72711e+12
       782.20000     0.144700  6.72421e+12
       782.30000     0.144700  6.72277e+12
       782.40000     0.144700  6.71987e+12
       782.50000     0.142995  6.63781e+12
       782.60000     0.142995  6.63352e+12
       782.70000     0.142995  6.63066e+12
       782.80000     0.142995  6.62780e+12
       782.90000     0.142995  6.62351e+12
       783.00000     0.142995  6.62065e+12
       783.10000     0.142995  6.62351e+12
       783.20000     0.142995  6.62637e+12
       783.30000     0.142995  6.62923e+12
       783.40000     0.142995  6.63066e+12
       783.50000     0.141662  6.57172e+12
       783.60000     0.141662  6.57455e+12
       783.70000     0.141662  6.57597e+12
       783.80000     0.140940  6.54527e+12
       783.90000     0.140940  6.54809e+12
       784.00000     0.140940  6.54949e+12
       784.10000     0.140940  6.55090e+12
       784.20000     0.140940  6.55372e+12
       784.30000     0.140940  6.55513e+12
       784.40000     0.140940  6.55654e+12
       784.50000     0.140285  6.52746e+12
       784.60000     0.140285  6.52886e+12
       784.70000     0.140285  6.53026e+12
       784.80000     0.140285  6.53167e+12
       784.90000     0.140285  6.53307e+12
       785.00000     0.140285  6.53307e+12
       785.10000     0.140285  6.53307e+12
       785.20000     0.140285  6.53307e+12
       785.30000     0.140285  6.53307e+12
       785.40000     0.140285  6.53307e+12
       785.50000     0.140247  6.53131e+12
       785.60000     0.140247  6.53131e+12
       785.70000     0.140247  6.53131e+12
       785.80000     0.140247  6.53131e+12
       785.90000     0.140247  6.53131e+12
       786.00000     0.140247  6.53131e+12
       786.10000     0.140247  6.53131e+12
       786.20000     0.140247  6.53131e+12
       786.30000     0.140012  6.52036e+12
       786.40000     0.140012  6.52036e+12
       786.50000     0.140128  6.52575e+12
       786.60000     0.140128  6.52575e+12
       786.70000     0.140128  6.52575e+12
       786.80000     0.140128  6.52575e+12
       786.90000     0.140128  6.52575e+12
       787.00000     0.140128  6.52575e+12
       787.10000     0.140128  6.52575e+12
       787.20000     0.140128  6.52575e+12
       787.30000     0.140128  6.52575e+12
       787.40000     0.140128  6.52575e+12
       787.50000     0.140973  6.56512e+12
       787.60000     0.140973  6.56512e+12
       787.70000     0.140973  6.56512e+12
       787.80000     0.140973  6.56512e+12
       787.90000     0.140973  6.56512e+12
       788.00000     0.140973  6.56512e+12
       788.10000     0.140973  6.56512e+12
       788.20000     0.140973  6.56512e+12
       788.30000     0.140973  6.56512e+12
       788.40000     0.140973  6.56512e+12
       788.50000     0.141344  6.58241e+12
       788.60000     0.141344  6.58241e+12
       788.70000     0.141344  6.58241e+12
       788.80000     0.141369  6.58356e+12
       788.90000     0.141369  6.58356e+12
       789.00000     0.141369  6.58356e+12
       789.10000     0.141369  6.58073e+12
       789.20000     0.141369  6.57649e+12
       789.30000     0.141369  6.57225e+12
       789.40000     0.141369  6.56942e+12
       789.50000     0.142415  6.61377e+12
       789.60000     0.142415  6.60950e+12
       789.70000     0.142415  6.60665e+12
       789.80000     0.142415  6.60238e+12
       789.90000     0.142415  6.59811e+12
       790.00000     0.142415  6.59526e+12
       790.10000     0.142415  6.59098e+12
       790.20000     0.142415  6.58814e+12
       790.30000     0.142415  6.58386e+12
       790.40000     0.142415  6.58102e+12
       790.50000     0.142833  6.59605e+12
       790.60000     0.142833  6.59176e+12
       790.70000     0.142833  6.58890e+12
       790.80000     0.142833  6.58462e+12
       790.90000     0.142833  6.58176e+12
       791.00000     0.142833  6.57748e+12
       791.10000     0.142833  6.57319e+12
       791.20000     0.142833  6.57034e+12
       791.30000     0.142417  6.54691e+12
       791.40000     0.142417  6.54264e+12
       791.50000     0.142612  6.54732e+12
       791.60000     0.142612  6.54304e+12
       791.70000     0.142612  6.54018e+12
       791.80000     0.142612  6.53591e+12
       791.90000     0.142612  6.53305e+12
       792.00000     0.142612  6.52878e+12
       792.10000     0.142612  6.52592e+12
       792.20000     0.142612  6.52307e+12
       792.30000     0.142612  6.51879e+12
       792.40000     0.142612  6.51594e+12
       792.50000     0.142525  6.50913e+12
       792.60000     0.142525  6.50628e+12
       792.70000     0.142525  6.50343e+12
       792.80000     0.142525  6.50058e+12
       792.90000     0.142525  6.49773e+12
       793.00000     0.142525  6.49488e+12
       793.10000     0.142525  6.49060e+12
       793.20000     0.142525  6.48490e+12
       793.30000     0.142525  6.48062e+12
       793.40000     0.142525  6.47635e+12
       793.50000     0.141781  6.43829e+12
       793.60000     0.141781  6.43546e+12
       793.70000     0.141781  6.43120e+12
       793.80000     0.141377  6.41144e+12
       793.90000     0.141377  6.40861e+12
       794.00000     0.141377  6.40720e+12
       794.10000     0.141377  6.40437e+12
       794.20000     0.141377  6.40437e+12
       794.30000     0.141377  6.40296e+12
       794.40000     0.141377  6.40296e+12
       794.50000     0.140391  6.35829e+12
       794.60000     0.140391  6.35829e+12
       794.70000     0.140391  6.35970e+12
       794.80000     0.140391  6.35970e+12
       794.90000     0.140391  6.36110e+12
       795.00000     0.140391  6.36391e+12
       795.10000     0.140391  6.37374e+12
       795.20000     0.140391  6.38357e+12
       795.30000     0.140391  6.39339e+12
       795.40000     0.140391  6.40322e+12
       795.50000     0.139094  6.35241e+12
       795.60000     0.139094  6.36076e+12
       795.70000     0.139094  6.36771e+12
       795.80000     0.139094  6.37467e+12
       795.90000     0.139094  6.38162e+12
       796.00000     0.139094  6.38719e+12
       796.10000     0.139094  6.39275e+12
       796.20000     0.139094  6.39831e+12
       796.30000     0.138909  6.39397e+12
       796.40000     0.138909  6.39813e+12
       796.50000     0.137546  6.33951e+12
       796.60000     0.137546  6.34227e+12
       796.70000     0.137546  6.34502e+12
       796.80000     0.137546  6.34639e+12
       796.90000     0.137546  6.34777e+12
       797.00000     0.137546  6.34914e+12
       797.10000     0.137546  6.35052e+12
       797.20000     0.137546  6.35052e+12
       797.30000     0.137546  6.35052e+12
       797.40000     0.137546  6.34914e+12
       797.50000     0.136517  6.30025e+12
       797.60000     0.136517  6.29889e+12
       797.70000     0.136517  6.29616e+12
       797.80000     0.136517  6.29343e+12
       797.90000     0.136517  6.29070e+12
       798.00000     0.136517  6.28660e+12
       798.10000     0.136517  6.28251e+12
       798.20000     0.136517  6.27841e+12
       798.30000     0.136517  6.27295e+12
       798.40000     0.136517  6.26749e+12
       798.50000     0.135432  6.21229e+12
       798.60000     0.135432  6.20551e+12
       798.70000     0.135432  6.19874e+12
       798.80000     0.135123  6.17782e+12
       798.90000     0.135123  6.16971e+12
       799.00000     0.135123  6.16160e+12
       799.10000     0.135123  6.16566e+12
       799.20000     0.135123  6.17106e+12
       799.30000     0.135123  6.17647e+12
       799.40000     0.135123  6.18052e+12
       799.50000     0.134312  6.14747e+12
       799.60000     0.134312  6.15150e+12
       799.70000     0.134312  6.15553e+12
       799.80000     0.134312  6.15821e+12
       799.90000     0.134312  6.16090e+12
       800.00000     0.134312  6.16359e+12
       800.10000     0.134312  6.16627e+12
       800.20000     0.134312  6.16896e+12
       800.30000     0.134312  6.17164e+12
       800.40000     0.134312  6.17299e+12
       800.50000     0.133789  6.15029e+12
       800.60000     0.133789  6.15163e+12
       800.70000     0.133789  6.15163e+12
       800.80000     0.133789  6.15296e+12
       800.90000     0.133789  6.15296e+12
       801.00000     0.133789  6.15296e+12
       801.10000     0.133789  6.15029e+12
       801.20000     0.133789  6.14761e+12
       801.30000     0.133396  6.12690e+12
       801.40000     0.133396  6.12423e+12
       801.50000     0.132926  6.09998e+12
       801.60000     0.132926  6.09732e+12
       801.70000     0.132926  6.09467e+12
       801.80000     0.132926  6.09201e+12
       801.90000     0.132926  6.08935e+12
       802.00000     0.132926  6.08669e+12
       802.10000     0.132926  6.08403e+12
       802.20000     0.132926  6.08137e+12
       802.30000     0.132926  6.07871e+12
       802.40000     0.132926  6.07605e+12
       802.50000     0.132273  6.04357e+12
       802.60000     0.132273  6.04092e+12
       802.70000     0.132273  6.03827e+12
       802.80000     0.132273  6.03431e+12
       802.90000     0.132273  6.03166e+12
       803.00000     0.132273  6.02902e+12
       803.10000     0.132273  6.02637e+12
       803.20000     0.132273  6.02372e+12
       803.30000     0.132273  6.02108e+12
       803.40000     0.132273  6.01711e+12
       803.50000     0.131309  5.97061e+12
       803.60000     0.131309  5.96798e+12
       803.70000     0.131309  5.96536e+12
       803.80000     0.130901  5.94420e+12
       803.90000     0.130901  5.94027e+12
       804.00000     0.130901  5.93766e+12
       804.10000     0.130901  5.93504e+12
       804.20000     0.130901  5.93242e+12
       804.30000     0.130901  5.92849e+12
       804.40000     0.130901  5.92588e+12
       804.50000     0.129929  5.87928e+12
       804.60000     0.129929  5.87538e+12
       804.70000     0.129929  5.87278e+12
       804.80000     0.129929  5.87018e+12
       804.90000     0.129929  5.86628e+12
       805.00000     0.129929  5.86368e+12
       805.10000     0.129929  5.86888e+12
       805.20000     0.129929  5.87538e+12
       805.30000     0.129929  5.87928e+12
       805.40000     0.129929  5.88447e+12
       805.50000     0.128041  5.80282e+12
       805.60000     0.128041  5.80666e+12
       805.70000     0.128041  5.81050e+12
       805.80000     0.128041  5.81306e+12
       805.90000     0.128041  5.81562e+12
       806.00000     0.128041  5.81818e+12
       806.10000     0.128041  5.81946e+12
       806.20000     0.128041  5.82074e+12
       806.30000     0.127791  5.81064e+12
       806.40000     0.127791  5.81192e+12
       806.50000     0.125651  5.71461e+12
       806.60000     0.125651  5.71461e+12
       806.70000     0.125651  5.71336e+12
       806.80000     0.125651  5.71336e+12
       806.90000     0.125651  5.71210e+12
       807.00000     0.125651  5.70959e+12
       807.10000     0.125651  5.69954e+12
       807.20000     0.125651  5.68823e+12
       807.30000     0.125651  5.67818e+12
       807.40000     0.125651  5.66938e+12
       807.50000     0.123337  5.55635e+12
       807.60000     0.123337  5.54771e+12
       807.70000     0.123337  5.54031e+12
       807.80000     0.123337  5.53415e+12
       807.90000     0.123337  5.52798e+12
       808.00000     0.123337  5.52181e+12
       808.10000     0.123337  5.51688e+12
       808.20000     0.123337  5.51195e+12
       808.30000     0.123337  5.50701e+12
       808.40000     0.123337  5.50331e+12
       808.50000     0.121259  5.40816e+12
       808.60000     0.121259  5.40574e+12
       808.70000     0.121259  5.40331e+12
       808.80000     0.121145  5.39699e+12
       808.90000     0.121145  5.39578e+12
       809.00000     0.121145  5.39578e+12
       809.10000     0.121145  5.39578e+12
       809.20000     0.121145  5.39699e+12
       809.30000     0.121145  5.39820e+12
       809.40000     0.121145  5.39942e+12
       809.50000     0.119229  5.31643e+12
       809.60000     0.119229  5.32001e+12
       809.70000     0.119229  5.32359e+12
       809.80000     0.119229  5.32717e+12
       809.90000     0.119229  5.33194e+12
       810.00000     0.119229  5.33670e+12
       810.10000     0.119229  5.34267e+12
       810.20000     0.119229  5.34863e+12
       810.30000     0.119229  5.35459e+12
       810.40000     0.119229  5.36174e+12
       810.50000     0.117900  5.31022e+12
       810.60000     0.117900  5.31729e+12
       810.70000     0.117900  5.32673e+12
       810.80000     0.117900  5.33616e+12
       810.90000     0.117900  5.34559e+12
       811.00000     0.117900  5.35620e+12
       811.10000     0.117900  5.35738e+12
       811.20000     0.117900  5.35974e+12
       811.30000     0.117822  5.35739e+12
       811.40000     0.117822  5.35974e+12
       811.50000     0.116994  5.32322e+12
       811.60000     0.116994  5.32439e+12
       811.70000     0.116994  5.32556e+12
       811.80000     0.116994  5.32673e+12
       811.90000     0.116994  5.32790e+12
       812.00000     0.116994  5.32907e+12
       812.10000     0.116994  5.32907e+12
       812.20000     0.116994  5.33024e+12
       812.30000     0.116994  5.33141e+12
       812.40000     0.116994  5.33141e+12
       812.50000     0.116889  5.32665e+12
       812.60000     0.116889  5.32782e+12
       812.70000     0.116889  5.32782e+12
       812.80000     0.116889  5.32782e+12
       812.90000     0.116889  5.32782e+12
       813.00000     0.116889  5.32782e+12
       813.10000     0.116889  5.32549e+12
       813.20000     0.116889  5.32432e+12
       813.30000     0.116889  5.32198e+12
       813.40000     0.116889  5.32081e+12
       813.50000     0.117118  5.32887e+12
       813.60000     0.117118  5.32770e+12
       813.70000     0.117118  5.32653e+12
       813.80000     0.117105  5.32477e+12
       813.90000     0.117105  5.32360e+12
       814.00000     0.117105  5.32126e+12
       814.10000     0.117105  5.32009e+12
       814.20000     0.117105  5.31892e+12
       814.30000     0.117105  5.31775e+12
       814.40000     0.117105  5.31775e+12
       814.50000     0.117561  5.33728e+12
       814.60000     0.117561  5.33611e+12
       814.70000     0.117561  5.33493e+12
       814.80000     0.117561  5.33376e+12
       814.90000     0.117561  5.33376e+12
       815.00000     0.117561  5.33258e+12
       815.10000     0.117561  5.33728e+12
       815.20000     0.117561  5.34081e+12
       815.30000     0.117561  5.34434e+12
       815.40000     0.117561  5.34669e+12
       815.50000     0.118214  5.37991e+12
       815.60000     0.118214  5.38109e+12
       815.70000     0.118214  5.38346e+12
       815.80000     0.118214  5.38346e+12
       815.90000     0.118214  5.38464e+12
       816.00000     0.118214  5.38464e+12
       816.10000     0.118214  5.38464e+12
       816.20000     0.118214  5.38346e+12
       816.30000     0.118210  5.38212e+12
       816.40000     0.118210  5.38094e+12
       816.50000     0.119101  5.41911e+12
       816.60000     0.119101  5.41673e+12
       816.70000     0.119101  5.41316e+12
       816.80000     0.119101  5.40959e+12
       816.90000     0.119101  5.40601e+12
       817.00000     0.119101  5.40125e+12
       817.10000     0.119101  5.38457e+12
       817.20000     0.119101  5.36909e+12
       817.30000     0.119101  5.35480e+12
       817.40000     0.119101  5.34051e+12
       817.50000     0.119172  5.33055e+12
       817.60000     0.119172  5.31864e+12
       817.70000     0.119172  5.30672e+12
       817.80000     0.119172  5.29480e+12
       817.90000     0.119172  5.28527e+12
       818.00000     0.119172  5.27454e+12
       818.10000     0.119172  5.26620e+12
       818.20000     0.119172  5.25786e+12
       818.30000     0.119172  5.24952e+12
       818.40000     0.119172  5.24356e+12
       818.50000     0.119077  5.23223e+12
       818.60000     0.119077  5.22747e+12
       818.70000     0.119077  5.22270e+12
       818.80000     0.119059  5.21715e+12
       818.90000     0.119059  5.21477e+12
       819.00000     0.119059  5.21119e+12
       819.10000     0.119059  5.21000e+12
       819.20000     0.119059  5.20881e+12
       819.30000     0.119059  5.20762e+12
       819.40000     0.119059  5.20762e+12
       819.50000     0.117980  5.16164e+12
       819.60000     0.117980  5.16282e+12
       819.70000     0.117980  5.16518e+12
       819.80000     0.117980  5.16872e+12
       819.90000     0.117980  5.17226e+12
       820.00000     0.117980  5.17697e+12
       820.10000     0.117980  5.18169e+12
       820.20000     0.117980  5.18759e+12
       820.30000     0.117980  5.19467e+12
       820.40000     0.117980  5.20175e+12
       820.50000     0.116637  5.15071e+12
       820.60000     0.116637  5.15887e+12
       820.70000     0.116637  5.16821e+12
       820.80000     0.116637  5.17754e+12
       820.90000     0.116637  5.18803e+12
       821.00000     0.116637  5.19970e+12
       821.10000     0.116637  5.19737e+12
       821.20000     0.116637  5.19620e+12
       821.30000     0.116972  5.20876e+12
       821.40000     0.116972  5.20759e+12
       821.50000     0.115503  5.13987e+12
       821.60000     0.115503  5.13872e+12
       821.70000     0.115503  5.13756e+12
       821.80000     0.115503  5.13525e+12
       821.90000     0.115503  5.13410e+12
       822.00000     0.115503  5.13294e+12
       822.10000     0.115503  5.13294e+12
       822.20000     0.115503  5.13179e+12
       822.30000     0.115503  5.13063e+12
       822.40000     0.115503  5.13063e+12
       822.50000     0.113975  5.06162e+12
       822.60000     0.113975  5.06162e+12
       822.70000     0.113975  5.06048e+12
       822.80000     0.113975  5.06048e+12
       822.90000     0.113975  5.06048e+12
       823.00000     0.113975  5.06048e+12
       823.10000     0.113975  5.06048e+12
       823.20000     0.113975  5.06048e+12
       823.30000     0.113975  5.06048e+12
       823.40000     0.113975  5.06048e+12
       823.50000     0.112705  5.00524e+12
       823.60000     0.112705  5.00524e+12
       823.70000     0.112705  5.00637e+12
       823.80000     0.113013  5.02003e+12
       823.90000     0.113013  5.02116e+12
       824.00000     0.113013  5.02229e+12
       824.10000     0.113013  5.02342e+12
       824.20000     0.113013  5.02455e+12
       824.30000     0.113013  5.02568e+12
       824.40000     0.113013  5.02794e+12
       824.50000     0.112074  4.98730e+12
       824.60000     0.112074  4.98954e+12
       824.70000     0.112074  4.99066e+12
       824.80000     0.112074  4.99290e+12
       824.90000     0.112074  4.99515e+12
       825.00000     0.112074  4.99739e+12
       825.10000     0.112074  4.99963e+12
       825.20000     0.112074  5.00187e+12
       825.30000     0.112074  5.00523e+12
       825.40000     0.112074  5.00747e+12
       825.50000     0.112254  5.01890e+12
       825.60000     0.112254  5.02114e+12
       825.70000     0.112254  5.02451e+12
       825.80000     0.112254  5.02788e+12
       825.90000     0.112254  5.03124e+12
       826.00000     0.112254  5.03461e+12
       826.10000     0.112254  5.03798e+12
       826.20000     0.112254  5.04022e+12
       826.30000     0.112329  5.04694e+12
       826.40000     0.112329  5.04919e+12
       826.50000     0.112050  5.03779e+12
       826.60000     0.112050  5.04003e+12
       826.70000     0.112050  5.04227e+12
       826.80000     0.112050  5.04339e+12
       826.90000     0.112050  5.04451e+12
       827.00000     0.112050  5.04563e+12
       827.10000     0.112050  5.04563e+12
       827.20000     0.112050  5.04675e+12
       827.30000     0.112050  5.04675e+12
       827.40000     0.112050  5.04675e+12
       827.50000     0.111689  5.03047e+12
       827.60000     0.111689  5.03047e+12
       827.70000     0.111689  5.02935e+12
       827.80000     0.111689  5.02823e+12
       827.90000     0.111689  5.02712e+12
       828.00000     0.111689  5.02600e+12
       828.10000     0.111689  5.02265e+12
       828.20000     0.111689  5.01818e+12
       828.30000     0.111689  5.01371e+12
       828.40000     0.111689  5.00924e+12
       828.50000     0.110509  4.95303e+12
       828.60000     0.110509  4.94861e+12
       828.70000     0.110509  4.94530e+12
       828.80000     0.110420  4.93797e+12
       828.90000     0.110420  4.93356e+12
       829.00000     0.110420  4.93024e+12
       829.10000     0.110420  4.92693e+12
       829.20000     0.110420  4.92362e+12
       829.30000     0.110420  4.92031e+12
       829.40000     0.110420  4.91699e+12
       829.50000     0.108546  4.83029e+12
       829.60000     0.108546  4.82703e+12
       829.70000     0.108546  4.82377e+12
       829.80000     0.108546  4.82052e+12
       829.90000     0.108546  4.81835e+12
       830.00000     0.108546  4.81509e+12
       830.10000     0.108546  4.81292e+12
       830.20000     0.108546  4.80966e+12
       830.30000     0.108546  4.80749e+12
       830.40000     0.108546  4.80424e+12
       830.50000     0.105212  4.65460e+12
       830.60000     0.105212  4.65250e+12
       830.70000     0.105212  4.64934e+12
       830.80000     0.105212  4.64723e+12
       830.90000     0.105212  4.64513e+12
       831.00000     0.105212  4.64303e+12
       831.10000     0.105212  4.64092e+12
       831.20000     0.105212  4.63882e+12
       831.30000     0.105498  4.65034e+12
       831.40000     0.105498  4.64823e+12
       831.50000     0.101164  4.45528e+12
       831.60000     0.101164  4.45426e+12
       831.70000     0.101164  4.45224e+12
       831.80000     0.101164  4.45022e+12
       831.90000     0.101164  4.44921e+12
       832.00000     0.101164  4.44819e+12
       832.10000     0.101164  4.44415e+12
       832.20000     0.101164  4.44010e+12
       832.30000     0.101164  4.43707e+12
       832.40000     0.101164  4.43403e+12
       832.50000    0.0972490  4.25951e+12
       832.60000    0.0972490  4.25756e+12
       832.70000    0.0972490  4.25562e+12
       832.80000    0.0972490  4.25270e+12
       832.90000    0.0972490  4.25173e+12
       833.00000    0.0972490  4.24978e+12
       833.10000    0.0972490  4.24784e+12
       833.20000    0.0972490  4.24686e+12
       833.30000    0.0972490  4.24589e+12
       833.40000    0.0972490  4.24492e+12
       833.50000    0.0940235  4.10413e+12
       833.60000    0.0940235  4.10319e+12
       833.70000    0.0940235  4.10319e+12
       833.80000    0.0941216  4.10747e+12
       833.90000    0.0941216  4.10841e+12
       834.00000    0.0941216  4.10841e+12
       834.10000    0.0941216  4.11311e+12
       834.20000    0.0941216  4.11688e+12
       834.30000    0.0941216  4.12159e+12
       834.40000    0.0941216  4.12535e+12
       834.50000    0.0920055  4.03628e+12
       834.60000    0.0920055  4.03996e+12
       834.70000    0.0920055  4.04272e+12
       834.80000    0.0920055  4.04548e+12
       834.90000    0.0920055  4.04916e+12
       835.00000    0.0920055  4.05192e+12
       835.10000    0.0920055  4.05376e+12
       835.20000    0.0920055  4.05652e+12
       835.30000    0.0920055  4.05836e+12
       835.40000    0.0920055  4.06020e+12
       835.50000    0.0921541  4.06860e+12
       835.60000    0.0921541  4.07045e+12
       835.70000    0.0921541  4.07137e+12
       835.80000    0.0921541  4.07321e+12
       835.90000    0.0921541  4.07413e+12
       836.00000    0.0921541  4.07506e+12
       836.10000    0.0921541  4.07321e+12
       836.20000    0.0921541  4.07229e+12
       836.30000    0.0921124  4.06860e+12
       836.40000    0.0921124  4.06768e+12
       836.50000    0.0945193  4.17303e+12
       836.60000    0.0945193  4.17114e+12
       836.70000    0.0945193  4.17019e+12
       836.80000    0.0945193  4.16925e+12
       836.90000    0.0945193  4.16736e+12
       837.00000    0.0945193  4.16641e+12
       837.10000    0.0945193  4.16546e+12
       837.20000    0.0945193  4.16452e+12
       837.30000    0.0945193  4.16357e+12
       837.40000    0.0945193  4.16263e+12
       837.50000    0.0977107  4.30220e+12
       837.60000    0.0977107  4.30122e+12
       837.70000    0.0977107  4.30025e+12
       837.80000    0.0977107  4.29927e+12
       837.90000    0.0977107  4.29927e+12
       838.00000    0.0977107  4.29829e+12
       838.10000    0.0977107  4.29732e+12
       838.20000    0.0977107  4.29732e+12
       838.30000    0.0977107  4.29732e+12
       838.40000    0.0977107  4.29732e+12
       838.50000    0.0986844  4.33915e+12
       838.60000    0.0986844  4.33915e+12
       838.70000    0.0986844  4.33915e+12
       838.80000    0.0983860  4.32505e+12
       838.90000    0.0983860  4.32505e+12
       839.00000    0.0983860  4.32505e+12
       839.10000    0.0983860  4.32407e+12
       839.20000    0.0983860  4.32407e+12
       839.30000    0.0983860  4.32407e+12
       839.40000    0.0983860  4.32308e+12
       839.50000    0.0923550  4.05808e+12
       839.60000    0.0923550  4.05808e+12
       839.70000    0.0923550  4.05715e+12
       839.80000    0.0923550  4.05715e+12
       839.90000    0.0923550  4.05715e+12
       840.00000    0.0923550  4.05623e+12
       840.10000    0.0923550  4.05623e+12
       840.20000    0.0923550  4.05623e+12
       840.30000    0.0923550  4.05531e+12
       840.40000    0.0923550  4.05531e+12
       840.50000    0.0772398  3.39160e+12
       840.60000    0.0772398  3.39083e+12
       840.70000    0.0772398  3.39083e+12
       840.80000    0.0772398  3.39083e+12
       840.90000    0.0772398  3.39006e+12
       841.00000    0.0772398  3.39006e+12
       841.10000    0.0772398  3.39006e+12
       841.20000    0.0772398  3.39006e+12
       841.30000    0.0772357  3.38910e+12
       841.40000    0.0772357  3.38910e+12
       841.50000    0.0569136  2.49737e+12
       841.60000    0.0569136  2.49680e+12
       841.70000    0.0569136  2.49680e+12
       841.80000    0.0569136  2.49680e+12
       841.90000    0.0569136  2.49623e+12
       842.00000    0.0569136  2.49623e+12
       842.10000    0.0569136  2.49396e+12
       842.20000    0.0569136  2.49225e+12
       842.30000    0.0569136  2.49054e+12
       842.40000    0.0569136  2.48826e+12
       842.50000    0.0377156  1.64780e+12
       842.60000    0.0377156  1.64704e+12
       842.70000    0.0377156  1.64591e+12
       842.80000    0.0377156  1.64516e+12
       842.90000    0.0377156  1.64402e+12
       843.00000    0.0377156  1.64327e+12
       843.10000    0.0377156  1.64252e+12
       843.20000    0.0377156  1.64176e+12
       843.30000    0.0377156  1.64138e+12
       843.40000    0.0377156  1.64063e+12
       843.50000    0.0240609  1.04641e+12
       843.60000    0.0240609  1.04617e+12
       843.70000    0.0240609  1.04593e+12
       843.80000    0.0240956  1.04719e+12
       843.90000    0.0240956  1.04719e+12
       844.00000    0.0240956  1.04695e+12
       844.10000    0.0240956  1.04767e+12
       844.20000    0.0240956  1.04816e+12
       844.30000    0.0240956  1.04864e+12
       844.40000    0.0240956  1.04912e+12
       844.50000    0.0155556  6.77602e+11
       844.60000    0.0155556  6.77913e+11
       844.70000    0.0155556  6.78068e+11
       844.80000    0.0155556  6.78380e+11
       844.90000    0.0155556  6.78535e+11
       845.00000    0.0155556  6.78846e+11
       845.10000    0.0155556  6.79002e+11
       845.20000    0.0155556  6.79157e+11
       845.30000    0.0155556  6.79469e+11
       845.40000    0.0155556  6.79624e+11
       845.50000    0.0104095  4.54790e+11
       845.60000    0.0104095  4.54894e+11
       845.70000    0.0104095  4.54998e+11
       845.80000    0.0104095  4.55102e+11
       845.90000    0.0104095  4.55102e+11
       846.00000    0.0104095  4.55207e+11
       846.10000    0.0104095  4.55207e+11
       846.20000    0.0104095  4.55207e+11
       846.30000    0.0104369  4.56405e+11
       846.40000    0.0104369  4.56509e+11
       846.50000   0.00724196  3.16763e+11
       846.60000   0.00724196  3.16691e+11
       846.70000   0.00724196  3.16691e+11
       846.80000   0.00724196  3.16691e+11
       846.90000   0.00724196  3.16618e+11
       847.00000   0.00724196  3.16618e+11
       847.10000   0.00724196  3.16546e+11
       847.20000   0.00724196  3.16546e+11
       847.30000   0.00724196  3.16474e+11
       847.40000   0.00724196  3.16401e+11
       847.50000   0.00525799  2.29669e+11
       847.60000   0.00525799  2.29617e+11
       847.70000   0.00525799  2.29564e+11
       847.80000   0.00525799  2.29511e+11
       847.90000   0.00525799  2.29406e+11
       848.00000   0.00525799  2.29354e+11
       848.10000   0.00525799  2.28249e+11
       848.20000   0.00525799  2.27250e+11
       848.30000   0.00525799  2.26251e+11
       848.40000   0.00525799  2.25305e+11
       848.50000   0.00399263  1.70406e+11
       848.60000   0.00399263  1.69807e+11
       848.70000   0.00399263  1.69208e+11
       848.80000   0.00400787  1.69293e+11
       848.90000   0.00400787  1.68772e+11
       849.00000   0.00400787  1.68291e+11
       849.10000   0.00400787  1.67810e+11
       849.20000   0.00400787  1.67409e+11
       849.30000   0.00400787  1.67048e+11
       849.40000   0.00400787  1.66687e+11
       849.50000    0.0118095  4.90330e+11
       849.60000    0.0118095  4.89504e+11
       849.70000    0.0118095  4.88913e+11
       849.80000    0.0118095  4.88323e+11
       849.90000    0.0118095  4.87850e+11
       850.00000    0.0118095  4.87496e+11
       850.10000    0.0118095  4.90094e+11
       850.20000    0.0118095  4.92574e+11
       850.30000    0.0118095  4.94818e+11
       850.40000    0.0118095  4.96826e+11
       850.50000   0.00915367  3.86559e+11
       850.60000   0.00915367  3.87841e+11
       850.70000   0.00915367  3.88939e+11
       850.80000   0.00915367  3.89946e+11
       850.90000   0.00915367  3.90770e+11
       851.00000   0.00915367  3.91502e+11
       851.10000   0.00915367  3.92052e+11
       851.20000   0.00915367  3.92509e+11
       851.30000   0.00916336  3.93200e+11
       851.40000   0.00916336  3.93291e+11
       851.50000   0.00670857  2.87932e+11
       851.60000   0.00670857  2.87797e+11
       851.70000   0.00670857  2.87596e+11
       851.80000   0.00670857  2.87261e+11
       851.90000   0.00670857  2.86791e+11
       852.00000   0.00670857  2.86254e+11
       852.10000   0.00670857  2.85584e+11
       852.20000   0.00670857  2.84846e+11
       852.30000   0.00670857  2.83974e+11
       852.40000   0.00670857  2.83034e+11
       852.50000   0.00493814  2.07501e+11
       852.60000   0.00493814  2.06661e+11
       852.70000   0.00493814  2.05674e+11
       852.80000   0.00493814  2.04686e+11
       852.90000   0.00493814  2.03550e+11
       853.00000   0.00493814  2.02365e+11
       853.10000   0.00493814  2.01081e+11
       853.20000   0.00493814  1.99748e+11
       853.30000   0.00493814  1.98316e+11
       853.40000   0.00493814  1.96834e+11
       853.50000   0.00340082  1.34468e+11
       853.60000   0.00340082  1.33312e+11
       853.70000   0.00340082  1.32122e+11
       853.80000   0.00340536  1.31038e+11
       853.90000   0.00340536  1.29744e+11
       854.00000   0.00340536  1.28382e+11
       854.10000   0.00340536  1.29336e+11
       854.20000   0.00340536  1.30289e+11
       854.30000   0.00340536  1.31209e+11
       854.40000   0.00340536  1.32094e+11
       854.50000   0.00244424  9.54232e+10
       854.60000   0.00244424  9.60343e+10
       854.70000   0.00244424  9.66209e+10
       854.80000   0.00244424  9.71830e+10
       854.90000   0.00244424  9.77452e+10
       855.00000   0.00244424  9.82830e+10
       855.10000   0.00244424  9.87962e+10
       855.20000   0.00244424  9.92851e+10
       855.30000   0.00244424  9.97739e+10
       855.40000   0.00244424  1.00214e+11
       855.50000   0.00173567  7.14923e+10
       855.60000   0.00173567  7.17873e+10
       855.70000   0.00173567  7.20824e+10
       855.80000   0.00173567  7.23601e+10
       855.90000   0.00173567  7.26205e+10
       856.00000   0.00173567  7.28635e+10
       856.10000   0.00173567  7.30544e+10
       856.20000   0.00173567  7.32280e+10
       856.30000   0.00173762  7.34840e+10
       856.40000   0.00173762  7.36577e+10
       856.50000   0.00132837  5.64291e+10
       856.60000   0.00132837  5.65486e+10
       856.70000   0.00132837  5.66549e+10
       856.80000   0.00132837  5.67612e+10
       856.90000   0.00132837  5.68542e+10
       857.00000   0.00132837  5.69471e+10
       857.10000   0.00132837  5.70401e+10
       857.20000   0.00132837  5.71198e+10
       857.30000   0.00132837  5.71995e+10
       857.40000   0.00132837  5.72660e+10
       857.50000   0.00101483  4.38002e+10
       857.60000   0.00101483  4.38510e+10
       857.70000   0.00101483  4.38916e+10
       857.80000   0.00101483  4.39322e+10
       857.90000   0.00101483  4.39626e+10
       858.00000   0.00101483  4.40032e+10
       858.10000   0.00101483  4.40235e+10
       858.20000   0.00101483  4.40438e+10
       858.30000   0.00101483  4.40641e+10
       858.40000   0.00101483  4.40742e+10
       858.50000  0.000797589  3.46473e+10
       858.60000  0.000797589  3.46552e+10
       858.70000  0.000797589  3.46552e+10
       858.80000  0.000800003  3.47601e+10
       858.90000  0.000800003  3.47521e+10
       859.00000  0.000800003  3.47441e+10
       859.10000  0.000800003  3.47361e+10
       859.20000  0.000800003  3.47201e+10
       859.30000  0.000800003  3.47041e+10
       859.40000  0.000800003  3.46801e+10
       859.50000  0.000630809  2.73267e+10
       859.60000  0.000630809  2.73077e+10
       859.70000  0.000630809  2.72825e+10
       859.80000  0.000630809  2.72510e+10
       859.90000  0.000630809  2.72257e+10
       860.00000  0.000630809  2.71942e+10
       860.10000  0.000630809  2.71879e+10
       860.20000  0.000630809  2.71816e+10
       860.30000  0.000630809  2.71816e+10
       860.40000  0.000630809  2.71816e+10
       860.50000  0.000505444  2.17745e+10
       860.60000  0.000505444  2.17745e+10
       860.70000  0.000505444  2.17745e+10
       860.80000  0.000505444  2.17745e+10
       860.90000  0.000505444  2.17745e+10
       861.00000  0.000505444  2.17745e+10
       861.10000  0.000505444  2.17745e+10
       861.20000  0.000505444  2.17745e+10
       861.30000  0.000507106  2.18461e+10
       861.40000  0.000507106  2.18512e+10
       861.50000  0.000396240  1.70740e+10
       861.60000  0.000396240  1.70740e+10
       861.70000  0.000396240  1.70779e+10
       861.80000  0.000396240  1.70819e+10
       861.90000  0.000396240  1.70819e+10
       862.00000  0.000396240  1.70859e+10
       862.10000  0.000396240  1.71413e+10
       862.20000  0.000396240  1.71889e+10
       862.30000  0.000396240  1.72325e+10
       862.40000  0.000396240  1.72721e+10
       862.50000  0.000314830  1.37486e+10
       862.60000  0.000314830  1.37707e+10
       862.70000  0.000314830  1.37896e+10
       862.80000  0.000314830  1.38053e+10
       862.90000  0.000314830  1.38147e+10
       863.00000  0.000314830  1.38210e+10
       863.10000  0.000314830  1.38242e+10
       863.20000  0.000314830  1.38242e+10
       863.30000  0.000314830  1.38179e+10
       863.40000  0.000314830  1.38084e+10
       863.50000  0.000247472  1.08442e+10
       863.60000  0.000247472  1.08294e+10
       863.70000  0.000247472  1.08121e+10
       863.80000  0.000248165  1.08225e+10
       863.90000  0.000248165  1.08001e+10
       864.00000  0.000248165  1.07728e+10
       864.10000  0.000248165  1.07430e+10
       864.20000  0.000248165  1.07108e+10
       864.30000  0.000248165  1.06736e+10
       864.40000  0.000248165  1.06363e+10
       864.50000  0.000191399  8.16890e+09
       864.60000  0.000191399  8.13444e+09
       864.70000  0.000191399  8.09616e+09
       864.80000  0.000191399  8.05788e+09
       864.90000  0.000191399  8.01386e+09
       865.00000  0.000191399  7.96984e+09
       865.10000  0.000191399  7.92199e+09
       865.20000  0.000191399  7.87223e+09
       865.30000  0.000191399  7.82055e+09
       865.40000  0.000191399  7.76504e+09
       865.50000  0.000145227  5.84831e+09
       865.60000  0.000145227  5.80328e+09
       865.70000  0.000145227  5.75681e+09
       865.80000  0.000145227  5.70744e+09
       865.90000  0.000145227  5.65661e+09
       866.00000  0.000145227  5.60432e+09
       866.10000  0.000145227  5.62466e+09
       866.20000  0.000145227  5.64354e+09
       866.30000  0.000145657  5.68061e+09
       866.40000  0.000145657  5.69955e+09
       866.50000  0.000114021  4.47645e+09
       866.60000  0.000114021  4.49127e+09
       866.70000  0.000114021  4.50609e+09
       866.80000  0.000114021  4.52091e+09
       866.90000  0.000114021  4.53460e+09
       867.00000  0.000114021  4.54828e+09
       867.10000  0.000114021  4.56196e+09
       867.20000  0.000114021  4.57564e+09
       867.30000  0.000114021  4.58933e+09
       867.40000  0.000114021  4.60187e+09
       867.50000  8.45401e-05  3.42134e+09
       867.60000  8.45401e-05  3.43064e+09
       867.70000  8.45401e-05  3.43994e+09
       867.80000  8.45401e-05  3.44924e+09
       867.90000  8.45401e-05  3.45769e+09
       868.00000  8.45401e-05  3.46615e+09
       868.10000  8.45401e-05  3.47545e+09
       868.20000  8.45401e-05  3.48474e+09
       868.30000  8.45401e-05  3.49320e+09
       868.40000  8.45401e-05  3.50165e+09
       868.50000  6.59281e-05  2.73734e+09
       868.60000  6.59281e-05  2.74327e+09
       868.70000  6.59281e-05  2.74986e+09
       868.80000  6.60933e-05  2.76204e+09
       868.90000  6.60933e-05  2.76799e+09
       869.00000  6.60933e-05  2.77327e+09
       869.10000  6.60933e-05  2.77856e+09
       869.20000  6.60933e-05  2.78385e+09
       869.30000  6.60933e-05  2.78914e+09
       869.40000  6.60933e-05  2.79376e+09
       869.50000  5.44484e-05  2.30534e+09
       869.60000  5.44484e-05  2.30861e+09
       869.70000  5.44484e-05  2.31188e+09
       869.80000  5.44484e-05  2.31514e+09
       869.90000  5.44484e-05  2.31841e+09
       870.00000  5.44484e-05  2.32168e+09
       870.10000  5.44484e-05  2.32440e+09
       870.20000  5.44484e-05  2.32712e+09
       870.30000  5.44484e-05  2.32930e+09
       870.40000  5.44484e-05  2.33148e+09
       870.50000  4.47391e-05  1.91752e+09
       870.60000  4.47391e-05  1.91931e+09
       870.70000  4.47391e-05  1.92065e+09
       870.80000  4.47391e-05  1.92244e+09
       870.90000  4.47391e-05  1.92333e+09
       871.00000  4.47391e-05  1.92468e+09
       871.10000  4.47391e-05  1.92557e+09
       871.20000  4.47391e-05  1.92647e+09
       871.30000  4.49992e-05  1.93857e+09
       871.40000  4.49992e-05  1.93902e+09
       871.50000  3.70185e-05  1.59550e+09
       871.60000  3.70185e-05  1.59587e+09
       871.70000  3.70185e-05  1.59587e+09
       871.80000  3.70185e-05  1.59624e+09
       871.90000  3.70185e-05  1.59587e+09
       872.00000  3.70185e-05  1.59587e+09
       872.10000  3.70185e-05  1.59476e+09
       872.20000  3.70185e-05  1.59402e+09
       872.30000  3.70185e-05  1.59291e+09
       872.40000  3.70185e-05  1.59217e+09
       872.50000  3.50308e-05  1.50562e+09
       872.60000  3.50308e-05  1.50492e+09
       872.70000  3.50308e-05  1.50422e+09
       872.80000  3.50308e-05  1.50352e+09
       872.90000  3.50308e-05  1.50247e+09
       873.00000  3.50308e-05  1.50177e+09
       873.10000  3.50308e-05  1.50107e+09
       873.20000  3.50308e-05  1.50037e+09
       873.30000  3.50308e-05  1.49967e+09
       873.40000  3.50308e-05  1.49897e+09
       873.50000  2.89277e-05  1.23724e+09
       873.60000  2.89277e-05  1.23666e+09
       873.70000  2.89277e-05  1.23608e+09
       873.80000  2.90804e-05  1.24232e+09
       873.90000  2.90804e-05  1.24173e+09
       874.00000  2.90804e-05  1.24115e+09
       874.10000  2.90804e-05  1.24028e+09
       874.20000  2.90804e-05  1.23941e+09
       874.30000  2.90804e-05  1.23883e+09
       874.40000  2.90804e-05  1.23795e+09
       874.50000  2.71614e-05  1.15572e+09
       874.60000  2.71614e-05  1.15517e+09
       874.70000  2.71614e-05  1.15463e+09
       874.80000  2.71614e-05  1.15436e+09
       874.90000  2.71614e-05  1.15381e+09
       875.00000  2.71614e-05  1.15354e+09
       875.10000  2.71614e-05  1.15327e+09
       875.20000  2.71614e-05  1.15300e+09
       875.30000  2.71614e-05  1.15300e+09
       875.40000  2.71614e-05  1.15273e+09
       875.50000  2.52952e-05  1.07353e+09
       875.60000  2.52952e-05  1.07353e+09
       875.70000  2.52952e-05  1.07353e+09
       875.80000  2.52952e-05  1.07378e+09
       875.90000  2.52952e-05  1.07378e+09
       876.00000  2.52952e-05  1.07403e+09
       876.10000  2.52952e-05  1.07429e+09
       876.20000  2.52952e-05  1.07454e+09
       876.30000  2.54285e-05  1.08046e+09
       876.40000  2.54285e-05  1.08096e+09
       876.50000  2.19525e-05  9.33640e+08
       876.60000  2.19525e-05  9.34080e+08
       876.70000  2.19525e-05  9.34519e+08
       876.80000  2.19525e-05  9.34958e+08
       876.90000  2.19525e-05  9.35616e+08
       877.00000  2.19525e-05  9.36275e+08
       877.10000  2.19525e-05  9.36933e+08
       877.20000  2.19525e-05  9.37592e+08
       877.30000  2.19525e-05  9.38250e+08
       877.40000  2.19525e-05  9.39129e+08
       877.50000  2.25710e-05  9.66492e+08
       877.60000  2.25710e-05  9.67395e+08
       877.70000  2.25710e-05  9.68297e+08
       877.80000  2.25710e-05  9.69200e+08
       877.90000  2.25710e-05  9.70329e+08
       878.00000  2.25710e-05  9.71457e+08
       878.10000  2.25710e-05  9.70103e+08
       878.20000  2.25710e-05  9.68975e+08
       878.30000  2.25710e-05  9.67846e+08
       878.40000  2.25710e-05  9.66718e+08
       878.50000  2.15594e-05  9.22311e+08
       878.60000  2.15594e-05  9.21448e+08
       878.70000  2.15594e-05  9.20370e+08
       878.80000  2.16561e-05  9.23634e+08
       878.90000  2.16561e-05  9.22768e+08
       879.00000  2.16561e-05  9.21902e+08
       879.10000  2.16561e-05  9.21036e+08
       879.20000  2.16561e-05  9.20386e+08
       879.30000  2.16561e-05  9.19520e+08
       879.40000  2.16561e-05  9.18870e+08
       879.50000  2.06370e-05  8.75010e+08
       879.60000  2.06370e-05  8.74391e+08
       879.70000  2.06370e-05  8.73772e+08
       879.80000  2.06370e-05  8.73359e+08
       879.90000  2.06370e-05  8.72740e+08
       880.00000  2.06370e-05  8.72327e+08
       880.10000  2.06370e-05  8.72121e+08
       880.20000  2.06370e-05  8.71708e+08
       880.30000  2.06370e-05  8.71502e+08
       880.40000  2.06370e-05  8.71089e+08
       880.50000  2.04533e-05  8.63129e+08
       880.60000  2.04533e-05  8.62925e+08
       880.70000  2.04533e-05  8.62720e+08
       880.80000  2.04533e-05  8.62720e+08
       880.90000  2.04533e-05  8.62516e+08
       881.00000  2.04533e-05  8.62311e+08
       881.10000  2.04533e-05  8.62311e+08
       881.20000  2.04533e-05  8.62311e+08
       881.30000  2.05759e-05  8.67480e+08
       881.40000  2.05759e-05  8.67274e+08
       881.50000  1.96034e-05  8.26478e+08
       881.60000  1.96034e-05  8.26478e+08
       881.70000  1.96034e-05  8.26478e+08
       881.80000  1.96034e-05  8.26674e+08
       881.90000  1.96034e-05  8.26674e+08
       882.00000  1.96034e-05  8.26870e+08
       882.10000  1.96034e-05  8.27850e+08
       882.20000  1.96034e-05  8.28634e+08
       882.30000  1.96034e-05  8.29418e+08
       882.40000  1.96034e-05  8.30203e+08
       882.50000  1.86386e-05  7.90091e+08
       882.60000  1.86386e-05  7.90650e+08
       882.70000  1.86386e-05  7.91209e+08
       882.80000  1.86386e-05  7.91768e+08
       882.90000  1.86386e-05  7.92141e+08
       883.00000  1.86386e-05  7.92514e+08
       883.10000  1.86386e-05  7.92886e+08
       883.20000  1.86386e-05  7.93259e+08
       883.30000  1.86386e-05  7.93446e+08
       883.40000  1.86386e-05  7.93632e+08
       883.50000  1.76854e-05  7.53223e+08
       883.60000  1.76854e-05  7.53223e+08
       883.70000  1.76854e-05  7.53223e+08
       883.80000  1.77499e-05  7.55967e+08
       883.90000  1.77499e-05  7.55789e+08
       884.00000  1.77499e-05  7.55612e+08
       884.10000  1.77499e-05  7.54547e+08
       884.20000  1.77499e-05  7.53482e+08
       884.30000  1.77499e-05  7.52417e+08
       884.40000  1.77499e-05  7.51352e+08
       884.50000  1.75782e-05  7.43031e+08
       884.60000  1.75782e-05  7.42152e+08
       884.70000  1.75782e-05  7.41273e+08
       884.80000  1.75782e-05  7.40570e+08
       884.90000  1.75782e-05  7.39691e+08
       885.00000  1.75782e-05  7.38988e+08
       885.10000  1.75782e-05  7.38461e+08
       885.20000  1.75782e-05  7.37758e+08
       885.30000  1.75782e-05  7.37230e+08
       885.40000  1.75782e-05  7.36703e+08
       885.50000  1.74145e-05  7.29494e+08
       885.60000  1.74145e-05  7.28972e+08
       885.70000  1.74145e-05  7.28623e+08
       885.80000  1.74145e-05  7.28449e+08
       885.90000  1.74145e-05  7.28101e+08
       886.00000  1.74145e-05  7.27927e+08
       886.10000  1.74145e-05  7.27753e+08
       886.20000  1.74145e-05  7.27578e+08
       886.30000  1.74586e-05  7.29422e+08
       886.40000  1.74586e-05  7.29422e+08
       886.50000  1.50161e-05  6.27372e+08
       886.60000  1.50161e-05  6.27523e+08
       886.70000  1.50161e-05  6.27673e+08
       886.80000  1.50161e-05  6.27823e+08
       886.90000  1.50161e-05  6.27973e+08
       887.00000  1.50161e-05  6.28273e+08
       887.10000  1.50161e-05  6.28574e+08
       887.20000  1.50161e-05  6.28874e+08
       887.30000  1.50161e-05  6.29174e+08
       887.40000  1.50161e-05  6.29625e+08
       887.50000  1.48704e-05  6.23963e+08
       887.60000  1.48704e-05  6.24557e+08
       887.70000  1.48704e-05  6.25003e+08
       887.80000  1.48704e-05  6.25598e+08
       887.90000  1.48704e-05  6.26342e+08
       888.00000  1.48704e-05  6.26937e+08
       888.10000  1.48704e-05  6.27680e+08
       888.20000  1.48704e-05  6.28275e+08
       888.30000  1.48704e-05  6.29018e+08
       888.40000  1.48704e-05  6.29613e+08
       888.50000  1.32427e-05  5.61228e+08
       888.60000  1.32427e-05  5.61625e+08
       888.70000  1.32427e-05  5.62022e+08
       888.80000  1.32988e-05  5.64799e+08
       888.90000  1.32988e-05  5.65198e+08
       889.00000  1.32988e-05  5.65597e+08
       889.10000  1.32988e-05  5.65863e+08
       889.20000  1.32988e-05  5.66129e+08
       889.30000  1.32988e-05  5.66395e+08
       889.40000  1.32988e-05  5.66528e+08
       889.50000  1.24327e-05  5.29882e+08
       889.60000  1.24327e-05  5.30006e+08
       889.70000  1.24327e-05  5.30130e+08
       889.80000  1.24327e-05  5.30130e+08
       889.90000  1.24327e-05  5.30130e+08
       890.00000  1.24327e-05  5.30130e+08
       890.10000  1.24327e-05  5.29757e+08
       890.20000  1.24327e-05  5.29384e+08
       890.30000  1.24327e-05  5.29011e+08
       890.40000  1.24327e-05  5.28638e+08
       890.50000  1.15802e-05  4.92043e+08
       890.60000  1.15802e-05  4.91696e+08
       890.70000  1.15802e-05  4.91348e+08
       890.80000  1.15802e-05  4.91001e+08
       890.90000  1.15802e-05  4.90653e+08
       891.00000  1.15802e-05  4.90422e+08
       891.10000  1.15802e-05  4.90074e+08
       891.20000  1.15802e-05  4.89843e+08
       891.30000  1.16364e-05  4.91872e+08
       891.40000  1.16364e-05  4.91639e+08
       891.50000  1.15118e-05  4.86145e+08
       891.60000  1.15118e-05  4.85915e+08
       891.70000  1.15118e-05  4.85685e+08
       891.80000  1.15118e-05  4.85455e+08
       891.90000  1.15118e-05  4.85224e+08
       892.00000  1.15118e-05  4.84994e+08
       892.10000  1.15118e-05  4.84764e+08
       892.20000  1.15118e-05  4.84649e+08
       892.30000  1.15118e-05  4.84418e+08
       892.40000  1.15118e-05  4.84303e+08
       892.50000  1.13854e-05  4.78757e+08
       892.60000  1.13854e-05  4.78643e+08
       892.70000  1.13854e-05  4.78530e+08
       892.80000  1.13854e-05  4.78416e+08
       892.90000  1.13854e-05  4.78302e+08
       893.00000  1.13854e-05  4.78188e+08
       893.10000  1.13854e-05  4.78074e+08
       893.20000  1.13854e-05  4.77960e+08
       893.30000  1.13854e-05  4.77846e+08
       893.40000  1.13854e-05  4.77846e+08
       893.50000  1.05591e-05  4.43060e+08
       893.60000  1.05591e-05  4.43060e+08
       893.70000  1.05591e-05  4.42954e+08
       893.80000  1.06511e-05  4.46814e+08
       893.90000  1.06511e-05  4.46814e+08
       894.00000  1.06511e-05  4.46814e+08
       894.10000  1.06511e-05  4.47133e+08
       894.20000  1.06511e-05  4.47346e+08
       894.30000  1.06511e-05  4.47666e+08
       894.40000  1.06511e-05  4.47879e+08
       894.50000  1.05328e-05  4.43218e+08
       894.60000  1.05328e-05  4.43429e+08
       894.70000  1.05328e-05  4.43640e+08
       894.80000  1.05328e-05  4.43850e+08
       894.90000  1.05328e-05  4.44061e+08
       895.00000  1.05328e-05  4.44271e+08
       895.10000  1.05328e-05  4.44377e+08
       895.20000  1.05328e-05  4.44587e+08
       895.30000  1.05328e-05  4.44693e+08
       895.40000  1.05328e-05  4.44798e+08
       895.50000  1.04203e-05  4.40259e+08
       895.60000  1.04203e-05  4.40363e+08
       895.70000  1.04203e-05  4.40467e+08
       895.80000  1.04203e-05  4.40467e+08
       895.90000  1.04203e-05  4.40571e+08
       896.00000  1.04203e-05  4.40675e+08
       896.10000  1.04203e-05  4.40780e+08
       896.20000  1.04203e-05  4.40780e+08
       896.30000  1.04915e-05  4.43895e+08
       896.40000  1.04915e-05  4.43895e+08
       896.50000  9.68176e-06  4.09635e+08
       896.60000  9.68176e-06  4.09635e+08
       896.70000  9.68176e-06  4.09635e+08
       896.80000  9.68176e-06  4.09635e+08
       896.90000  9.68176e-06  4.09635e+08
       897.00000  9.68176e-06  4.09538e+08
       897.10000  9.68176e-06  4.09538e+08
       897.20000  9.68176e-06  4.09442e+08
       897.30000  9.68176e-06  4.09345e+08
       897.40000  9.68176e-06  4.09248e+08
       897.50000  8.19986e-06  3.46444e+08
       897.60000  8.19986e-06  3.46362e+08
       897.70000  8.19986e-06  3.46198e+08
       897.80000  8.19986e-06  3.46116e+08
       897.90000  8.19986e-06  3.45952e+08
       898.00000  8.19986e-06  3.45788e+08
       898.10000  8.19986e-06  3.45542e+08
       898.20000  8.19986e-06  3.45378e+08
       898.30000  8.19986e-06  3.45214e+08
       898.40000  8.19986e-06  3.44968e+08
       898.50000  9.46298e-06  3.97824e+08
       898.60000  9.46298e-06  3.97540e+08
       898.70000  9.46298e-06  3.97256e+08
       898.80000  9.53072e-06  3.99813e+08
       898.90000  9.53072e-06  3.99432e+08
       899.00000  9.53072e-06  3.99146e+08
       899.10000  9.53072e-06  3.98765e+08
       899.20000  9.53072e-06  3.98384e+08
       899.30000  9.53072e-06  3.98003e+08
       899.40000  9.53072e-06  3.97621e+08
       899.50000  1.00943e-05  4.20732e+08
       899.60000  1.00943e-05  4.20227e+08
       899.70000  1.00943e-05  4.19823e+08
       899.80000  1.00943e-05  4.19318e+08
       899.90000  1.00943e-05  4.18814e+08
       900.00000  1.00943e-05  4.18309e+08
       900.10000  1.00943e-05  4.17098e+08
       900.20000  1.00943e-05  4.16088e+08
       900.30000  1.00943e-05  4.14978e+08
       900.40000  1.00943e-05  4.14069e+08
       900.50000  8.66063e-06  3.54480e+08
       900.60000  8.66063e-06  3.53787e+08
       900.70000  8.66063e-06  3.53094e+08
       900.80000  8.66063e-06  3.52574e+08
       900.90000  8.66063e-06  3.52055e+08
       901.00000  8.66063e-06  3.51535e+08
       901.10000  8.66063e-06  3.51189e+08
       901.20000  8.66063e-06  3.50842e+08
       901.30000  8.69591e-06  3.51924e+08
       901.40000  8.69591e-06  3.51750e+08
       901.50000  8.60861e-06  3.48046e+08
       901.60000  8.60861e-06  3.47960e+08
       901.70000  8.60861e-06  3.47874e+08
       901.80000  8.60861e-06  3.47874e+08
       901.90000  8.60861e-06  3.47960e+08
       902.00000  8.60861e-06  3.48132e+08
       902.10000  8.60861e-06  3.49337e+08
       902.20000  8.60861e-06  3.50456e+08
       902.30000  8.60861e-06  3.51575e+08
       902.40000  8.60861e-06  3.52609e+08
       902.50000  8.52123e-06  3.50052e+08
       902.60000  8.52123e-06  3.50990e+08
       902.70000  8.52123e-06  3.51927e+08
       902.80000  8.52123e-06  3.52779e+08
       902.90000  8.52123e-06  3.53631e+08
       903.00000  8.52123e-06  3.54398e+08
       903.10000  8.52123e-06  3.55165e+08
       903.20000  8.52123e-06  3.55847e+08
       903.30000  8.52123e-06  3.56443e+08
       903.40000  8.52123e-06  3.57040e+08
       903.50000  9.73420e-06  4.08447e+08
       903.60000  9.73420e-06  4.09031e+08
       903.70000  9.73420e-06  4.09615e+08
       903.80000  9.78577e-06  4.12176e+08
       903.90000  9.78577e-06  4.12666e+08
       904.00000  9.78577e-06  4.12959e+08
       904.10000  9.78577e-06  4.13253e+08
       904.20000  9.78577e-06  4.13546e+08
       904.30000  9.78577e-06  4.13742e+08
       904.40000  9.78577e-06  4.13840e+08
       904.50000  1.03316e-05  4.37027e+08
       904.60000  1.03316e-05  4.37130e+08
       904.70000  1.03316e-05  4.37130e+08
       904.80000  1.03316e-05  4.37027e+08
       904.90000  1.03316e-05  4.36923e+08
       905.00000  1.03316e-05  4.36717e+08
       905.10000  1.03316e-05  4.36510e+08
       905.20000  1.03316e-05  4.36200e+08
       905.30000  1.03316e-05  4.35890e+08
       905.40000  1.03316e-05  4.35477e+08
       905.50000  9.58623e-06  4.03580e+08
       905.60000  9.58623e-06  4.03101e+08
       905.70000  9.58623e-06  4.02622e+08
       905.80000  9.58623e-06  4.02047e+08
       905.90000  9.58623e-06  4.01376e+08
       906.00000  9.58623e-06  4.00705e+08
       906.10000  9.58623e-06  4.00321e+08
       906.20000  9.58623e-06  4.00033e+08
       906.30000  9.63047e-06  4.01591e+08
       906.40000  9.63047e-06  4.01205e+08
       906.50000  8.89422e-06  3.70266e+08
       906.60000  8.89422e-06  3.70000e+08
       906.70000  8.89422e-06  3.69733e+08
       906.80000  8.89422e-06  3.69466e+08
       906.90000  8.89422e-06  3.69199e+08
       907.00000  8.89422e-06  3.68932e+08
       907.10000  8.89422e-06  3.68665e+08
       907.20000  8.89422e-06  3.68399e+08
       907.30000  8.89422e-06  3.68132e+08
       907.40000  8.89422e-06  3.67865e+08
       907.50000  8.79885e-06  3.63656e+08
       907.60000  8.79885e-06  3.63480e+08
       907.70000  8.79885e-06  3.63217e+08
       907.80000  8.79885e-06  3.62953e+08
       907.90000  8.79885e-06  3.62777e+08
       908.00000  8.79885e-06  3.62513e+08
       908.10000  8.79885e-06  3.62161e+08
       908.20000  8.79885e-06  3.61897e+08
       908.30000  8.79885e-06  3.61545e+08
       908.40000  8.79885e-06  3.61281e+08
       908.50000  8.08521e-06  3.31736e+08
       908.60000  8.08521e-06  3.31494e+08
       908.70000  8.08521e-06  3.31332e+08
       908.80000  8.11301e-06  3.32228e+08
       908.90000  8.11301e-06  3.32066e+08
       909.00000  8.11301e-06  3.31903e+08
       909.10000  8.11301e-06  3.31741e+08
       909.20000  8.11301e-06  3.31579e+08
       909.30000  8.11301e-06  3.31417e+08
       909.40000  8.11301e-06  3.31335e+08
       909.50000  8.02392e-06  3.27616e+08
       909.60000  8.02392e-06  3.27536e+08
       909.70000  8.02392e-06  3.27456e+08
       909.80000  8.02392e-06  3.27376e+08
       909.90000  8.02392e-06  3.27376e+08
       910.00000  8.02392e-06  3.27296e+08
       910.10000  8.02392e-06  3.27296e+08
       910.20000  8.02392e-06  3.27296e+08
       910.30000  8.02392e-06  3.27376e+08
       910.40000  8.02392e-06  3.27376e+08
       910.50000  8.54892e-06  3.48881e+08
       910.60000  8.54892e-06  3.48881e+08
       910.70000  8.54892e-06  3.48967e+08
       910.80000  8.54892e-06  3.49138e+08
       910.90000  8.54892e-06  3.49223e+08
       911.00000  8.54892e-06  3.49309e+08
       911.10000  8.54892e-06  3.49480e+08
       911.20000  8.54892e-06  3.49651e+08
       911.30000  8.55684e-06  3.50146e+08
       911.40000  8.55684e-06  3.50317e+08
       911.50000  9.06306e-06  3.71314e+08
       911.60000  9.06306e-06  3.71495e+08
       911.70000  9.06306e-06  3.71767e+08
       911.80000  9.06306e-06  3.72039e+08
       911.90000  9.06306e-06  3.72310e+08
       912.00000  9.06306e-06  3.72673e+08
       912.10000  9.06306e-06  3.73126e+08
       912.20000  9.06306e-06  3.73489e+08
       912.30000  9.06306e-06  3.73851e+08
       912.40000  9.06306e-06  3.74214e+08
       912.50000  9.56014e-06  3.95121e+08
       912.60000  9.56014e-06  3.95503e+08
       912.70000  9.56014e-06  3.95886e+08
       912.80000  9.56014e-06  3.96172e+08
       912.90000  9.56014e-06  3.96459e+08
       913.00000  9.56014e-06  3.96746e+08
       913.10000  9.56014e-06  3.97033e+08
       913.20000  9.56014e-06  3.97224e+08
       913.30000  9.56014e-06  3.97511e+08
       913.40000  9.56014e-06  3.97702e+08
       913.50000  7.68005e-06  3.19644e+08
       913.60000  7.68005e-06  3.19797e+08
       913.70000  7.68005e-06  3.19874e+08
       913.80000  7.72102e-06  3.21658e+08
       913.90000  7.72102e-06  3.21812e+08
       914.00000  7.72102e-06  3.21889e+08
       914.10000  7.72102e-06  3.21735e+08
       914.20000  7.72102e-06  3.21658e+08
       914.30000  7.72102e-06  3.21580e+08
       914.40000  7.72102e-06  3.21503e+08
       914.50000  7.63614e-06  3.17893e+08
       914.60000  7.63614e-06  3.17740e+08
       914.70000  7.63614e-06  3.17664e+08
       914.80000  7.63614e-06  3.17587e+08
       914.90000  7.63614e-06  3.17511e+08
       915.00000  7.63614e-06  3.17434e+08
       915.10000  7.63614e-06  3.17358e+08
       915.20000  7.63614e-06  3.17282e+08
       915.30000  7.63614e-06  3.17205e+08
       915.40000  7.63614e-06  3.17129e+08
       915.50000  8.70528e-06  3.61443e+08
       915.60000  8.70528e-06  3.61356e+08
       915.70000  8.70528e-06  3.61269e+08
       915.80000  8.70528e-06  3.61182e+08
       915.90000  8.70528e-06  3.61095e+08
       916.00000  8.70528e-06  3.61008e+08
       916.10000  8.70528e-06  3.60921e+08
       916.20000  8.70528e-06  3.60834e+08
       916.30000  8.76739e-06  3.63320e+08
       916.40000  8.76739e-06  3.63233e+08
       916.50000  8.08761e-06  3.34989e+08
       916.60000  8.08761e-06  3.34989e+08
       916.70000  8.08761e-06  3.34908e+08
       916.80000  8.08761e-06  3.34827e+08
       916.90000  8.08761e-06  3.34746e+08
       917.00000  8.08761e-06  3.34665e+08
       917.10000  8.08761e-06  3.34665e+08
       917.20000  8.08761e-06  3.34585e+08
       917.30000  8.08761e-06  3.34504e+08
       917.40000  8.08761e-06  3.34423e+08
       917.50000  8.56198e-06  3.54038e+08
       917.60000  8.56198e-06  3.53952e+08
       917.70000  8.56198e-06  3.53867e+08
       917.80000  8.56198e-06  3.53867e+08
       917.90000  8.56198e-06  3.53781e+08
       918.00000  8.56198e-06  3.53696e+08
       918.10000  8.56198e-06  3.53867e+08
       918.20000  8.56198e-06  3.54038e+08
       918.30000  8.56198e-06  3.54209e+08
       918.40000  8.56198e-06  3.54295e+08
       918.50000  7.89655e-06  3.26838e+08
       918.60000  7.89655e-06  3.26917e+08
       918.70000  7.89655e-06  3.26917e+08
       918.80000  7.97003e-06  3.29959e+08
       918.90000  7.97003e-06  3.29959e+08
       919.00000  7.97003e-06  3.29959e+08
       919.10000  7.97003e-06  3.29880e+08
       919.20000  7.97003e-06  3.29800e+08
       919.30000  7.97003e-06  3.29720e+08
       919.40000  7.97003e-06  3.29561e+08
       919.50000  7.30853e-06  3.02062e+08
       919.60000  7.30853e-06  3.01915e+08
       919.70000  7.30853e-06  3.01769e+08
       919.80000  7.30853e-06  3.01550e+08
       919.90000  7.30853e-06  3.01404e+08
       920.00000  7.30853e-06  3.01185e+08
       920.10000  7.30853e-06  3.00527e+08
       920.20000  7.30853e-06  2.99942e+08
       920.30000  7.30853e-06  2.99357e+08
       920.40000  7.30853e-06  2.98773e+08
       920.50000  7.77373e-06  3.17168e+08
       920.60000  7.77373e-06  3.16624e+08
       920.70000  7.77373e-06  3.16080e+08
       920.80000  7.77373e-06  3.15613e+08
       920.90000  7.77373e-06  3.15069e+08
       921.00000  7.77373e-06  3.14603e+08
       921.10000  7.77373e-06  3.14136e+08
       921.20000  7.77373e-06  3.13748e+08
       921.30000  7.80587e-06  3.14576e+08
       921.40000  7.80587e-06  3.14186e+08
       921.50000  8.25946e-06  3.32030e+08
       921.60000  8.25946e-06  3.31700e+08
       921.70000  8.25946e-06  3.31370e+08
       921.80000  8.25946e-06  3.31039e+08
       921.90000  8.25946e-06  3.30709e+08
       922.00000  8.25946e-06  3.30461e+08
       922.10000  8.25946e-06  3.30131e+08
       922.20000  8.25946e-06  3.29966e+08
       922.30000  8.25946e-06  3.29718e+08
       922.40000  8.25946e-06  3.29553e+08
       922.50000  7.61303e-06  3.03532e+08
       922.60000  7.61303e-06  3.03455e+08
       922.70000  7.61303e-06  3.03303e+08
       922.80000  7.61303e-06  3.03227e+08
       922.90000  7.61303e-06  3.03151e+08
       923.00000  7.61303e-06  3.03075e+08
       923.10000  7.61303e-06  3.03075e+08
       923.20000  7.61303e-06  3.02999e+08
       923.30000  7.61303e-06  3.02999e+08
       923.40000  7.61303e-06  3.03075e+08
       923.50000  7.51540e-06  2.99188e+08
       923.60000  7.51540e-06  2.99263e+08
       923.70000  7.51540e-06  2.99339e+08
       923.80000  7.53244e-06  3.00168e+08
       923.90000  7.53244e-06  3.00243e+08
       924.00000  7.53244e-06  3.00394e+08
       924.10000  7.53244e-06  3.00394e+08
       924.20000  7.53244e-06  3.00394e+08
       924.30000  7.53244e-06  3.00394e+08
       924.40000  7.53244e-06  3.00394e+08
       924.50000  6.90302e-06  2.75293e+08
       924.60000  6.90302e-06  2.75293e+08
       924.70000  6.90302e-06  2.75362e+08
       924.80000  6.90302e-06  2.75431e+08
       924.90000  6.90302e-06  2.75431e+08
       925.00000  6.90302e-06  2.75500e+08
       925.10000  6.90302e-06  2.75638e+08
       925.20000  6.90302e-06  2.75707e+08
       925.30000  6.90302e-06  2.75776e+08
       925.40000  6.90302e-06  2.75914e+08
       925.50000  6.28651e-06  2.51398e+08
       925.60000  6.28651e-06  2.51523e+08
       925.70000  6.28651e-06  2.51649e+08
       925.80000  6.28651e-06  2.51775e+08
       925.90000  6.28651e-06  2.51901e+08
       926.00000  6.28651e-06  2.52089e+08
       926.10000  6.28651e-06  2.52466e+08
       926.20000  6.28651e-06  2.52906e+08
       926.30000  6.31259e-06  2.54334e+08
       926.40000  6.31259e-06  2.54713e+08
       926.50000  5.71054e-06  2.30763e+08
       926.60000  5.71054e-06  2.31049e+08
       926.70000  5.71054e-06  2.31334e+08
       926.80000  5.71054e-06  2.31620e+08
       926.90000  5.71054e-06  2.31905e+08
       927.00000  5.71054e-06  2.32134e+08
       927.10000  5.71054e-06  2.32362e+08
       927.20000  5.71054e-06  2.32590e+08
       927.30000  5.71054e-06  2.32762e+08
       927.40000  5.71054e-06  2.32933e+08
       927.50000  6.14574e-06  2.50869e+08
       927.60000  6.14574e-06  2.50992e+08
       927.70000  6.14574e-06  2.51176e+08
       927.80000  6.14574e-06  2.51299e+08
       927.90000  6.14574e-06  2.51361e+08
       928.00000  6.14574e-06  2.51422e+08
       928.10000  6.14574e-06  2.51299e+08
       928.20000  6.14574e-06  2.51176e+08
       928.30000  6.14574e-06  2.50992e+08
       928.40000  6.14574e-06  2.50869e+08
       928.50000  6.56539e-06  2.67868e+08
       928.60000  6.56539e-06  2.67737e+08
       928.70000  6.56539e-06  2.67605e+08
       928.80000  6.59590e-06  2.68717e+08
       928.90000  6.59590e-06  2.68585e+08
       929.00000  6.59590e-06  2.68519e+08
       929.10000  6.59590e-06  2.68387e+08
       929.20000  6.59590e-06  2.68255e+08
       929.30000  6.59590e-06  2.68189e+08
       929.40000  6.59590e-06  2.68057e+08
       929.50000  6.50576e-06  2.64329e+08
       929.60000  6.50576e-06  2.64264e+08
       929.70000  6.50576e-06  2.64134e+08
       929.80000  6.50576e-06  2.64069e+08
       929.90000  6.50576e-06  2.64004e+08
       930.00000  6.50576e-06  2.63939e+08
       930.10000  6.50576e-06  2.63939e+08
       930.20000  6.50576e-06  2.63939e+08
       930.30000  6.50576e-06  2.63874e+08
       930.40000  6.50576e-06  2.63874e+08
       930.50000  5.92006e-06  2.40118e+08
       930.60000  5.92006e-06  2.40118e+08
       930.70000  5.92006e-06  2.40058e+08
       930.80000  5.92006e-06  2.40058e+08
       930.90000  5.92006e-06  2.40058e+08
       931.00000  5.92006e-06  2.40058e+08
       931.10000  5.92006e-06  2.40058e+08
       931.20000  5.92006e-06  2.39999e+08
       931.30000  5.94674e-06  2.41081e+08
       931.40000  5.94674e-06  2.41081e+08
       931.50000  6.83848e-06  2.77232e+08
       931.60000  6.83848e-06  2.77232e+08
       931.70000  6.83848e-06  2.77232e+08
       931.80000  6.83848e-06  2.77232e+08
       931.90000  6.83848e-06  2.77232e+08
       932.00000  6.83848e-06  2.77232e+08
       932.10000  6.83848e-06  2.77232e+08
       932.20000  6.83848e-06  2.77232e+08
       932.30000  6.83848e-06  2.77232e+08
       932.40000  6.83848e-06  2.77232e+08
       932.50000  6.25746e-06  2.53677e+08
       932.60000  6.25746e-06  2.53677e+08
       932.70000  6.25746e-06  2.53677e+08
       932.80000  6.25746e-06  2.53740e+08
       932.90000  6.25746e-06  2.53740e+08
       933.00000  6.25746e-06  2.53740e+08
       933.10000  6.25746e-06  2.53740e+08
       933.20000  6.25746e-06  2.53740e+08
       933.30000  6.25746e-06  2.53803e+08
       933.40000  6.25746e-06  2.53803e+08
       933.50000  7.11307e-06  2.88506e+08
       933.60000  7.11307e-06  2.88577e+08
       933.70000  7.11307e-06  2.88577e+08
       933.80000  7.13988e-06  2.89665e+08
       933.90000  7.13988e-06  2.89736e+08
       934.00000  7.13988e-06  2.89736e+08
       934.10000  7.13988e-06  2.89522e+08
       934.20000  7.13988e-06  2.89308e+08
       934.30000  7.13988e-06  2.89094e+08
       934.40000  7.13988e-06  2.88880e+08
       934.50000  6.09455e-06  2.46403e+08
       934.60000  6.09455e-06  2.46281e+08
       934.70000  6.09455e-06  2.46159e+08
       934.80000  6.09455e-06  2.45976e+08
       934.90000  6.09455e-06  2.45854e+08
       935.00000  6.09455e-06  2.45793e+08
       935.10000  6.09455e-06  2.45671e+08
       935.20000  6.09455e-06  2.45550e+08
       935.30000  6.09455e-06  2.45489e+08
       935.40000  6.09455e-06  2.45428e+08
       935.50000  6.00224e-06  2.41650e+08
       935.60000  6.00224e-06  2.41590e+08
       935.70000  6.00224e-06  2.41530e+08
       935.80000  6.00224e-06  2.41470e+08
       935.90000  6.00224e-06  2.41470e+08
       936.00000  6.00224e-06  2.41410e+08
       936.10000  6.00224e-06  2.41590e+08
       936.20000  6.00224e-06  2.41770e+08
       936.30000  6.02312e-06  2.42792e+08
       936.40000  6.02312e-06  2.42973e+08
       936.50000  5.47415e-06  2.20937e+08
       936.60000  5.47415e-06  2.21046e+08
       936.70000  5.47415e-06  2.21156e+08
       936.80000  5.47415e-06  2.21265e+08
       936.90000  5.47415e-06  2.21320e+08
       937.00000  5.47415e-06  2.21429e+08
       937.10000  5.47415e-06  2.21484e+08
       937.20000  5.47415e-06  2.21539e+08
       937.30000  5.47415e-06  2.21539e+08
       937.40000  5.47415e-06  2.21594e+08
       937.50000  5.83680e-06  2.36274e+08
       937.60000  5.83680e-06  2.36274e+08
       937.70000  5.83680e-06  2.36274e+08
       937.80000  5.83680e-06  2.36274e+08
       937.90000  5.83680e-06  2.36215e+08
       938.00000  5.83680e-06  2.36215e+08
       938.10000  5.83680e-06  2.36157e+08
       938.20000  5.83680e-06  2.36040e+08
       938.30000  5.83680e-06  2.35982e+08
       938.40000  5.83680e-06  2.35865e+08
       938.50000  6.18661e-06  2.49939e+08
       938.60000  6.18661e-06  2.49815e+08
       938.70000  6.18661e-06  2.49630e+08
       938.80000  6.20397e-06  2.50206e+08
       938.90000  6.20397e-06  2.50020e+08
       939.00000  6.20397e-06  2.49896e+08
       939.10000  6.20397e-06  2.49710e+08
       939.20000  6.20397e-06  2.49462e+08
       939.30000  6.20397e-06  2.49275e+08
       939.40000  6.20397e-06  2.49027e+08
       939.50000  5.66678e-06  2.27238e+08
       939.60000  5.66678e-06  2.27011e+08
       939.70000  5.66678e-06  2.26785e+08
       939.80000  5.66678e-06  2.26558e+08
       939.90000  5.66678e-06  2.26275e+08
       940.00000  5.66678e-06  2.25991e+08
       940.10000  5.66678e-06  2.25595e+08
       940.20000  5.66678e-06  2.25198e+08
       940.30000  5.66678e-06  2.24858e+08
       940.40000  5.66678e-06  2.24518e+08
       940.50000  5.57228e-06  2.20439e+08
       940.60000  5.57228e-06  2.20161e+08
       940.70000  5.57228e-06  2.19882e+08
       940.80000  5.57228e-06  2.19604e+08
       940.90000  5.57228e-06  2.19325e+08
       941.00000  5.57228e-06  2.19102e+08
       941.10000  5.57228e-06  2.18879e+08
       941.20000  5.57228e-06  2.18712e+08
       941.30000  5.57945e-06  2.18826e+08
       941.40000  5.57945e-06  2.18659e+08
       941.50000  5.48526e-06  2.14803e+08
       941.60000  5.48526e-06  2.14693e+08
       941.70000  5.48526e-06  2.14583e+08
       941.80000  5.48526e-06  2.14474e+08
       941.90000  5.48526e-06  2.14364e+08
       942.00000  5.48526e-06  2.14309e+08
       942.10000  5.48526e-06  2.14474e+08
       942.20000  5.48526e-06  2.14583e+08
       942.30000  5.48526e-06  2.14748e+08
       942.40000  5.48526e-06  2.14858e+08
       942.50000  5.39343e-06  2.11369e+08
       942.60000  5.39343e-06  2.11531e+08
       942.70000  5.39343e-06  2.11638e+08
       942.80000  5.39343e-06  2.11746e+08
       942.90000  5.39343e-06  2.11854e+08
       943.00000  5.39343e-06  2.11962e+08
       943.10000  5.39343e-06  2.12124e+08
       943.20000  5.39343e-06  2.12232e+08
       943.30000  5.39343e-06  2.12340e+08
       943.40000  5.39343e-06  2.12447e+08
       943.50000  5.29855e-06  2.08816e+08
       943.60000  5.29855e-06  2.08922e+08
       943.70000  5.29855e-06  2.09028e+08
       943.80000  5.29773e-06  2.09101e+08
       943.90000  5.29773e-06  2.09207e+08
       944.00000  5.29773e-06  2.09313e+08
       944.10000  5.29773e-06  2.09419e+08
       944.20000  5.29773e-06  2.09525e+08
       944.30000  5.29773e-06  2.09578e+08
       944.40000  5.29773e-06  2.09684e+08
       944.50000  5.60440e-06  2.21934e+08
       944.60000  5.60440e-06  2.22046e+08
       944.70000  5.60440e-06  2.22102e+08
       944.80000  5.60440e-06  2.22214e+08
       944.90000  5.60440e-06  2.22327e+08
       945.00000  5.60440e-06  2.22383e+08
       945.10000  5.60440e-06  2.22495e+08
       945.20000  5.60440e-06  2.22607e+08
       945.30000  5.60440e-06  2.22663e+08
       945.40000  5.60440e-06  2.22775e+08
       945.50000  5.89572e-06  2.34414e+08
       945.60000  5.89572e-06  2.34532e+08
       945.70000  5.89572e-06  2.34591e+08
       945.80000  5.89572e-06  2.34709e+08
       945.90000  5.89572e-06  2.34768e+08
       946.00000  5.89572e-06  2.34827e+08
       946.10000  5.89572e-06  2.34944e+08
       946.20000  5.89572e-06  2.35062e+08
       946.30000  5.89748e-06  2.35250e+08
       946.40000  5.89748e-06  2.35368e+08
       946.50000  5.01715e-06  2.00335e+08
       946.60000  5.01715e-06  2.00385e+08
       946.70000  5.01715e-06  2.00485e+08
       946.80000  5.01715e-06  2.00535e+08
       946.90000  5.01715e-06  2.00586e+08
       947.00000  5.01715e-06  2.00686e+08
       947.10000  5.01715e-06  2.00736e+08
       947.20000  5.01715e-06  2.00786e+08
       947.30000  5.01715e-06  2.00836e+08
       947.40000  5.01715e-06  2.00887e+08
       947.50000  5.30311e-06  2.12337e+08
       947.60000  5.30311e-06  2.12390e+08
       947.70000  5.30311e-06  2.12443e+08
       947.80000  5.30311e-06  2.12443e+08
       947.90000  5.30311e-06  2.12496e+08
       948.00000  5.30311e-06  2.12496e+08
       948.10000  5.30311e-06  2.12496e+08
       948.20000  5.30311e-06  2.12496e+08
       948.30000  5.30311e-06  2.12443e+08
       948.40000  5.30311e-06  2.12443e+08
       948.50000  5.20038e-06  2.08275e+08
       948.60000  5.20038e-06  2.08275e+08
       948.70000  5.20038e-06  2.08275e+08
       948.80000  5.21653e-06  2.08870e+08
       948.90000  5.21653e-06  2.08870e+08
       949.00000  5.21653e-06  2.08818e+08
       949.10000  5.21653e-06  2.08818e+08
       949.20000  5.21653e-06  2.08765e+08
       949.30000  5.21653e-06  2.08765e+08
       949.40000  5.21653e-06  2.08713e+08
       949.50000  4.75044e-06  1.90065e+08
       949.60000  4.75044e-06  1.90018e+08
       949.70000  4.75044e-06  1.89970e+08
       949.80000  4.75044e-06  1.89970e+08
       949.90000  4.75044e-06  1.89923e+08
       950.00000  4.75044e-06  1.89875e+08
       950.10000  4.75044e-06  1.89875e+08
       950.20000  4.75044e-06  1.89828e+08
       950.30000  4.75044e-06  1.89780e+08
       950.40000  4.75044e-06  1.89780e+08
       950.50000  5.05167e-06  2.01764e+08
       950.60000  5.05167e-06  2.01713e+08
       950.70000  5.05167e-06  2.01663e+08
       950.80000  5.05167e-06  2.01663e+08
       950.90000  5.05167e-06  2.01612e+08
       951.00000  5.05167e-06  2.01562e+08
       951.10000  5.05167e-06  2.01511e+08
       951.20000  5.05167e-06  2.01460e+08
       951.30000  5.04685e-06  2.01268e+08
       951.40000  5.04685e-06  2.01218e+08
       951.50000  4.63046e-06  1.84570e+08
       951.60000  4.63046e-06  1.84524e+08
       951.70000  4.63046e-06  1.84478e+08
       951.80000  4.63046e-06  1.84431e+08
       951.90000  4.63046e-06  1.84385e+08
       952.00000  4.63046e-06  1.84339e+08
       952.10000  4.63046e-06  1.83968e+08
       952.20000  4.63046e-06  1.83598e+08
       952.30000  4.63046e-06  1.83274e+08
       952.40000  4.63046e-06  1.82950e+08
       952.50000  4.57675e-06  1.80507e+08
       952.60000  4.57675e-06  1.80187e+08
       952.70000  4.57675e-06  1.79912e+08
       952.80000  4.57675e-06  1.79637e+08
       952.90000  4.57675e-06  1.79363e+08
       953.00000  4.57675e-06  1.79134e+08
       953.10000  4.57675e-06  1.78905e+08
       953.20000  4.57675e-06  1.78676e+08
       953.30000  4.57675e-06  1.78493e+08
       953.40000  4.57675e-06  1.78264e+08
       953.50000  4.52138e-06  1.75927e+08
       953.60000  4.52138e-06  1.75791e+08
       953.70000  4.52138e-06  1.75610e+08
       953.80000  4.53102e-06  1.75849e+08
       953.90000  4.53102e-06  1.75713e+08
       954.00000  4.53102e-06  1.75622e+08
       954.10000  4.53102e-06  1.75577e+08
       954.20000  4.53102e-06  1.75532e+08
       954.30000  4.53102e-06  1.75532e+08
       954.40000  4.53102e-06  1.75532e+08
       954.50000  4.47495e-06  1.73315e+08
       954.60000  4.47495e-06  1.73315e+08
       954.70000  4.47495e-06  1.73315e+08
       954.80000  4.47495e-06  1.73315e+08
       954.90000  4.47495e-06  1.73360e+08
       955.00000  4.47495e-06  1.73360e+08
       955.10000  4.47495e-06  1.73404e+08
       955.20000  4.47495e-06  1.73404e+08
       955.30000  4.47495e-06  1.73449e+08
       955.40000  4.47495e-06  1.73494e+08
       955.50000  4.41950e-06  1.71388e+08
       955.60000  4.41950e-06  1.71432e+08
       955.70000  4.41950e-06  1.71476e+08
       955.80000  4.41950e-06  1.71565e+08
       955.90000  4.41950e-06  1.71609e+08
       956.00000  4.41950e-06  1.71697e+08
       956.10000  4.41950e-06  1.71786e+08
       956.20000  4.41950e-06  1.71830e+08
       956.30000  4.43450e-06  1.72502e+08
       956.40000  4.43450e-06  1.72635e+08
       956.50000  4.04204e-06  1.57438e+08
       956.60000  4.04204e-06  1.57518e+08
       956.70000  4.04204e-06  1.57640e+08
       956.80000  4.04204e-06  1.57720e+08
       956.90000  4.04204e-06  1.57842e+08
       957.00000  4.04204e-06  1.57963e+08
       957.10000  4.04204e-06  1.58084e+08
       957.20000  4.04204e-06  1.58205e+08
       957.30000  4.04204e-06  1.58367e+08
       957.40000  4.04204e-06  1.58488e+08
       957.50000  4.65560e-06  1.82686e+08
       957.60000  4.65560e-06  1.82872e+08
       957.70000  4.65560e-06  1.83058e+08
       957.80000  4.65560e-06  1.83244e+08
       957.90000  4.65560e-06  1.83431e+08
       958.00000  4.65560e-06  1.83617e+08
       958.10000  4.65560e-06  1.83617e+08
       958.20000  4.65560e-06  1.83570e+08
       958.30000  4.65560e-06  1.83570e+08
       958.40000  4.65560e-06  1.83570e+08
       958.50000  4.59629e-06  1.81232e+08
       958.60000  4.59629e-06  1.81186e+08
       958.70000  4.59629e-06  1.81186e+08
       958.80000  4.60104e-06  1.81373e+08
       958.90000  4.60104e-06  1.81327e+08
       959.00000  4.60104e-06  1.81327e+08
       959.10000  4.60104e-06  1.81281e+08
       959.20000  4.60104e-06  1.81281e+08
       959.30000  4.60104e-06  1.81235e+08
       959.40000  4.60104e-06  1.81189e+08
       959.50000  4.54087e-06  1.78819e+08
       959.60000  4.54087e-06  1.78774e+08
       959.70000  4.54087e-06  1.78774e+08
       959.80000  4.54087e-06  1.78729e+08
       959.90000  4.54087e-06  1.78683e+08
       960.00000  4.54087e-06  1.78638e+08
       960.10000  4.54087e-06  1.78592e+08
       960.20000  4.54087e-06  1.78547e+08
       960.30000  4.54087e-06  1.78502e+08
       960.40000  4.54087e-06  1.78456e+08
       960.50000  4.16159e-06  1.63509e+08
       960.60000  4.16159e-06  1.63467e+08
       960.70000  4.16159e-06  1.63426e+08
       960.80000  4.16159e-06  1.63384e+08
       960.90000  4.16159e-06  1.63343e+08
       961.00000  4.16159e-06  1.63301e+08
       961.10000  4.16159e-06  1.63259e+08
       961.20000  4.16159e-06  1.63218e+08
       961.30000  4.16976e-06  1.63496e+08
       961.40000  4.16976e-06  1.63455e+08
       961.50000  4.11379e-06  1.61219e+08
       961.60000  4.11379e-06  1.61137e+08
       961.70000  4.11379e-06  1.61096e+08
       961.80000  4.11379e-06  1.61055e+08
       961.90000  4.11379e-06  1.61014e+08
       962.00000  4.11379e-06  1.60972e+08
       962.10000  4.11379e-06  1.60890e+08
       962.20000  4.11379e-06  1.60849e+08
       962.30000  4.11379e-06  1.60808e+08
       962.40000  4.11379e-06  1.60726e+08
       962.50000  3.74562e-06  1.46304e+08
       962.60000  3.74562e-06  1.46266e+08
       962.70000  3.74562e-06  1.46191e+08
       962.80000  3.74562e-06  1.46154e+08
       962.90000  3.74562e-06  1.46079e+08
       963.00000  3.74562e-06  1.46042e+08
       963.10000  3.74562e-06  1.46004e+08
       963.20000  3.74562e-06  1.45929e+08
       963.30000  3.74562e-06  1.45892e+08
       963.40000  3.74562e-06  1.45817e+08
       963.50000  4.00179e-06  1.55750e+08
       963.60000  4.00179e-06  1.55670e+08
       963.70000  4.00179e-06  1.55630e+08
       963.80000  4.01024e-06  1.55878e+08
       963.90000  4.01024e-06  1.55798e+08
       964.00000  4.01024e-06  1.55758e+08
       964.10000  4.01024e-06  1.55678e+08
       964.20000  4.01024e-06  1.55557e+08
       964.30000  4.01024e-06  1.55477e+08
       964.40000  4.01024e-06  1.55437e+08
       964.50000  3.95480e-06  1.53209e+08
       964.60000  3.95480e-06  1.53130e+08
       964.70000  3.95480e-06  1.53090e+08
       964.80000  3.95480e-06  1.53011e+08
       964.90000  3.95480e-06  1.52972e+08
       965.00000  3.95480e-06  1.52893e+08
       965.10000  3.95480e-06  1.52853e+08
       965.20000  3.95480e-06  1.52814e+08
       965.30000  3.95480e-06  1.52774e+08
       965.40000  3.95480e-06  1.52774e+08
       965.50000  3.89836e-06  1.50554e+08
       965.60000  3.89836e-06  1.50515e+08
       965.70000  3.89836e-06  1.50515e+08
       965.80000  3.89836e-06  1.50477e+08
       965.90000  3.89836e-06  1.50477e+08
       966.00000  3.89836e-06  1.50477e+08
       966.10000  3.89836e-06  1.50515e+08
       966.20000  3.89836e-06  1.50554e+08
       966.30000  3.91114e-06  1.51126e+08
       966.40000  3.91114e-06  1.51166e+08
       966.50000  3.85486e-06  1.49029e+08
       966.60000  3.85486e-06  1.49068e+08
       966.70000  3.85486e-06  1.49106e+08
       966.80000  3.85486e-06  1.49145e+08
       966.90000  3.85486e-06  1.49183e+08
       967.00000  3.85486e-06  1.49222e+08
       967.10000  3.85486e-06  1.49260e+08
       967.20000  3.85486e-06  1.49299e+08
       967.30000  3.85486e-06  1.49337e+08
       967.40000  3.85486e-06  1.49376e+08
       967.50000  4.09059e-06  1.58510e+08
       967.60000  4.09059e-06  1.58551e+08
       967.70000  4.09059e-06  1.58592e+08
       967.80000  4.09059e-06  1.58592e+08
       967.90000  4.09059e-06  1.58633e+08
       968.00000  4.09059e-06  1.58674e+08
       968.10000  4.09059e-06  1.58674e+08
       968.20000  4.09059e-06  1.58715e+08
       968.30000  4.09059e-06  1.58715e+08
       968.40000  4.09059e-06  1.58715e+08
       968.50000  4.60513e-06  1.78725e+08
       968.60000  4.60513e-06  1.78725e+08
       968.70000  4.60513e-06  1.78725e+08
       968.80000  4.61601e-06  1.79193e+08
       968.90000  4.61601e-06  1.79193e+08
       969.00000  4.61601e-06  1.79193e+08
       969.10000  4.61601e-06  1.79193e+08
       969.20000  4.61601e-06  1.79193e+08
       969.30000  4.61601e-06  1.79193e+08
       969.40000  4.61601e-06  1.79193e+08
       969.50000  3.69482e-06  1.43433e+08
       969.60000  3.69482e-06  1.43433e+08
       969.70000  3.69482e-06  1.43433e+08
       969.80000  3.69482e-06  1.43433e+08
       969.90000  3.69482e-06  1.43433e+08
       970.00000  3.69482e-06  1.43433e+08
       970.10000  3.69482e-06  1.43470e+08
       970.20000  3.69482e-06  1.43507e+08
       970.30000  3.69482e-06  1.43507e+08
       970.40000  3.69482e-06  1.43544e+08
       970.50000  3.91821e-06  1.52222e+08
       970.60000  3.91821e-06  1.52261e+08
       970.70000  3.91821e-06  1.52261e+08
       970.80000  3.91821e-06  1.52261e+08
       970.90000  3.91821e-06  1.52261e+08
       971.00000  3.91821e-06  1.52261e+08
       971.10000  3.91821e-06  1.52261e+08
       971.20000  3.91821e-06  1.52222e+08
       971.30000  3.92455e-06  1.52469e+08
       971.40000  3.92455e-06  1.52430e+08
       971.50000  3.58764e-06  1.39344e+08
       971.60000  3.58764e-06  1.39308e+08
       971.70000  3.58764e-06  1.39272e+08
       971.80000  3.58764e-06  1.39236e+08
       971.90000  3.58764e-06  1.39200e+08
       972.00000  3.58764e-06  1.39129e+08
       972.10000  3.58764e-06  1.38985e+08
       972.20000  3.58764e-06  1.38842e+08
       972.30000  3.58764e-06  1.38734e+08
       972.40000  3.58764e-06  1.38590e+08
       972.50000  2.98783e-06  1.15330e+08
       972.60000  2.98783e-06  1.15211e+08
       972.70000  2.98783e-06  1.15121e+08
       972.80000  2.98783e-06  1.15031e+08
       972.90000  2.98783e-06  1.14942e+08
       973.00000  2.98783e-06  1.14882e+08
       973.10000  2.98783e-06  1.14792e+08
       973.20000  2.98783e-06  1.14733e+08
       973.30000  2.98783e-06  1.14673e+08
       973.40000  2.98783e-06  1.14613e+08
       973.50000  3.74181e-06  1.43461e+08
       973.60000  3.74181e-06  1.43386e+08
       973.70000  3.74181e-06  1.43349e+08
       973.80000  3.74384e-06  1.43352e+08
       973.90000  3.74384e-06  1.43314e+08
       974.00000  3.74384e-06  1.43277e+08
       974.10000  3.74384e-06  1.43314e+08
       974.20000  3.74384e-06  1.43389e+08
       974.30000  3.74384e-06  1.43426e+08
       974.40000  3.74384e-06  1.43464e+08
       974.50000  3.41975e-06  1.31079e+08
       974.60000  3.41975e-06  1.31113e+08
       974.70000  3.41975e-06  1.31147e+08
       974.80000  3.41975e-06  1.31182e+08
       974.90000  3.41975e-06  1.31182e+08
       975.00000  3.41975e-06  1.31216e+08
       975.10000  3.41975e-06  1.31250e+08
       975.20000  3.41975e-06  1.31250e+08
       975.30000  3.41975e-06  1.31284e+08
       975.40000  3.41975e-06  1.31284e+08
       975.50000  2.84584e-06  1.09252e+08
       975.60000  2.84584e-06  1.09280e+08
       975.70000  2.84584e-06  1.09280e+08
       975.80000  2.84584e-06  1.09280e+08
       975.90000  2.84584e-06  1.09280e+08
       976.00000  2.84584e-06  1.09280e+08
       976.10000  2.84584e-06  1.09252e+08
       976.20000  2.84584e-06  1.09223e+08
       976.30000  2.84393e-06  1.09122e+08
       976.40000  2.84393e-06  1.09093e+08
       976.50000  3.30401e-06  1.26742e+08
       976.60000  3.30401e-06  1.26709e+08
       976.70000  3.30401e-06  1.26676e+08
       976.80000  3.30401e-06  1.26643e+08
       976.90000  3.30401e-06  1.26643e+08
       977.00000  3.30401e-06  1.26610e+08
       977.10000  3.30401e-06  1.26577e+08
       977.20000  3.30401e-06  1.26544e+08
       977.30000  3.30401e-06  1.26544e+08
       977.40000  3.30401e-06  1.26510e+08
       977.50000  3.49835e-06  1.33917e+08
       977.60000  3.49835e-06  1.33917e+08
       977.70000  3.49835e-06  1.33882e+08
       977.80000  3.49835e-06  1.33847e+08
       977.90000  3.49835e-06  1.33847e+08
       978.00000  3.49835e-06  1.33812e+08
       978.10000  3.49835e-06  1.33812e+08
       978.20000  3.49835e-06  1.33777e+08
       978.30000  3.49835e-06  1.33777e+08
       978.40000  3.49835e-06  1.33742e+08
       978.50000  3.43645e-06  1.31341e+08
       978.60000  3.43645e-06  1.31341e+08
       978.70000  3.43645e-06  1.31341e+08
       978.80000  3.43588e-06  1.31285e+08
       978.90000  3.43588e-06  1.31285e+08
       979.00000  3.43588e-06  1.31251e+08
       979.10000  3.43588e-06  1.31251e+08
       979.20000  3.43588e-06  1.31216e+08
       979.30000  3.43588e-06  1.31216e+08
       979.40000  3.43588e-06  1.31216e+08
       979.50000  3.13343e-06  1.19634e+08
       979.60000  3.13343e-06  1.19634e+08
       979.70000  3.13343e-06  1.19634e+08
       979.80000  3.13343e-06  1.19603e+08
       979.90000  3.13343e-06  1.19603e+08
       980.00000  3.13343e-06  1.19603e+08
       980.10000  3.13343e-06  1.19666e+08
       980.20000  3.13343e-06  1.19697e+08
       980.30000  3.13343e-06  1.19760e+08
       980.40000  3.13343e-06  1.19791e+08
       980.50000  3.07712e-06  1.17700e+08
       980.60000  3.07712e-06  1.17731e+08
       980.70000  3.07712e-06  1.17761e+08
       980.80000  3.07712e-06  1.17792e+08
       980.90000  3.07712e-06  1.17823e+08
       981.00000  3.07712e-06  1.17854e+08
       981.10000  3.07712e-06  1.17884e+08
       981.20000  3.07712e-06  1.17915e+08
       981.30000  3.09363e-06  1.18548e+08
       981.40000  3.09363e-06  1.18579e+08
       981.50000  3.03648e-06  1.16388e+08
       981.60000  3.03648e-06  1.16388e+08
       981.70000  3.03648e-06  1.16419e+08
       981.80000  3.03648e-06  1.16419e+08
       981.90000  3.03648e-06  1.16419e+08
       982.00000  3.03648e-06  1.16388e+08
       982.10000  3.03648e-06  1.16358e+08
       982.20000  3.03648e-06  1.16297e+08
       982.30000  3.03648e-06  1.16267e+08
       982.40000  3.03648e-06  1.16206e+08
       982.50000  2.97929e-06  1.13988e+08
       982.60000  2.97929e-06  1.13928e+08
       982.70000  2.97929e-06  1.13898e+08
       982.80000  2.97929e-06  1.13868e+08
       982.90000  2.97929e-06  1.13809e+08
       983.00000  2.97929e-06  1.13779e+08
       983.10000  2.97929e-06  1.13749e+08
       983.20000  2.97929e-06  1.13720e+08
       983.30000  2.97929e-06  1.13690e+08
       983.40000  2.97929e-06  1.13630e+08
       983.50000  2.92220e-06  1.11424e+08
       983.60000  2.92220e-06  1.11394e+08
       983.70000  2.92220e-06  1.11365e+08
       983.80000  2.92449e-06  1.11423e+08
       983.90000  2.92449e-06  1.11394e+08
       984.00000  2.92449e-06  1.11364e+08
       984.10000  2.92449e-06  1.11364e+08
       984.20000  2.92449e-06  1.11335e+08
       984.30000  2.92449e-06  1.11306e+08
       984.40000  2.92449e-06  1.11277e+08
       984.50000  3.08858e-06  1.17520e+08
       984.60000  3.08858e-06  1.17489e+08
       984.70000  3.08858e-06  1.17459e+08
       984.80000  3.08858e-06  1.17459e+08
       984.90000  3.08858e-06  1.17428e+08
       985.00000  3.08858e-06  1.17397e+08
       985.10000  3.08858e-06  1.17397e+08
       985.20000  3.08858e-06  1.17366e+08
       985.30000  3.08858e-06  1.17366e+08
       985.40000  3.08858e-06  1.17366e+08
       985.50000  2.81076e-06  1.06781e+08
       985.60000  2.81076e-06  1.06781e+08
       985.70000  2.81076e-06  1.06781e+08
       985.80000  2.81076e-06  1.06753e+08
       985.90000  2.81076e-06  1.06753e+08
       986.00000  2.81076e-06  1.06753e+08
       986.10000  2.81076e-06  1.06724e+08
       986.20000  2.81076e-06  1.06724e+08
       986.30000  2.79465e-06  1.06113e+08
       986.40000  2.79465e-06  1.06085e+08
       986.50000  2.73767e-06  1.03895e+08
       986.60000  2.73767e-06  1.03895e+08
       986.70000  2.73767e-06  1.03867e+08
       986.80000  2.73767e-06  1.03867e+08
       986.90000  2.73767e-06  1.03840e+08
       987.00000  2.73767e-06  1.03813e+08
       987.10000  2.73767e-06  1.03785e+08
       987.20000  2.73767e-06  1.03785e+08
       987.30000  2.73767e-06  1.03758e+08
       987.40000  2.73767e-06  1.03730e+08
       987.50000  2.47463e-06  9.37389e+07
       987.60000  2.47463e-06  9.37142e+07
       987.70000  2.47463e-06  9.36894e+07
       987.80000  2.47463e-06  9.36646e+07
       987.90000  2.47463e-06  9.36399e+07
       988.00000  2.47463e-06  9.36152e+07
       988.10000  2.47463e-06  9.35409e+07
       988.20000  2.47463e-06  9.34914e+07
       988.30000  2.47463e-06  9.34172e+07
       988.40000  2.47463e-06  9.33677e+07
       988.50000  2.42246e-06  9.13508e+07
       988.60000  2.42246e-06  9.13024e+07
       988.70000  2.42246e-06  9.12539e+07
       988.80000  2.42914e-06  9.14572e+07
       988.90000  2.42914e-06  9.14086e+07
       989.00000  2.42914e-06  9.13843e+07
       989.10000  2.42914e-06  9.13601e+07
       989.20000  2.42914e-06  9.13115e+07
       989.30000  2.42914e-06  9.12872e+07
       989.40000  2.42914e-06  9.12629e+07
       989.50000  2.57390e-06  9.66755e+07
       989.60000  2.57390e-06  9.66498e+07
       989.70000  2.57390e-06  9.66498e+07
       989.80000  2.57390e-06  9.66240e+07
       989.90000  2.57390e-06  9.66240e+07
       990.00000  2.57390e-06  9.66240e+07
       990.10000  2.57390e-06  9.65983e+07
       990.20000  2.57390e-06  9.65983e+07
       990.30000  2.57390e-06  9.66240e+07
       990.40000  2.57390e-06  9.66240e+07
       990.50000  2.51681e-06  9.44810e+07
       990.60000  2.51681e-06  9.45061e+07
       990.70000  2.51681e-06  9.45061e+07
       990.80000  2.51681e-06  9.45313e+07
       990.90000  2.51681e-06  9.45565e+07
       991.00000  2.51681e-06  9.45816e+07
       991.10000  2.51681e-06  9.46068e+07
       991.20000  2.51681e-06  9.46320e+07
       991.30000  2.52214e-06  9.48577e+07
       991.40000  2.52214e-06  9.49082e+07
       991.50000  2.46522e-06  9.27910e+07
       991.60000  2.46522e-06  9.28403e+07
       991.70000  2.46522e-06  9.28896e+07
       991.80000  2.46522e-06  9.29389e+07
       991.90000  2.46522e-06  9.29882e+07
       992.00000  2.46522e-06  9.30375e+07
       992.10000  2.46522e-06  9.30622e+07
       992.20000  2.46522e-06  9.30622e+07
       992.30000  2.46522e-06  9.30622e+07
       992.40000  2.46522e-06  9.30622e+07
       992.50000  2.40711e-06  9.08926e+07
       992.60000  2.40711e-06  9.08926e+07
       992.70000  2.40711e-06  9.08926e+07
       992.80000  2.40711e-06  9.08926e+07
       992.90000  2.40711e-06  9.08926e+07
       993.00000  2.40711e-06  9.09167e+07
       993.10000  2.40711e-06  9.09167e+07
       993.20000  2.40711e-06  9.09167e+07
       993.30000  2.40711e-06  9.09167e+07
       993.40000  2.40711e-06  9.09167e+07
       993.50000  2.53146e-06  9.56134e+07
       993.60000  2.53146e-06  9.56134e+07
       993.70000  2.53146e-06  9.56134e+07
       993.80000  2.53288e-06  9.56668e+07
       993.90000  2.53288e-06  9.56415e+07
       994.00000  2.53288e-06  9.56415e+07
       994.10000  2.53288e-06  9.56415e+07
       994.20000  2.53288e-06  9.56162e+07
       994.30000  2.53288e-06  9.56162e+07
       994.40000  2.53288e-06  9.55908e+07
       994.50000  2.11818e-06  7.99400e+07
       994.60000  2.11818e-06  7.99188e+07
       994.70000  2.11818e-06  7.99188e+07
       994.80000  2.11818e-06  7.98976e+07
       994.90000  2.11818e-06  7.98976e+07
       995.00000  2.11818e-06  7.98764e+07
       995.10000  2.11818e-06  7.98764e+07
       995.20000  2.11818e-06  7.98764e+07
       995.30000  2.11818e-06  7.98553e+07
       995.40000  2.11818e-06  7.98553e+07
       995.50000  2.06502e-06  7.78514e+07
       995.60000  2.06502e-06  7.78307e+07
       995.70000  2.06502e-06  7.78307e+07
       995.80000  2.06502e-06  7.78307e+07
       995.90000  2.06502e-06  7.78307e+07
       996.00000  2.06502e-06  7.78101e+07
       996.10000  2.06502e-06  7.78307e+07
       996.20000  2.06502e-06  7.78307e+07
       996.30000  2.06743e-06  7.79216e+07
       996.40000  2.06743e-06  7.79216e+07
       996.50000  2.18244e-06  8.22563e+07
       996.60000  2.18244e-06  8.22563e+07
       996.70000  2.18244e-06  8.22563e+07
       996.80000  2.18244e-06  8.22563e+07
       996.90000  2.18244e-06  8.22563e+07
       997.00000  2.18244e-06  8.22563e+07
       997.10000  2.18244e-06  8.22563e+07
       997.20000  2.18244e-06  8.22563e+07
       997.30000  2.18244e-06  8.22563e+07
       997.40000  2.18244e-06  8.22563e+07
       997.50000  2.28838e-06  8.62489e+07
       997.60000  2.28838e-06  8.62489e+07
       997.70000  2.28838e-06  8.62489e+07
       997.80000  2.28838e-06  8.62489e+07
       997.90000  2.28838e-06  8.62489e+07
       998.00000  2.28838e-06  8.62261e+07
       998.10000  2.28838e-06  8.62261e+07
       998.20000  2.28838e-06  8.62032e+07
       998.30000  2.28838e-06  8.62032e+07
       998.40000  2.28838e-06  8.61803e+07
       998.50000  2.22623e-06  8.38177e+07
       998.60000  2.22623e-06  8.38177e+07
       998.70000  2.22623e-06  8.37954e+07
       998.80000  2.24450e-06  8.44828e+07
       998.90000  2.24450e-06  8.44828e+07
       999.00000  2.24450e-06  8.44604e+07
       999.10000  2.24450e-06  8.44604e+07
       999.20000  2.24450e-06  8.44379e+07
       999.30000  2.24450e-06  8.44379e+07
       999.40000  2.24450e-06  8.44379e+07
       999.50000  2.18240e-06  8.20802e+07
       999.60000  2.18240e-06  8.20802e+07
       999.70000  2.18240e-06  8.20802e+07
       999.80000  2.18240e-06  8.20802e+07
       999.90000  2.18240e-06  8.20802e+07
       1000.0000  2.18240e-06  8.20584e+07
       1000.1000  2.18240e-06  8.20584e+07
       1000.2000  2.18240e-06  8.20584e+07
       1000.3000  2.18240e-06  8.20584e+07
       1000.4000  2.18240e-06  8.20584e+07
       1000.5000  1.83827e-06  6.91189e+07
       1000.6000  1.83827e-06  6.91189e+07
       1000.7000  1.83827e-06  6.91189e+07
       1000.8000  1.83827e-06  6.91189e+07
       1000.9000  1.83827e-06  6.91189e+07
       1001.0000  1.83827e-06  6.91189e+07
       1001.1000  1.83827e-06  6.91189e+07
       1001.2000  1.83827e-06  6.91373e+07
       1001.3000  1.81672e-06  6.83270e+07
       1001.4000  1.81672e-06  6.83270e+07
       1001.5000  1.93362e-06  7.27236e+07
       1001.6000  1.93362e-06  7.27236e+07
       1001.7000  1.93362e-06  7.27429e+07
       1001.8000  1.93362e-06  7.27429e+07
       1001.9000  1.93362e-06  7.27429e+07
       1002.0000  1.93362e-06  7.27623e+07
       1002.1000  1.93362e-06  7.26462e+07
       1002.2000  1.93362e-06  7.25302e+07
       1002.3000  1.93362e-06  7.24336e+07
       1002.4000  1.93362e-06  7.23175e+07
       1002.5000  1.89922e-06  7.09357e+07
       1002.6000  1.89922e-06  7.08218e+07
       1002.7000  1.89922e-06  7.07268e+07
       1002.8000  1.89922e-06  7.06319e+07
       1002.9000  1.89922e-06  7.05369e+07
       1003.0000  1.89922e-06  7.04419e+07
       1003.1000  1.89922e-06  7.03470e+07
       1003.2000  1.89922e-06  7.02520e+07
       1003.3000  1.89922e-06  7.01760e+07
       1003.4000  1.89922e-06  7.00811e+07
       1003.5000  1.86472e-06  6.87334e+07
       1003.6000  1.86472e-06  6.86588e+07
       1003.7000  1.86472e-06  6.85656e+07
       1003.8000  1.86422e-06  6.84727e+07
       1003.9000  1.86422e-06  6.83982e+07
       1004.0000  1.86422e-06  6.83236e+07
       1004.1000  1.86422e-06  6.82117e+07
       1004.2000  1.86422e-06  6.80812e+07
       1004.3000  1.86422e-06  6.79880e+07
       1004.4000  1.86422e-06  6.78762e+07
       1004.5000  1.97011e-06  7.16334e+07
       1004.6000  1.97011e-06  7.15348e+07
       1004.7000  1.97011e-06  7.14560e+07
       1004.8000  1.97011e-06  7.13772e+07
       1004.9000  1.97011e-06  7.13181e+07
       1005.0000  1.97011e-06  7.12590e+07
       1005.1000  1.97011e-06  7.11999e+07
       1005.2000  1.97011e-06  7.11605e+07
       1005.3000  1.97011e-06  7.11211e+07
       1005.4000  1.97011e-06  7.11014e+07
       1005.5000  1.65702e-06  5.97852e+07
       1005.6000  1.65702e-06  5.97686e+07
       1005.7000  1.65702e-06  5.97686e+07
       1005.8000  1.65702e-06  5.97852e+07
       1005.9000  1.65702e-06  5.97852e+07
       1006.0000  1.65702e-06  5.98018e+07
       1006.1000  1.65702e-06  5.98349e+07
       1006.2000  1.65702e-06  5.98681e+07
       1006.3000  1.65358e-06  5.97768e+07
       1006.4000  1.65358e-06  5.98264e+07
       1006.5000  1.89173e-06  6.84996e+07
       1006.6000  1.89173e-06  6.85752e+07
       1006.7000  1.89173e-06  6.86509e+07
       1006.8000  1.89173e-06  6.87266e+07
       1006.9000  1.89173e-06  6.88212e+07
       1007.0000  1.89173e-06  6.89158e+07
       1007.1000  1.89173e-06  6.90293e+07
       1007.2000  1.89173e-06  6.91428e+07
       1007.3000  1.89173e-06  6.92563e+07
       1007.4000  1.89173e-06  6.93887e+07
       1007.5000  1.85431e-06  6.81459e+07
       1007.6000  1.85431e-06  6.82942e+07
       1007.7000  1.85431e-06  6.84426e+07
       1007.8000  1.85431e-06  6.85909e+07
       1007.9000  1.85431e-06  6.87578e+07
       1008.0000  1.85431e-06  6.89247e+07
       1008.1000  1.85431e-06  6.89432e+07
       1008.2000  1.85431e-06  6.89432e+07
       1008.3000  1.85431e-06  6.89432e+07
       1008.4000  1.85431e-06  6.89432e+07
       1008.5000  1.81737e-06  6.75700e+07
       1008.6000  1.81737e-06  6.75700e+07
       1008.7000  1.81737e-06  6.75700e+07
       1008.8000  1.81356e-06  6.74282e+07
       1008.9000  1.81356e-06  6.74282e+07
       1009.0000  1.81356e-06  6.74100e+07
       1009.1000  1.81356e-06  6.74100e+07
       1009.2000  1.81356e-06  6.74100e+07
       1009.3000  1.81356e-06  6.74100e+07
       1009.4000  1.81356e-06  6.73919e+07
       1009.5000  1.64962e-06  6.12999e+07
       1009.6000  1.64962e-06  6.12999e+07
       1009.7000  1.64962e-06  6.12834e+07
       1009.8000  1.64962e-06  6.12834e+07
       1009.9000  1.64962e-06  6.12669e+07
       1010.0000  1.64962e-06  6.12669e+07
       1010.1000  1.64962e-06  6.12504e+07
       1010.2000  1.64962e-06  6.12340e+07
       1010.3000  1.64962e-06  6.12174e+07
       1010.4000  1.64962e-06  6.12010e+07
       1010.5000  1.49095e-06  5.52992e+07
       1010.6000  1.49095e-06  5.52843e+07
       1010.7000  1.49095e-06  5.52694e+07
       1010.8000  1.49095e-06  5.52545e+07
       1010.9000  1.49095e-06  5.52396e+07
       1011.0000  1.49095e-06  5.52247e+07
       1011.1000  1.49095e-06  5.52247e+07
       1011.2000  1.49095e-06  5.52098e+07
       1011.3000  1.48696e-06  5.50471e+07
       1011.4000  1.48696e-06  5.50322e+07
       1011.5000  1.57636e-06  5.83252e+07
       1011.6000  1.57636e-06  5.83094e+07
       1011.7000  1.57636e-06  5.82937e+07
       1011.8000  1.57636e-06  5.82779e+07
       1011.9000  1.57636e-06  5.82621e+07
       1012.0000  1.57636e-06  5.82464e+07
       1012.1000  1.57636e-06  5.82306e+07
       1012.2000  1.57636e-06  5.82148e+07
       1012.3000  1.57636e-06  5.81991e+07
       1012.4000  1.57636e-06  5.81833e+07
       1012.5000  1.66085e-06  6.12855e+07
       1012.6000  1.66085e-06  6.12689e+07
       1012.7000  1.66085e-06  6.12523e+07
       1012.8000  1.66085e-06  6.12357e+07
       1012.9000  1.66085e-06  6.12357e+07
       1013.0000  1.66085e-06  6.12191e+07
       1013.1000  1.66085e-06  6.12025e+07
       1013.2000  1.66085e-06  6.11858e+07
       1013.3000  1.66085e-06  6.11692e+07
       1013.4000  1.66085e-06  6.11526e+07
       1013.5000  1.27557e-06  4.69536e+07
       1013.6000  1.27557e-06  4.69408e+07
       1013.7000  1.27557e-06  4.69281e+07
       1013.8000  1.27457e-06  4.68788e+07
       1013.9000  1.27457e-06  4.68661e+07
       1014.0000  1.27457e-06  4.68533e+07
       1014.1000  1.27457e-06  4.68279e+07
       1014.2000  1.27457e-06  4.68024e+07
       1014.3000  1.27457e-06  4.67769e+07
       1014.4000  1.27457e-06  4.67514e+07
       1014.5000  1.35859e-06  4.98196e+07
       1014.6000  1.35859e-06  4.97924e+07
       1014.7000  1.35859e-06  4.97652e+07
       1014.8000  1.35859e-06  4.97517e+07
       1014.9000  1.35859e-06  4.97245e+07
       1015.0000  1.35859e-06  4.97109e+07
       1015.1000  1.35859e-06  4.96837e+07
       1015.2000  1.35859e-06  4.96701e+07
       1015.3000  1.35859e-06  4.96566e+07
       1015.4000  1.35859e-06  4.96294e+07
       1015.5000  1.43737e-06  5.24928e+07
       1015.6000  1.43737e-06  5.24784e+07
       1015.7000  1.43737e-06  5.24640e+07
       1015.8000  1.43737e-06  5.24497e+07
       1015.9000  1.43737e-06  5.24353e+07
       1016.0000  1.43737e-06  5.24209e+07
       1016.1000  1.43737e-06  5.24209e+07
       1016.2000  1.43737e-06  5.24209e+07
       1016.3000  1.43970e-06  5.25057e+07
       1016.4000  1.43970e-06  5.24913e+07
       1016.5000  1.40524e-06  5.12349e+07
       1016.6000  1.40524e-06  5.12349e+07
       1016.7000  1.40524e-06  5.12349e+07
       1016.8000  1.40524e-06  5.12209e+07
       1016.9000  1.40524e-06  5.12209e+07
       1017.0000  1.40524e-06  5.12068e+07
       1017.1000  1.40524e-06  5.12068e+07
       1017.2000  1.40524e-06  5.11928e+07
       1017.3000  1.40524e-06  5.11928e+07
       1017.4000  1.40524e-06  5.11787e+07
       1017.5000  1.26539e-06  4.60854e+07
       1017.6000  1.26539e-06  4.60728e+07
       1017.7000  1.26539e-06  4.60601e+07
       1017.8000  1.26539e-06  4.60475e+07
       1017.9000  1.26539e-06  4.60348e+07
       1018.0000  1.26539e-06  4.60348e+07
       1018.1000  1.26539e-06  4.60095e+07
       1018.2000  1.26539e-06  4.59842e+07
       1018.3000  1.26539e-06  4.59589e+07
       1018.4000  1.26539e-06  4.59336e+07
       1018.5000  1.54180e-06  5.59520e+07
       1018.6000  1.54180e-06  5.59212e+07
       1018.7000  1.54180e-06  5.59058e+07
       1018.8000  1.54108e-06  5.58486e+07
       1018.9000  1.54108e-06  5.58332e+07
       1019.0000  1.54108e-06  5.58023e+07
       1019.1000  1.54108e-06  5.57869e+07
       1019.2000  1.54108e-06  5.57715e+07
       1019.3000  1.54108e-06  5.57561e+07
       1019.4000  1.54108e-06  5.57253e+07
       1019.5000  1.30108e-06  4.70341e+07
       1019.6000  1.30108e-06  4.70211e+07
       1019.7000  1.30108e-06  4.70081e+07
       1019.8000  1.30108e-06  4.70081e+07
       1019.9000  1.30108e-06  4.69951e+07
       1020.0000  1.30108e-06  4.69821e+07
       1020.1000  1.30108e-06  4.69691e+07
       1020.2000  1.30108e-06  4.69561e+07
       1020.3000  1.30108e-06  4.69561e+07
       1020.4000  1.30108e-06  4.69430e+07
       1020.5000  1.26647e-06  4.56941e+07
       1020.6000  1.26647e-06  4.56814e+07
       1020.7000  1.26647e-06  4.56814e+07
       1020.8000  1.26647e-06  4.56687e+07
       1020.9000  1.26647e-06  4.56687e+07
       1021.0000  1.26647e-06  4.56687e+07
       1021.1000  1.26647e-06  4.56687e+07
       1021.2000  1.26647e-06  4.56687e+07
       1021.3000  1.26377e-06  4.55717e+07
       1021.4000  1.26377e-06  4.55717e+07
       1021.5000  1.32400e-06  4.77435e+07
       1021.6000  1.32400e-06  4.77435e+07
       1021.7000  1.32400e-06  4.77435e+07
       1021.8000  1.32400e-06  4.77567e+07
       1021.9000  1.32400e-06  4.77567e+07
       1022.0000  1.32400e-06  4.77700e+07
       1022.1000  1.32400e-06  4.77700e+07
       1022.2000  1.32400e-06  4.77832e+07
       1022.3000  1.32400e-06  4.77964e+07
       1022.4000  1.32400e-06  4.77964e+07
       1022.5000  1.19493e-06  4.31490e+07
       1022.6000  1.19493e-06  4.31610e+07
       1022.7000  1.19493e-06  4.31729e+07
       1022.8000  1.19493e-06  4.31849e+07
       1022.9000  1.19493e-06  4.31968e+07
       1023.0000  1.19493e-06  4.32088e+07
       1023.1000  1.19493e-06  4.32327e+07
       1023.2000  1.19493e-06  4.32446e+07
       1023.3000  1.19493e-06  4.32566e+07
       1023.4000  1.19493e-06  4.32805e+07
       1023.5000  1.24982e-06  4.52811e+07
       1023.6000  1.24982e-06  4.53060e+07
       1023.7000  1.24982e-06  4.53185e+07
       1023.8000  1.24616e-06  4.52108e+07
       1023.9000  1.24616e-06  4.52358e+07
       1024.0000  1.24616e-06  4.52607e+07
       1024.1000  1.24616e-06  4.52607e+07
       1024.2000  1.24616e-06  4.52482e+07
       1024.3000  1.24616e-06  4.52482e+07
       1024.4000  1.24616e-06  4.52482e+07
       1024.5000  1.12273e-06  4.07662e+07
       1024.6000  1.12273e-06  4.07550e+07
       1024.7000  1.12273e-06  4.07550e+07
       1024.8000  1.12273e-06  4.07550e+07
       1024.9000  1.12273e-06  4.07437e+07
       1025.0000  1.12273e-06  4.07437e+07
       1025.1000  1.12273e-06  4.07437e+07
       1025.2000  1.12273e-06  4.07325e+07
       1025.3000  1.12273e-06  4.07325e+07
       1025.4000  1.12273e-06  4.07325e+07
       1025.5000  1.08826e-06  3.94712e+07
       1025.6000  1.08826e-06  3.94712e+07
       1025.7000  1.08826e-06  3.94603e+07
       1025.8000  1.08826e-06  3.94603e+07
       1025.9000  1.08826e-06  3.94494e+07
       1026.0000  1.08826e-06  3.94494e+07
       1026.1000  1.08826e-06  3.94494e+07
       1026.2000  1.08826e-06  3.94385e+07
       1026.3000  1.08437e-06  3.92977e+07
       1026.4000  1.08437e-06  3.92869e+07
       1026.5000  9.69294e-07  3.51175e+07
       1026.6000  9.69294e-07  3.51078e+07
       1026.7000  9.69294e-07  3.50982e+07
       1026.8000  9.69294e-07  3.50982e+07
       1026.9000  9.69294e-07  3.50885e+07
       1027.0000  9.69294e-07  3.50885e+07
       1027.1000  9.69294e-07  3.50788e+07
       1027.2000  9.69294e-07  3.50691e+07
       1027.3000  9.69294e-07  3.50691e+07
       1027.4000  9.69294e-07  3.50594e+07
       1027.5000  1.01586e-06  3.67335e+07
       1027.6000  1.01586e-06  3.67335e+07
       1027.7000  1.01586e-06  3.67234e+07
       1027.8000  1.01586e-06  3.67132e+07
       1027.9000  1.01586e-06  3.67030e+07
       1028.0000  1.01586e-06  3.66929e+07
       1028.1000  1.01586e-06  3.66929e+07
       1028.2000  1.01586e-06  3.66827e+07
       1028.3000  1.01586e-06  3.66726e+07
       1028.4000  1.01586e-06  3.66624e+07
       1028.5000  1.05702e-06  3.81372e+07
       1028.6000  1.05702e-06  3.81266e+07
       1028.7000  1.05702e-06  3.81160e+07
       1028.8000  1.05733e-06  3.81166e+07
       1028.9000  1.05733e-06  3.81060e+07
       1029.0000  1.05733e-06  3.80955e+07
       1029.1000  1.05733e-06  3.80849e+07
       1029.2000  1.05733e-06  3.80743e+07
       1029.3000  1.05733e-06  3.80637e+07
       1029.4000  1.05733e-06  3.80532e+07
       1029.5000  9.47451e-07  3.40893e+07
       1029.6000  9.47451e-07  3.40798e+07
       1029.7000  9.47451e-07  3.40704e+07
       1029.8000  9.47451e-07  3.40609e+07
       1029.9000  9.47451e-07  3.40514e+07
       1030.0000  9.47451e-07  3.40325e+07
       1030.1000  9.47451e-07  3.40419e+07
       1030.2000  9.47451e-07  3.40419e+07
       1030.3000  9.47451e-07  3.40419e+07
       1030.4000  9.47451e-07  3.40419e+07
       1030.5000  9.13121e-07  3.28084e+07
       1030.6000  9.13121e-07  3.28084e+07
       1030.7000  9.13121e-07  3.27993e+07
       1030.8000  9.13121e-07  3.27993e+07
       1030.9000  9.13121e-07  3.27993e+07
       1031.0000  9.13121e-07  3.27902e+07
       1031.1000  9.13121e-07  3.27902e+07
       1031.2000  9.13121e-07  3.27810e+07
       1031.3000  9.13384e-07  3.27905e+07
       1031.4000  9.13384e-07  3.27814e+07
       1031.5000  9.46663e-07  3.39663e+07
       1031.6000  9.46663e-07  3.39568e+07
       1031.7000  9.46663e-07  3.39473e+07
       1031.8000  9.46663e-07  3.39379e+07
       1031.9000  9.46663e-07  3.39284e+07
       1032.0000  9.46663e-07  3.39189e+07
       1032.1000  9.46663e-07  3.38905e+07
       1032.2000  9.46663e-07  3.38527e+07
       1032.3000  9.46663e-07  3.38243e+07
       1032.4000  9.46663e-07  3.38053e+07
       1032.5000  9.09707e-07  3.24584e+07
       1032.6000  9.09707e-07  3.24311e+07
       1032.7000  9.09707e-07  3.24129e+07
       1032.8000  9.09707e-07  3.23856e+07
       1032.9000  9.09707e-07  3.23674e+07
       1033.0000  9.09707e-07  3.23492e+07
       1033.1000  9.09707e-07  3.23310e+07
       1033.2000  9.09707e-07  3.23219e+07
       1033.3000  9.09707e-07  3.23037e+07
       1033.4000  9.09707e-07  3.22946e+07
       1033.5000  9.35029e-07  3.31748e+07
       1033.6000  9.35029e-07  3.31655e+07
       1033.7000  9.35029e-07  3.31561e+07
       1033.8000  9.36375e-07  3.31945e+07
       1033.9000  9.36375e-07  3.31945e+07
       1034.0000  9.36375e-07  3.31851e+07
       1034.1000  9.36375e-07  3.31851e+07
       1034.2000  9.36375e-07  3.31758e+07
       1034.3000  9.36375e-07  3.31758e+07
       1034.4000  9.36375e-07  3.31758e+07
       1034.5000  8.36804e-07  2.96480e+07
       1034.6000  8.36804e-07  2.96563e+07
       1034.7000  8.36804e-07  2.96563e+07
       1034.8000  8.36804e-07  2.96647e+07
       1034.9000  8.36804e-07  2.96647e+07
       1035.0000  8.36804e-07  2.96731e+07
       1035.1000  8.36804e-07  2.96814e+07
       1035.2000  8.36804e-07  2.96898e+07
       1035.3000  8.36804e-07  2.97065e+07
       1035.4000  8.36804e-07  2.97149e+07
       1035.5000  6.28254e-07  2.23219e+07
       1035.6000  6.28254e-07  2.23344e+07
       1035.7000  6.28254e-07  2.23407e+07
       1035.8000  6.28254e-07  2.23533e+07
       1035.9000  6.28254e-07  2.23721e+07
       1036.0000  6.28254e-07  2.23847e+07
       1036.1000  6.28254e-07  2.23721e+07
       1036.2000  6.28254e-07  2.23596e+07
       1036.3000  6.27216e-07  2.23101e+07
       1036.4000  6.27216e-07  2.22975e+07
       1036.5000  6.52558e-07  2.31854e+07
       1036.6000  6.52558e-07  2.31723e+07
       1036.7000  6.52558e-07  2.31658e+07
       1036.8000  6.52558e-07  2.31528e+07
       1036.9000  6.52558e-07  2.31397e+07
       1037.0000  6.52558e-07  2.31332e+07
       1037.1000  6.52558e-07  2.31267e+07
       1037.2000  6.52558e-07  2.31136e+07
       1037.3000  6.52558e-07  2.31071e+07
       1037.4000  6.52558e-07  2.31006e+07
       1037.5000  6.72606e-07  2.38035e+07
       1037.6000  6.72606e-07  2.37968e+07
       1037.7000  6.72606e-07  2.37901e+07
       1037.8000  6.72606e-07  2.37833e+07
       1037.9000  6.72606e-07  2.37766e+07
       1038.0000  6.72606e-07  2.37699e+07
       1038.1000  6.72606e-07  2.37699e+07
       1038.2000  6.72606e-07  2.37699e+07
       1038.3000  6.72606e-07  2.37766e+07
       1038.4000  6.72606e-07  2.37766e+07
       1038.5000  6.38205e-07  2.25605e+07
       1038.6000  6.38205e-07  2.25605e+07
       1038.7000  6.38205e-07  2.25605e+07
       1038.8000  6.36803e-07  2.25110e+07
       1038.9000  6.36803e-07  2.25110e+07
       1039.0000  6.36803e-07  2.25110e+07
       1039.1000  6.36803e-07  2.25110e+07
       1039.2000  6.36803e-07  2.25110e+07
       1039.3000  6.36803e-07  2.25110e+07
       1039.4000  6.36803e-07  2.25110e+07
       1039.5000  6.95020e-07  2.45690e+07
       1039.6000  6.95020e-07  2.45690e+07
       1039.7000  6.95020e-07  2.45690e+07
       1039.8000  6.95020e-07  2.45690e+07
       1039.9000  6.95020e-07  2.45690e+07
       1040.0000  6.95020e-07  2.45690e+07
       1040.1000  6.95020e-07  2.45690e+07
       1040.2000  6.95020e-07  2.45690e+07
       1040.3000  6.95020e-07  2.45690e+07
       1040.4000  6.95020e-07  2.45690e+07
       1040.5000  5.68082e-07  2.00817e+07
       1040.6000  5.68082e-07  2.00817e+07
       1040.7000  5.68082e-07  2.00817e+07
       1040.8000  5.68082e-07  2.00817e+07
       1040.9000  5.68082e-07  2.00817e+07
       1041.0000  5.68082e-07  2.00817e+07
       1041.1000  5.68082e-07  2.00817e+07
       1041.2000  5.68082e-07  2.00817e+07
       1041.3000  5.67873e-07  2.00743e+07
       1041.4000  5.67873e-07  2.00743e+07
       1041.5000  5.33539e-07  1.88606e+07
       1041.6000  5.33539e-07  1.88606e+07
       1041.7000  5.33539e-07  1.88606e+07
       1041.8000  5.33539e-07  1.88553e+07
       1041.9000  5.33539e-07  1.88553e+07
       1042.0000  5.33539e-07  1.88553e+07
       1042.1000  5.33539e-07  1.88606e+07
       1042.2000  5.33539e-07  1.88606e+07
       1042.3000  5.33539e-07  1.88659e+07
       1042.4000  5.33539e-07  1.88659e+07
       1042.5000  5.37444e-07  1.90040e+07
       1042.6000  5.37444e-07  1.90040e+07
       1042.7000  5.37444e-07  1.90040e+07
       1042.8000  5.37444e-07  1.89987e+07
       1042.9000  5.37444e-07  1.89987e+07
       1043.0000  5.37444e-07  1.89987e+07
       1043.1000  5.37444e-07  1.89933e+07
       1043.2000  5.37444e-07  1.89879e+07
       1043.3000  5.37444e-07  1.89879e+07
       1043.4000  5.37444e-07  1.89825e+07
       1043.5000  4.64829e-07  1.64131e+07
       1043.6000  4.64829e-07  1.64085e+07
       1043.7000  4.64829e-07  1.64038e+07
       1043.8000  4.66277e-07  1.64456e+07
       1043.9000  4.66277e-07  1.64409e+07
       1044.0000  4.66277e-07  1.64316e+07
       1044.1000  4.66277e-07  1.64130e+07
       1044.2000  4.66277e-07  1.63896e+07
       1044.3000  4.66277e-07  1.63710e+07
       1044.4000  4.66277e-07  1.63523e+07
       1044.5000  4.31729e-07  1.51235e+07
       1044.6000  4.31729e-07  1.51105e+07
       1044.7000  4.31729e-07  1.50933e+07
       1044.8000  4.31729e-07  1.50803e+07
       1044.9000  4.31729e-07  1.50673e+07
       1045.0000  4.31729e-07  1.50544e+07
       1045.1000  4.31729e-07  1.50458e+07
       1045.2000  4.31729e-07  1.50328e+07
       1045.3000  4.31729e-07  1.50242e+07
       1045.4000  4.31729e-07  1.50155e+07
       1045.5000  4.27766e-07  1.48734e+07
       1045.6000  4.27766e-07  1.48649e+07
       1045.7000  4.27766e-07  1.48606e+07
       1045.8000  4.27766e-07  1.48563e+07
       1045.9000  4.27766e-07  1.48520e+07
       1046.0000  4.27766e-07  1.48478e+07
       1046.1000  4.27766e-07  1.48478e+07
       1046.2000  4.27766e-07  1.48435e+07
       1046.3000  4.28828e-07  1.48803e+07
       1046.4000  4.28828e-07  1.48803e+07
       1046.5000  3.63605e-07  1.26207e+07
       1046.6000  3.63605e-07  1.26207e+07
       1046.7000  3.63605e-07  1.26244e+07
       1046.8000  3.63605e-07  1.26280e+07
       1046.9000  3.63605e-07  1.26316e+07
       1047.0000  3.63605e-07  1.26389e+07
       1047.1000  3.63605e-07  1.26425e+07
       1047.2000  3.63605e-07  1.26498e+07
       1047.3000  3.63605e-07  1.26571e+07
       1047.4000  3.63605e-07  1.26644e+07
       1047.5000  3.29010e-07  1.14693e+07
       1047.6000  3.29010e-07  1.14759e+07
       1047.7000  3.29010e-07  1.14857e+07
       1047.8000  3.29010e-07  1.14956e+07
       1047.9000  3.29010e-07  1.15055e+07
       1048.0000  3.29010e-07  1.15186e+07
       1048.1000  3.29010e-07  1.15186e+07
       1048.2000  3.29010e-07  1.15186e+07
       1048.3000  3.29010e-07  1.15186e+07
       1048.4000  3.29010e-07  1.15153e+07
       1048.5000  2.94429e-07  1.03050e+07
       1048.6000  2.94429e-07  1.03050e+07
       1048.7000  2.94429e-07  1.03050e+07
       1048.8000  2.94359e-07  1.03026e+07
       1048.9000  2.94359e-07  1.03026e+07
       1049.0000  2.94359e-07  1.02996e+07
       1049.1000  2.94359e-07  1.02996e+07
       1049.2000  2.94359e-07  1.02996e+07
       1049.3000  2.94359e-07  1.02967e+07
       1049.4000  2.94359e-07  1.02967e+07
       1049.5000  2.59785e-07  9.08727e+06
       1049.6000  2.59785e-07  9.08467e+06
       1049.7000  2.59785e-07  9.08467e+06
       1049.8000  2.59785e-07  9.08467e+06
       1049.9000  2.59785e-07  9.08207e+06
       1050.0000  2.59785e-07  9.08207e+06
       1050.1000  2.59785e-07  9.07947e+06
       1050.2000  2.59785e-07  9.07947e+06
       1050.3000  2.59785e-07  9.07688e+06
       1050.4000  2.59785e-07  9.07428e+06
       1050.5000  2.42438e-07  8.46837e+06
       1050.6000  2.42438e-07  8.46594e+06
       1050.7000  2.42438e-07  8.46594e+06
       1050.8000  2.42438e-07  8.46352e+06
       1050.9000  2.42438e-07  8.46109e+06
       1051.0000  2.42438e-07  8.46109e+06
       1051.1000  2.42438e-07  8.45867e+06
       1051.2000  2.42438e-07  8.45867e+06
       1051.3000  2.41536e-07  8.42478e+06
       1051.4000  2.41536e-07  8.42237e+06
       1051.5000  2.04398e-07  7.12735e+06
       1051.6000  2.04398e-07  7.12531e+06
       1051.7000  2.04398e-07  7.12326e+06
       1051.8000  2.04398e-07  7.12326e+06
       1051.9000  2.04398e-07  7.12122e+06
       1052.0000  2.04398e-07  7.12122e+06
       1052.1000  2.04398e-07  7.11918e+06
       1052.2000  2.04398e-07  7.11713e+06
       1052.3000  2.04398e-07  7.11713e+06
       1052.4000  2.04398e-07  7.11509e+06
       1052.5000  1.31428e-07  4.57371e+06
       1052.6000  1.31428e-07  4.57371e+06
       1052.7000  1.31428e-07  4.57239e+06
       1052.8000  1.31428e-07  4.57108e+06
       1052.9000  1.31428e-07  4.57108e+06
       1053.0000  1.31428e-07  4.56976e+06
       1053.1000  1.31428e-07  4.56976e+06
       1053.2000  1.31428e-07  4.56845e+06
       1053.3000  1.31428e-07  4.56714e+06
       1053.4000  1.31428e-07  4.56714e+06
       1053.5000  1.30109e-07  4.51998e+06
       1053.6000  1.30109e-07  4.51868e+06
       1053.7000  1.30109e-07  4.51868e+06
       1053.8000  1.29227e-07  4.48678e+06
       1053.9000  1.29227e-07  4.48548e+06
       1054.0000  1.29227e-07  4.48548e+06
       1054.1000  1.29227e-07  4.48807e+06
       1054.2000  1.29227e-07  4.48936e+06
       1054.3000  1.29227e-07  4.49194e+06
       1054.4000  1.29227e-07  4.49453e+06
       1054.5000  7.91140e-08  2.75237e+06
       1054.6000  7.91140e-08  2.75317e+06
       1054.7000  7.91140e-08  2.75396e+06
       1054.8000  7.91140e-08  2.75475e+06
       1054.9000  7.91140e-08  2.75554e+06
       1055.0000  7.91140e-08  2.75633e+06
       1055.1000  7.91140e-08  2.75633e+06
       1055.2000  7.91140e-08  2.75633e+06
       1055.3000  7.91140e-08  2.75712e+06
       1055.4000  7.91140e-08  2.75712e+06
       1055.5000  5.93568e-08  2.06799e+06
       1055.6000  5.93568e-08  2.06799e+06
       1055.7000  5.93568e-08  2.06799e+06
       1055.8000  5.93568e-08  2.06740e+06
       1055.9000  5.93568e-08  2.06680e+06
       1056.0000  5.93568e-08  2.06621e+06
       1056.1000  5.93568e-08  2.06443e+06
       1056.2000  5.93568e-08  2.06265e+06
       1056.3000  5.87551e-08  2.03998e+06
       1056.4000  5.87551e-08  2.03763e+06
       1056.5000  1.82765e-08      633282.
       1056.6000  1.82765e-08      632917.
       1056.7000  1.82765e-08      632368.
       1056.8000  1.82765e-08      631820.
       1056.9000  1.82765e-08      631272.
       1057.0000  1.82765e-08      630906.
