PDS_VERSION_ID         = PDS3
RECORD_TYPE            = STREAM
OBJECT                 = TEXT
  PUBLICATION_DATE     = 2014-04-25
  INTERCHANGE_FORMAT   = ASCII
  NOTE                 = "System transmission vs. wavelength."
END_OBJECT             = TEXT
END
    
The systrans directory contains the non-wavelength-integrated system 
transmission values (QE*optics*filter1*filter2) for each filter combination. 
The naming convention for these files is as follows:

<camera><filter 1><filter 2>_systrans.tab

where <camera> is "issna" or "isswa," and <filter 1> and <filter 2> represent
the filter names. For polarized filter combinations, values are given for the
parallel orientation of the filter (full transmission), with values for the 
perpendicular (blocking) orientation provided in files with subscript 
"_b_systrans.tab". 

Columns in systrans files are as follows:

 1st column: Wavelength (nm)  
 2nd column: Transmitted Flux
 3rd column: Transmitted Flux * Solar Flux (phot per cm^2-s-angstrom at 1 AU)

The solar spectrum used for this calculation is provided in solarflux.tab.

\begindata
       661.00000  6.12688e-06  3.19884e+08
       661.10000  6.12688e-06  3.19700e+08
       661.20000  6.12688e-06  3.19455e+08
       661.30000  6.11167e-06  3.18479e+08
       661.40000  6.11167e-06  3.18296e+08
       661.50000  6.07167e-06  3.16030e+08
       661.60000  6.07167e-06  3.15909e+08
       661.70000  6.07167e-06  3.15727e+08
       661.80000  6.07167e-06  3.15605e+08
       661.90000  6.07167e-06  3.15484e+08
       662.00000  6.07167e-06  3.15363e+08
       662.10000  6.07167e-06  3.15241e+08
       662.20000  6.07167e-06  3.15120e+08
       662.30000  6.07167e-06  3.15059e+08
       662.40000  6.07167e-06  3.14998e+08
       662.50000  9.97214e-06  5.17155e+08
       662.60000  9.97214e-06  5.17155e+08
       662.70000  9.97214e-06  5.17056e+08
       662.80000  9.97214e-06  5.16956e+08
       662.90000  9.97214e-06  5.16956e+08
       663.00000  9.97214e-06  5.16956e+08
       663.10000  9.97214e-06  5.17355e+08
       663.20000  9.97214e-06  5.17654e+08
       663.30000  9.97214e-06  5.18053e+08
       663.40000  9.97214e-06  5.18352e+08
       663.50000  7.83171e-06  4.07327e+08
       663.60000  7.83171e-06  4.07562e+08
       663.70000  7.83171e-06  4.07719e+08
       663.80000  7.81501e-06  4.07084e+08
       663.90000  7.81501e-06  4.07240e+08
       664.00000  7.81501e-06  4.07318e+08
       664.10000  7.81501e-06  4.07475e+08
       664.20000  7.81501e-06  4.07553e+08
       664.30000  7.81501e-06  4.07631e+08
       664.40000  7.81501e-06  4.07709e+08
       664.50000  7.70809e-06  4.02131e+08
       664.60000  7.70809e-06  4.02131e+08
       664.70000  7.70809e-06  4.02131e+08
       664.80000  7.70809e-06  4.02131e+08
       664.90000  7.70809e-06  4.02131e+08
       665.00000  7.70809e-06  4.02054e+08
       665.10000  7.70809e-06  4.01977e+08
       665.20000  7.70809e-06  4.01900e+08
       665.30000  7.70809e-06  4.01746e+08
       665.40000  7.70809e-06  4.01592e+08
       665.50000  3.83069e-06  1.99502e+08
       665.60000  3.83069e-06  1.99425e+08
       665.70000  3.83069e-06  1.99311e+08
       665.80000  3.83069e-06  1.99234e+08
       665.90000  3.83069e-06  1.99119e+08
       666.00000  3.83069e-06  1.98966e+08
       666.10000  3.83069e-06  1.98851e+08
       666.20000  3.83069e-06  1.98698e+08
       666.30000  3.82106e-06  1.98046e+08
       666.40000  3.82106e-06  1.97893e+08
       666.50000  5.74617e-07  2.97307e+07
       666.60000  5.74617e-07  2.97019e+07
       666.70000  5.74617e-07  2.96732e+07
       666.80000  5.74617e-07  2.96445e+07
       666.90000  5.74617e-07  2.96157e+07
       667.00000  5.74617e-07  2.95813e+07
       667.10000  5.74617e-07  2.96157e+07
       667.20000  5.74617e-07  2.96445e+07
       667.30000  5.74617e-07  2.96732e+07
       667.40000  5.74617e-07  2.97019e+07
       667.50000  5.70367e-06  2.95108e+08
       667.60000  5.70367e-06  2.95336e+08
       667.70000  5.70367e-06  2.95564e+08
       667.80000  5.70367e-06  2.95735e+08
       667.90000  5.70367e-06  2.95907e+08
       668.00000  5.70367e-06  2.96078e+08
       668.10000  5.70367e-06  2.96249e+08
       668.20000  5.70367e-06  2.96363e+08
       668.30000  5.70367e-06  2.96477e+08
       668.40000  5.70367e-06  2.96534e+08
       668.50000  4.66619e-07  2.42642e+07
       668.60000  4.66619e-07  2.42689e+07
       668.70000  4.66619e-07  2.42689e+07
       668.80000  4.65856e-07  2.42292e+07
       668.90000  4.65856e-07  2.42292e+07
       669.00000  4.65856e-07  2.42245e+07
       669.10000  4.65856e-07  2.41919e+07
       669.20000  4.65856e-07  2.41593e+07
       669.30000  4.65856e-07  2.41313e+07
       669.40000  4.65856e-07  2.41034e+07
       669.50000  1.55681e-06  8.04561e+07
       669.60000  1.55681e-06  8.03627e+07
       669.70000  1.55681e-06  8.02848e+07
       669.80000  1.55681e-06  8.02070e+07
       669.90000  1.55681e-06  8.01292e+07
       670.00000  1.55681e-06  8.00669e+07
       670.10000  1.55681e-06  8.00046e+07
       670.20000  1.55681e-06  7.99423e+07
       670.30000  1.55681e-06  7.98801e+07
       670.40000  1.55681e-06  7.98334e+07
       670.50000  1.91358e-06  9.80708e+07
       670.60000  1.91358e-06  9.80134e+07
       670.70000  1.91358e-06  9.79751e+07
       670.80000  1.91358e-06  9.79368e+07
       670.90000  1.91358e-06  9.78986e+07
       671.00000  1.91358e-06  9.78794e+07
       671.10000  1.91358e-06  9.78412e+07
       671.20000  1.91358e-06  9.78412e+07
       671.30000  1.91365e-06  9.78257e+07
       671.40000  1.91365e-06  9.78257e+07
       671.50000  5.83532e-06  2.98301e+08
       671.60000  5.83532e-06  2.98301e+08
       671.70000  5.83532e-06  2.98301e+08
       671.80000  5.83532e-06  2.98360e+08
       671.90000  5.83532e-06  2.98418e+08
       672.00000  5.83532e-06  2.98535e+08
       672.10000  5.83532e-06  2.98652e+08
       672.20000  5.83532e-06  2.98768e+08
       672.30000  5.83532e-06  2.98885e+08
       672.40000  5.83532e-06  2.99060e+08
       672.50000  1.74524e-06  8.94960e+07
       672.60000  1.74524e-06  8.95483e+07
       672.70000  1.74524e-06  8.96007e+07
       672.80000  1.74524e-06  8.96705e+07
       672.90000  1.74524e-06  8.97403e+07
       673.00000  1.74524e-06  8.98276e+07
       673.10000  1.74524e-06  8.97927e+07
       673.20000  1.74524e-06  8.97578e+07
       673.30000  1.74524e-06  8.97229e+07
       673.40000  1.74524e-06  8.97054e+07
       673.50000  3.40272e-07  1.74832e+07
       673.60000  3.40272e-07  1.74798e+07
       673.70000  3.40272e-07  1.74764e+07
       673.80000  3.40408e-07  1.74766e+07
       673.90000  3.40408e-07  1.74732e+07
       674.00000  3.40408e-07  1.74698e+07
       674.10000  3.40408e-07  1.74664e+07
       674.20000  3.40408e-07  1.74630e+07
       674.30000  3.40408e-07  1.74595e+07
       674.40000  3.40408e-07  1.74561e+07
       674.50000  6.01311e-06  3.08292e+08
       674.60000  6.01311e-06  3.08292e+08
       674.70000  6.01311e-06  3.08232e+08
       674.80000  6.01311e-06  3.08232e+08
       674.90000  6.01311e-06  3.08172e+08
       675.00000  6.01311e-06  3.08172e+08
       675.10000  6.01311e-06  3.08232e+08
       675.20000  6.01311e-06  3.08292e+08
       675.30000  6.01311e-06  3.08352e+08
       675.40000  6.01311e-06  3.08412e+08
       675.50000  6.05336e-06  3.10477e+08
       675.60000  6.05336e-06  3.10538e+08
       675.70000  6.05336e-06  3.10598e+08
       675.80000  6.05336e-06  3.10598e+08
       675.90000  6.05336e-06  3.10659e+08
       676.00000  6.05336e-06  3.10659e+08
       676.10000  6.05336e-06  3.10719e+08
       676.20000  6.05336e-06  3.10719e+08
       676.30000  6.04719e-06  3.10402e+08
       676.40000  6.04719e-06  3.10402e+08
       676.50000  8.11502e-06  4.16625e+08
       676.60000  8.11502e-06  4.16625e+08
       676.70000  8.11502e-06  4.16625e+08
       676.80000  8.11502e-06  4.16544e+08
       676.90000  8.11502e-06  4.16544e+08
       677.00000  8.11502e-06  4.16544e+08
       677.10000  8.11502e-06  4.16544e+08
       677.20000  8.11502e-06  4.16463e+08
       677.30000  8.11502e-06  4.16463e+08
       677.40000  8.11502e-06  4.16382e+08
       677.50000  6.09966e-06  3.12974e+08
       677.60000  6.09966e-06  3.12913e+08
       677.70000  6.09966e-06  3.12913e+08
       677.80000  6.09966e-06  3.12852e+08
       677.90000  6.09966e-06  3.12791e+08
       678.00000  6.09966e-06  3.12730e+08
       678.10000  6.09966e-06  3.12669e+08
       678.20000  6.09966e-06  3.12608e+08
       678.30000  6.09966e-06  3.12547e+08
       678.40000  6.09966e-06  3.12486e+08
       678.50000  8.78126e-08  4.49688e+06
       678.60000  8.78126e-08  4.49600e+06
       678.70000  8.78126e-08  4.49512e+06
       678.80000  8.78059e-08  4.49303e+06
       678.90000  8.78059e-08  4.49215e+06
       679.00000  8.78059e-08  4.49040e+06
       679.10000  8.78059e-08  4.49040e+06
       679.20000  8.78059e-08  4.49127e+06
       679.30000  8.78059e-08  4.49127e+06
       679.40000  8.78059e-08  4.49127e+06
       679.50000  4.06309e-06  2.07827e+08
       679.60000  4.06309e-06  2.07827e+08
       679.70000  4.06309e-06  2.07827e+08
       679.80000  4.06309e-06  2.07827e+08
       679.90000  4.06309e-06  2.07827e+08
       680.00000  4.06309e-06  2.07786e+08
       680.10000  4.06309e-06  2.07786e+08
       680.20000  4.06309e-06  2.07786e+08
       680.30000  4.06309e-06  2.07746e+08
       680.40000  4.06309e-06  2.07746e+08
       680.50000  4.06517e-06  2.07811e+08
       680.60000  4.06517e-06  2.07811e+08
       680.70000  4.06517e-06  2.07771e+08
       680.80000  4.06517e-06  2.07730e+08
       680.90000  4.06517e-06  2.07689e+08
       681.00000  4.06517e-06  2.07689e+08
       681.10000  4.06517e-06  2.07649e+08
       681.20000  4.06517e-06  2.07608e+08
       681.30000  4.06478e-06  2.07588e+08
       681.40000  4.06478e-06  2.07548e+08
       681.50000  1.01621e-05  5.18773e+08
       681.60000  1.01621e-05  5.18671e+08
       681.70000  1.01621e-05  5.18570e+08
       681.80000  1.01621e-05  5.18366e+08
       681.90000  1.01621e-05  5.18265e+08
       682.00000  1.01621e-05  5.18163e+08
       682.10000  1.01621e-05  5.17960e+08
       682.20000  1.01621e-05  5.17757e+08
       682.30000  1.01621e-05  5.17655e+08
       682.40000  1.01621e-05  5.17452e+08
       682.50000  4.05149e-06  2.06221e+08
       682.60000  4.05149e-06  2.06140e+08
       682.70000  4.05149e-06  2.06059e+08
       682.80000  4.05149e-06  2.05978e+08
       682.90000  4.05149e-06  2.05856e+08
       683.00000  4.05149e-06  2.05775e+08
       683.10000  4.05149e-06  2.05694e+08
       683.20000  4.05149e-06  2.05573e+08
       683.30000  4.05149e-06  2.05451e+08
       683.40000  4.05149e-06  2.05330e+08
       683.50000  4.03131e-06  2.04226e+08
       683.60000  4.03131e-06  2.04105e+08
       683.70000  4.03131e-06  2.03984e+08
       683.80000  4.02822e-06  2.03667e+08
       683.90000  4.02822e-06  2.03546e+08
       684.00000  4.02822e-06  2.03425e+08
       684.10000  4.02822e-06  2.03264e+08
       684.20000  4.02822e-06  2.03143e+08
       684.30000  4.02822e-06  2.02982e+08
       684.40000  4.02822e-06  2.02861e+08
       684.50000  8.03445e-06  4.04294e+08
       684.60000  8.03445e-06  4.03972e+08
       684.70000  8.03445e-06  4.03651e+08
       684.80000  8.03445e-06  4.03329e+08
       684.90000  8.03445e-06  4.02928e+08
       685.00000  8.03445e-06  4.02606e+08
       685.10000  8.03445e-06  4.02928e+08
       685.20000  8.03445e-06  4.03329e+08
       685.30000  8.03445e-06  4.03651e+08
       685.40000  8.03445e-06  4.03892e+08
       685.50000  8.02686e-06  4.03831e+08
       685.60000  8.02686e-06  4.04152e+08
       685.70000  8.02686e-06  4.04393e+08
       685.80000  8.02686e-06  4.04634e+08
       685.90000  8.02686e-06  4.04875e+08
       686.00000  8.02686e-06  4.05115e+08
       686.10000  8.02686e-06  4.05356e+08
       686.20000  8.02686e-06  4.05517e+08
       686.30000  8.01843e-06  4.05331e+08
       686.40000  8.01843e-06  4.05492e+08
       686.50000  3.99237e-06  2.01974e+08
       686.60000  3.99237e-06  2.02054e+08
       686.70000  3.99237e-06  2.02134e+08
       686.80000  3.99237e-06  2.02174e+08
       686.90000  3.99237e-06  2.02254e+08
       687.00000  3.99237e-06  2.02294e+08
       687.10000  3.99237e-06  2.02333e+08
       687.20000  3.99237e-06  2.02333e+08
       687.30000  3.99237e-06  2.02333e+08
       687.40000  3.99237e-06  2.02333e+08
       687.50000  1.90049e-06  9.63166e+07
       687.60000  1.90049e-06  9.63166e+07
       687.70000  1.90049e-06  9.63166e+07
       687.80000  1.90049e-06  9.63166e+07
       687.90000  1.90049e-06  9.63166e+07
       688.00000  1.90049e-06  9.62976e+07
       688.10000  1.90049e-06  9.62976e+07
       688.20000  1.90049e-06  9.62976e+07
       688.30000  1.90049e-06  9.62786e+07
       688.40000  1.90049e-06  9.62786e+07
       688.50000  9.75678e-06  4.94181e+08
       688.60000  9.75678e-06  4.94083e+08
       688.70000  9.75678e-06  4.94083e+08
       688.80000  9.74434e-06  4.93356e+08
       688.90000  9.74434e-06  4.93258e+08
       689.00000  9.74434e-06  4.93161e+08
       689.10000  9.74434e-06  4.93064e+08
       689.20000  9.74434e-06  4.92966e+08
       689.30000  9.74434e-06  4.92869e+08
       689.40000  9.74434e-06  4.92771e+08
       689.50000  3.85775e-06  1.95048e+08
       689.60000  3.85775e-06  1.95009e+08
       689.70000  3.85775e-06  1.94932e+08
       689.80000  3.85775e-06  1.94894e+08
       689.90000  3.85775e-06  1.94855e+08
       690.00000  3.85775e-06  1.94778e+08
       690.10000  3.85775e-06  1.94701e+08
       690.20000  3.85775e-06  1.94662e+08
       690.30000  3.85775e-06  1.94585e+08
       690.40000  3.85775e-06  1.94508e+08
       690.50000  5.77084e-06  2.90908e+08
       690.60000  5.77084e-06  2.90793e+08
       690.70000  5.77084e-06  2.90677e+08
       690.80000  5.77084e-06  2.90562e+08
       690.90000  5.77084e-06  2.90447e+08
       691.00000  5.77084e-06  2.90331e+08
       691.10000  5.77084e-06  2.90447e+08
       691.20000  5.77084e-06  2.90504e+08
       691.30000  5.76533e-06  2.90342e+08
       691.40000  5.76533e-06  2.90400e+08
       691.50000  5.77047e-06  2.90716e+08
       691.60000  5.77047e-06  2.90832e+08
       691.70000  5.77047e-06  2.90890e+08
       691.80000  5.77047e-06  2.90947e+08
       691.90000  5.77047e-06  2.91005e+08
       692.00000  5.77047e-06  2.91005e+08
       692.10000  5.77047e-06  2.91063e+08
       692.20000  5.77047e-06  2.91120e+08
       692.30000  5.77047e-06  2.91120e+08
       692.40000  5.77047e-06  2.91120e+08
       692.50000  5.75813e-06  2.90555e+08
       692.60000  5.75813e-06  2.90555e+08
       692.70000  5.75813e-06  2.90555e+08
       692.80000  5.75813e-06  2.90555e+08
       692.90000  5.75813e-06  2.90555e+08
       693.00000  5.75813e-06  2.90498e+08
       693.10000  5.75813e-06  2.90498e+08
       693.20000  5.75813e-06  2.90440e+08
       693.30000  5.75813e-06  2.90383e+08
       693.40000  5.75813e-06  2.90325e+08
       693.50000  5.71613e-06  2.88150e+08
       693.60000  5.71613e-06  2.88093e+08
       693.70000  5.71613e-06  2.88036e+08
       693.80000  5.69346e-06  2.86836e+08
       693.90000  5.69346e-06  2.86722e+08
       694.00000  5.69346e-06  2.86666e+08
       694.10000  5.69346e-06  2.86609e+08
       694.20000  5.69346e-06  2.86495e+08
       694.30000  5.69346e-06  2.86438e+08
       694.40000  5.69346e-06  2.86324e+08
       694.50000  3.76178e-06  1.89105e+08
       694.60000  3.76178e-06  1.89067e+08
       694.70000  3.76178e-06  1.88992e+08
       694.80000  3.76178e-06  1.88917e+08
       694.90000  3.76178e-06  1.88842e+08
       695.00000  3.76178e-06  1.88766e+08
       695.10000  3.76178e-06  1.88691e+08
       695.20000  3.76178e-06  1.88616e+08
       695.30000  3.76178e-06  1.88503e+08
       695.40000  3.76178e-06  1.88428e+08
       695.50000  7.49622e-06  3.75336e+08
       695.60000  7.49622e-06  3.75111e+08
       695.70000  7.49622e-06  3.74961e+08
       695.80000  7.49622e-06  3.74736e+08
       695.90000  7.49622e-06  3.74511e+08
       696.00000  7.49622e-06  3.74361e+08
       696.10000  7.49622e-06  3.74136e+08
       696.20000  7.49622e-06  3.73911e+08
       696.30000  7.48886e-06  3.73320e+08
       696.40000  7.48886e-06  3.73095e+08
       696.50000  3.76240e-06  1.87330e+08
       696.60000  3.76240e-06  1.87217e+08
       696.70000  3.76240e-06  1.87066e+08
       696.80000  3.76240e-06  1.86953e+08
       696.90000  3.76240e-06  1.86841e+08
       697.00000  3.76240e-06  1.86690e+08
       697.10000  3.76240e-06  1.86953e+08
       697.20000  3.76240e-06  1.87142e+08
       697.30000  3.76240e-06  1.87367e+08
       697.40000  3.76240e-06  1.87555e+08
       697.50000  1.14242e-05  5.70067e+08
       697.60000  1.14242e-05  5.70524e+08
       697.70000  1.14242e-05  5.70981e+08
       697.80000  1.14242e-05  5.71323e+08
       697.90000  1.14242e-05  5.71666e+08
       698.00000  1.14242e-05  5.71895e+08
       698.10000  1.14242e-05  5.72123e+08
       698.20000  1.14242e-05  5.72352e+08
       698.30000  1.14242e-05  5.72466e+08
       698.40000  1.14242e-05  5.72580e+08
       698.50000  1.15718e-05  5.80097e+08
       698.60000  1.15718e-05  5.80097e+08
       698.70000  1.15718e-05  5.79981e+08
       698.80000  1.15521e-05  5.78876e+08
       698.90000  1.15521e-05  5.78760e+08
       699.00000  1.15521e-05  5.78529e+08
       699.10000  1.15521e-05  5.77489e+08
       699.20000  1.15521e-05  5.76334e+08
       699.30000  1.15521e-05  5.75410e+08
       699.40000  1.15521e-05  5.74370e+08
       699.50000  3.89252e-06  1.93225e+08
       699.60000  3.89252e-06  1.92913e+08
       699.70000  3.89252e-06  1.92641e+08
       699.80000  3.89252e-06  1.92368e+08
       699.90000  3.89252e-06  1.92096e+08
       700.00000  3.89252e-06  1.91862e+08
       700.10000  3.89252e-06  1.91629e+08
       700.20000  3.89252e-06  1.91395e+08
       700.30000  3.89252e-06  1.91201e+08
       700.40000  3.89252e-06  1.91006e+08
       700.50000  5.88063e-06  2.88268e+08
       700.60000  5.88063e-06  2.88033e+08
       700.70000  5.88063e-06  2.87798e+08
       700.80000  5.88063e-06  2.87622e+08
       700.90000  5.88063e-06  2.87445e+08
       701.00000  5.88063e-06  2.87269e+08
       701.10000  5.88063e-06  2.87210e+08
       701.20000  5.88063e-06  2.87151e+08
       701.30000  5.87661e-06  2.86896e+08
       701.40000  5.87661e-06  2.86896e+08
       701.50000  5.91617e-06  2.88827e+08
       701.60000  5.91617e-06  2.88827e+08
       701.70000  5.91617e-06  2.88827e+08
       701.80000  5.91617e-06  2.88887e+08
       701.90000  5.91617e-06  2.88887e+08
       702.00000  5.91617e-06  2.88946e+08
       702.10000  5.91617e-06  2.89064e+08
       702.20000  5.91617e-06  2.89123e+08
       702.30000  5.91617e-06  2.89242e+08
       702.40000  5.91617e-06  2.89301e+08
       702.50000  7.93317e-06  3.88091e+08
       702.60000  7.93317e-06  3.88328e+08
       702.70000  7.93317e-06  3.88487e+08
       702.80000  7.93317e-06  3.88725e+08
       702.90000  7.93317e-06  3.88963e+08
       703.00000  7.93317e-06  3.89201e+08
       703.10000  7.93317e-06  3.89915e+08
       703.20000  7.93317e-06  3.90629e+08
       703.30000  7.93317e-06  3.91264e+08
       703.40000  7.93317e-06  3.91898e+08
       703.50000  7.97924e-06  3.94733e+08
       703.60000  7.97924e-06  3.95372e+08
       703.70000  7.97924e-06  3.95850e+08
       703.80000  7.95777e-06  3.95342e+08
       703.90000  7.95777e-06  3.95819e+08
       704.00000  7.95777e-06  3.96217e+08
       704.10000  7.95777e-06  3.96695e+08
       704.20000  7.95777e-06  3.97093e+08
       704.30000  7.95777e-06  3.97411e+08
       704.40000  7.95777e-06  3.97729e+08
       704.50000  1.06416e-06  5.32292e+07
       704.60000  1.06416e-06  5.32717e+07
       704.70000  1.06416e-06  5.33037e+07
       704.80000  1.06416e-06  5.33249e+07
       704.90000  1.06416e-06  5.33569e+07
       705.00000  1.06416e-06  5.33781e+07
       705.10000  1.06416e-06  5.33888e+07
       705.20000  1.06416e-06  5.33994e+07
       705.30000  1.06416e-06  5.34101e+07
       705.40000  1.06416e-06  5.34207e+07
       705.50000  6.00900e-06  3.01652e+08
       705.60000  6.00900e-06  3.01652e+08
       705.70000  6.00900e-06  3.01592e+08
       705.80000  6.00900e-06  3.01532e+08
       705.90000  6.00900e-06  3.01472e+08
       706.00000  6.00900e-06  3.01351e+08
       706.10000  6.00900e-06  3.01231e+08
       706.20000  6.00900e-06  3.01051e+08
       706.30000  6.01352e-06  3.01097e+08
       706.40000  6.01352e-06  3.00916e+08
       706.50000  1.00350e-05  5.01750e+08
       706.60000  1.00350e-05  5.01348e+08
       706.70000  1.00350e-05  5.00947e+08
       706.80000  1.00350e-05  5.00445e+08
       706.90000  1.00350e-05  4.99943e+08
       707.00000  1.00350e-05  4.99442e+08
       707.10000  1.00350e-05  4.99040e+08
       707.20000  1.00350e-05  4.98739e+08
       707.30000  1.00350e-05  4.98338e+08
       707.40000  1.00350e-05  4.98037e+08
       707.50000  6.02097e-06  2.98640e+08
       707.60000  6.02097e-06  2.98460e+08
       707.70000  6.02097e-06  2.98339e+08
       707.80000  6.02097e-06  2.98159e+08
       707.90000  6.02097e-06  2.98038e+08
       708.00000  6.02097e-06  2.97918e+08
       708.10000  6.02097e-06  2.97797e+08
       708.20000  6.02097e-06  2.97677e+08
       708.30000  6.02097e-06  2.97557e+08
       708.40000  6.02097e-06  2.97436e+08
       708.50000  2.00192e-06  9.88746e+07
       708.60000  2.00192e-06  9.88346e+07
       708.70000  2.00192e-06  9.88146e+07
       708.80000  1.99510e-06  9.84582e+07
       708.90000  1.99510e-06  9.84383e+07
       709.00000  1.99510e-06  9.84383e+07
       709.10000  1.99510e-06  9.84782e+07
       709.20000  1.99510e-06  9.85180e+07
       709.30000  1.99510e-06  9.85380e+07
       709.40000  1.99510e-06  9.85779e+07
       709.50000  3.97229e-06  1.96311e+08
       709.60000  3.97229e-06  1.96390e+08
       709.70000  3.97229e-06  1.96430e+08
       709.80000  3.97229e-06  1.96470e+08
       709.90000  3.97229e-06  1.96509e+08
       710.00000  3.97229e-06  1.96549e+08
       710.10000  3.97229e-06  1.96589e+08
       710.20000  3.97229e-06  1.96628e+08
       710.30000  3.97229e-06  1.96628e+08
       710.40000  3.97229e-06  1.96668e+08
       710.50000  5.91072e-06  2.92640e+08
       710.60000  5.91072e-06  2.92640e+08
       710.70000  5.91072e-06  2.92640e+08
       710.80000  5.91072e-06  2.92640e+08
       710.90000  5.91072e-06  2.92640e+08
       711.00000  5.91072e-06  2.92640e+08
       711.10000  5.91072e-06  2.92640e+08
       711.20000  5.91072e-06  2.92581e+08
       711.30000  5.91200e-06  2.92644e+08
       711.40000  5.91200e-06  2.92585e+08
       711.50000  9.74249e-06  4.82058e+08
       711.60000  9.74249e-06  4.81961e+08
       711.70000  9.74249e-06  4.81863e+08
       711.80000  9.74249e-06  4.81766e+08
       711.90000  9.74249e-06  4.81669e+08
       712.00000  9.74249e-06  4.81474e+08
       712.10000  9.74249e-06  4.81376e+08
       712.20000  9.74249e-06  4.81181e+08
       712.30000  9.74249e-06  4.81084e+08
       712.40000  9.74249e-06  4.80889e+08
       712.50000  5.75651e-06  2.84026e+08
       712.60000  5.75651e-06  2.83911e+08
       712.70000  5.75651e-06  2.83738e+08
       712.80000  5.75651e-06  2.83623e+08
       712.90000  5.75651e-06  2.83508e+08
       713.00000  5.75651e-06  2.83335e+08
       713.10000  5.75651e-06  2.83335e+08
       713.20000  5.75651e-06  2.83335e+08
       713.30000  5.75651e-06  2.83335e+08
       713.40000  5.75651e-06  2.83278e+08
       713.50000  7.56907e-06  3.72474e+08
       713.60000  7.56907e-06  3.72474e+08
       713.70000  7.56907e-06  3.72398e+08
       713.80000  7.56730e-06  3.72311e+08
       713.90000  7.56730e-06  3.72236e+08
       714.00000  7.56730e-06  3.72236e+08
       714.10000  7.56730e-06  3.72160e+08
       714.20000  7.56730e-06  3.72084e+08
       714.30000  7.56730e-06  3.72084e+08
       714.40000  7.56730e-06  3.72008e+08
       714.50000  3.74435e-06  1.84035e+08
       714.60000  3.74435e-06  1.83997e+08
       714.70000  3.74435e-06  1.83997e+08
       714.80000  3.74435e-06  1.83960e+08
       714.90000  3.74435e-06  1.83922e+08
       715.00000  3.74435e-06  1.83885e+08
       715.10000  3.74435e-06  1.83847e+08
       715.20000  3.74435e-06  1.83847e+08
       715.30000  3.74435e-06  1.83847e+08
       715.40000  3.74435e-06  1.83810e+08
       715.50000  5.58881e-06  2.74299e+08
       715.60000  5.58881e-06  2.74243e+08
       715.70000  5.58881e-06  2.74187e+08
       715.80000  5.58881e-06  2.74131e+08
       715.90000  5.58881e-06  2.74075e+08
       716.00000  5.58881e-06  2.73964e+08
       716.10000  5.58881e-06  2.73908e+08
       716.20000  5.58881e-06  2.73796e+08
       716.30000  5.58076e-06  2.73290e+08
       716.40000  5.58076e-06  2.73178e+08
       716.50000  7.45155e-06  3.64604e+08
       716.60000  7.45155e-06  3.64455e+08
       716.70000  7.45155e-06  3.64306e+08
       716.80000  7.45155e-06  3.64083e+08
       716.90000  7.45155e-06  3.63934e+08
       717.00000  7.45155e-06  3.63710e+08
       717.10000  7.45155e-06  3.63487e+08
       717.20000  7.45155e-06  3.63263e+08
       717.30000  7.45155e-06  3.63039e+08
       717.40000  7.45155e-06  3.62816e+08
       717.50000  5.61506e-06  2.73229e+08
       717.60000  5.61506e-06  2.73004e+08
       717.70000  5.61506e-06  2.72836e+08
       717.80000  5.61506e-06  2.72611e+08
       717.90000  5.61506e-06  2.72387e+08
       718.00000  5.61506e-06  2.72162e+08
       718.10000  5.61506e-06  2.71938e+08
       718.20000  5.61506e-06  2.71713e+08
       718.30000  5.61506e-06  2.71488e+08
       718.40000  5.61506e-06  2.71208e+08
       718.50000  7.53666e-06  3.63719e+08
       718.60000  7.53666e-06  3.63343e+08
       718.70000  7.53666e-06  3.62966e+08
       718.80000  7.50571e-06  3.61100e+08
       718.90000  7.50571e-06  3.60724e+08
       719.00000  7.50571e-06  3.60349e+08
       719.10000  7.50571e-06  3.60349e+08
       719.20000  7.50571e-06  3.60349e+08
       719.30000  7.50571e-06  3.60349e+08
       719.40000  7.50571e-06  3.60424e+08
       719.50000  3.78636e-06  1.81821e+08
       719.60000  3.78636e-06  1.81859e+08
       719.70000  3.78636e-06  1.81859e+08
       719.80000  3.78636e-06  1.81897e+08
       719.90000  3.78636e-06  1.81935e+08
       720.00000  3.78636e-06  1.82011e+08
       720.10000  3.78636e-06  1.82048e+08
       720.20000  3.78636e-06  1.82086e+08
       720.30000  3.78636e-06  1.82162e+08
       720.40000  3.78636e-06  1.82200e+08
       720.50000  9.44368e-06  4.54619e+08
       720.60000  9.44368e-06  4.54808e+08
       720.70000  9.44368e-06  4.54997e+08
       720.80000  9.44368e-06  4.55185e+08
       720.90000  9.44368e-06  4.55469e+08
       721.00000  9.44368e-06  4.55658e+08
       721.10000  9.44368e-06  4.56130e+08
       721.20000  9.44368e-06  4.56602e+08
       721.30000  9.42446e-06  4.56144e+08
       721.40000  9.42446e-06  4.56521e+08
       721.50000  9.01063e-06  4.36925e+08
       721.60000  9.01063e-06  4.37286e+08
       721.70000  9.01063e-06  4.37646e+08
       721.80000  9.01063e-06  4.38097e+08
       721.90000  9.01063e-06  4.38457e+08
       722.00000  9.01063e-06  4.38728e+08
       722.10000  9.01063e-06  4.39088e+08
       722.20000  9.01063e-06  4.39448e+08
       722.30000  9.01063e-06  4.39719e+08
       722.40000  9.01063e-06  4.39989e+08
       722.50000  6.35468e-06  3.10490e+08
       722.60000  6.35468e-06  3.10744e+08
       722.70000  6.35468e-06  3.10871e+08
       722.80000  6.35468e-06  3.11061e+08
       722.90000  6.35468e-06  3.11252e+08
       723.00000  6.35468e-06  3.11379e+08
       723.10000  6.35468e-06  3.11570e+08
       723.20000  6.35468e-06  3.11697e+08
       723.30000  6.35468e-06  3.11824e+08
       723.40000  6.35468e-06  3.11951e+08
       723.50000  2.51009e-06  1.23271e+08
       723.60000  2.51009e-06  1.23296e+08
       723.70000  2.51009e-06  1.23346e+08
       723.80000  2.50239e-06  1.22993e+08
       723.90000  2.50239e-06  1.23018e+08
       724.00000  2.50239e-06  1.23043e+08
       724.10000  2.50239e-06  1.23068e+08
       724.20000  2.50239e-06  1.23093e+08
       724.30000  2.50239e-06  1.23118e+08
       724.40000  2.50239e-06  1.23143e+08
       724.50000  3.54890e-06  1.74641e+08
       724.60000  3.54890e-06  1.74641e+08
       724.70000  3.54890e-06  1.74641e+08
       724.80000  3.54890e-06  1.74641e+08
       724.90000  3.54890e-06  1.74641e+08
       725.00000  3.54890e-06  1.74641e+08
       725.10000  3.54890e-06  1.74712e+08
       725.20000  3.54890e-06  1.74783e+08
       725.30000  3.54890e-06  1.74819e+08
       725.40000  3.54890e-06  1.74890e+08
       725.50000  1.78621e-06  8.80424e+07
       725.60000  1.78621e-06  8.80603e+07
       725.70000  1.78621e-06  8.80603e+07
       725.80000  1.78621e-06  8.80781e+07
       725.90000  1.78621e-06  8.80781e+07
       726.00000  1.78621e-06  8.80781e+07
       726.10000  1.78621e-06  8.80781e+07
       726.20000  1.78621e-06  8.80781e+07
       726.30000  1.78156e-06  8.78311e+07
       726.40000  1.78156e-06  8.78133e+07
       726.50000  1.17331e-06  5.78208e+07
       726.60000  1.17331e-06  5.78090e+07
       726.70000  1.17331e-06  5.77973e+07
       726.80000  1.17331e-06  5.77739e+07
       726.90000  1.17331e-06  5.77504e+07
       727.00000  1.17331e-06  5.77269e+07
       727.10000  1.17331e-06  5.76448e+07
       727.20000  1.17331e-06  5.75627e+07
       727.30000  1.17331e-06  5.74805e+07
       727.40000  1.17331e-06  5.74101e+07
       727.50000  7.79368e-07  3.80877e+07
       727.60000  7.79368e-07  3.80409e+07
       727.70000  7.79368e-07  3.80020e+07
       727.80000  7.79368e-07  3.79630e+07
       727.90000  7.79368e-07  3.79240e+07
       728.00000  7.79368e-07  3.78929e+07
       728.10000  7.79368e-07  3.78617e+07
       728.20000  7.79368e-07  3.78305e+07
       728.30000  7.79368e-07  3.77993e+07
       728.40000  7.79368e-07  3.77760e+07
       728.50000  8.67821e-07  4.20372e+07
       728.60000  8.67821e-07  4.20199e+07
       728.70000  8.67821e-07  4.19939e+07
       728.80000  8.68004e-07  4.19940e+07
       728.90000  8.68004e-07  4.19767e+07
       729.00000  8.68004e-07  4.19680e+07
       729.10000  8.68004e-07  4.19593e+07
       729.20000  8.68004e-07  4.19506e+07
       729.30000  8.68004e-07  4.19506e+07
       729.40000  8.68004e-07  4.19420e+07
       729.50000  3.51879e-07  1.70063e+07
       729.60000  3.51879e-07  1.70063e+07
       729.70000  3.51879e-07  1.70098e+07
       729.80000  3.51879e-07  1.70133e+07
       729.90000  3.51879e-07  1.70204e+07
       730.00000  3.51879e-07  1.70274e+07
       730.10000  3.51879e-07  1.70345e+07
       730.20000  3.51879e-07  1.70415e+07
       730.30000  3.51879e-07  1.70521e+07
       730.40000  3.51879e-07  1.70626e+07
       730.50000  1.60435e-07  7.78432e+06
       730.60000  1.60435e-07  7.79074e+06
       730.70000  1.60435e-07  7.79716e+06
       730.80000  1.60435e-07  7.80358e+06
       730.90000  1.60435e-07  7.81160e+06
       731.00000  1.60435e-07  7.81962e+06
       731.10000  1.60435e-07  7.81802e+06
       731.20000  1.60435e-07  7.81641e+06
       731.30000  1.60317e-07  7.80906e+06
       731.40000  1.60317e-07  7.80906e+06
       731.50000  1.64801e-07  8.02583e+06
       731.60000  1.64801e-07  8.02418e+06
       731.70000  1.64801e-07  8.02253e+06
       731.80000  1.64801e-07  8.02253e+06
       731.90000  1.64801e-07  8.02089e+06
       732.00000  1.64801e-07  8.01924e+06
       732.10000  1.64801e-07  8.01759e+06
       732.20000  1.64801e-07  8.01594e+06
       732.30000  1.64801e-07  8.01594e+06
       732.40000  1.64801e-07  8.01429e+06
       732.50000  1.15159e-07  5.59903e+06
       732.60000  1.15159e-07  5.59788e+06
       732.70000  1.15159e-07  5.59673e+06
       732.80000  1.15159e-07  5.59558e+06
       732.90000  1.15159e-07  5.59443e+06
       733.00000  1.15159e-07  5.59327e+06
       733.10000  1.15159e-07  5.59212e+06
       733.20000  1.15159e-07  5.58982e+06
       733.30000  1.15159e-07  5.58867e+06
       733.40000  1.15159e-07  5.58636e+06
       733.50000  1.11322e-07  5.39914e+06
       733.60000  1.11322e-07  5.39803e+06
       733.70000  1.11322e-07  5.39580e+06
       733.80000  1.11139e-07  5.38578e+06
       733.90000  1.11139e-07  5.38467e+06
       734.00000  1.11139e-07  5.38355e+06
       734.10000  1.11139e-07  5.38244e+06
       734.20000  1.11139e-07  5.38133e+06
       734.30000  1.11139e-07  5.38022e+06
       734.40000  1.11139e-07  5.38022e+06
       734.50000  1.78736e-08      865084.
       734.60000  1.78736e-08      864905.
       734.70000  1.78736e-08      864905.
       734.80000  1.78736e-08      864727.
       734.90000  1.78736e-08      864727.
       735.00000  1.78736e-08      864548.
       735.10000  1.78736e-08      864548.
       735.20000  1.78736e-08      864548.
       735.30000  1.78736e-08      864548.
       735.40000  1.78736e-08      864369.
       735.50000  1.04534e-08      505524.
       735.60000  1.04534e-08      505524.
       735.70000  1.04534e-08      505524.
       735.80000  1.04534e-08      505629.
       735.90000  1.04534e-08      505629.
       736.00000  1.04534e-08      505629.
       736.10000  1.04534e-08      505629.
       736.20000  1.04534e-08      505733.
       736.30000  1.04334e-08      504768.
       736.40000  1.04334e-08      504872.
       736.50000  2.49783e-08  1.20870e+06
       736.60000  2.49783e-08  1.20895e+06
       736.70000  2.49783e-08  1.20920e+06
       736.80000  2.49783e-08  1.20920e+06
       736.90000  2.49783e-08  1.20945e+06
       737.00000  2.49783e-08  1.20970e+06
       737.10000  2.49783e-08  1.20845e+06
       737.20000  2.49783e-08  1.20695e+06
       737.30000  2.49783e-08  1.20570e+06
       737.40000  2.49783e-08  1.20445e+06
       737.50000  5.02523e-08  2.42015e+06
       737.60000  5.02523e-08  2.41764e+06
       737.70000  5.02523e-08  2.41512e+06
       737.80000  5.02523e-08  2.41261e+06
       737.90000  5.02523e-08  2.41060e+06
       738.00000  5.02523e-08  2.40809e+06
       738.10000  5.02523e-08  2.40558e+06
       738.20000  5.02523e-08  2.40306e+06
       738.30000  5.02523e-08  2.40105e+06
       738.40000  5.02523e-08  2.39904e+06
       738.50000  1.63654e-08      780465.
       738.60000  1.63654e-08      779811.
       738.70000  1.63654e-08      779156.
       738.80000  1.62966e-08      775231.
       738.90000  1.62966e-08      774579.
       739.00000  1.62966e-08      773928.
       741.00000  5.17139e-09      242383.
       741.10000  5.17139e-09      242486.
       741.20000  5.17139e-09      242590.
       741.30000  5.16787e-09      242528.
       741.40000  5.16787e-09      242683.
       741.50000  3.95095e-09      185655.
       741.60000  3.95095e-09      185813.
       741.70000  3.95095e-09      186011.
       741.80000  3.95095e-09      186169.
       741.90000  3.95095e-09      186406.
       742.00000  3.95095e-09      186604.
       742.10000  3.95095e-09      186841.
       742.20000  3.95095e-09      187117.
       742.30000  3.95095e-09      187394.
       742.40000  3.95095e-09      187670.
       742.50000  9.39780e-09      447147.
       742.60000  9.39780e-09      447899.
       742.70000  9.39780e-09      448745.
       742.80000  9.39780e-09      449591.
       742.90000  9.39780e-09      450530.
       743.00000  9.39780e-09      451470.
       743.10000  9.39780e-09      451282.
       743.20000  9.39780e-09      451188.
       743.30000  9.39780e-09      451094.
       743.40000  9.39780e-09      450906.
       743.50000  2.36633e-09      113513.
       743.60000  2.36633e-09      113489.
       743.70000  2.36633e-09      113466.
       743.80000  2.36527e-09      113391.
       743.90000  2.36527e-09      113368.
       744.00000  2.36527e-09      113344.
       744.10000  2.36527e-09      113344.
       744.20000  2.36527e-09      113320.
       744.30000  2.36527e-09      113320.
       744.40000  2.36527e-09      113320.
       744.50000  1.77431e-09      84989.6
       744.60000  1.77431e-09      84989.6
       744.70000  1.77431e-09      84989.6
       744.80000  1.77431e-09      84989.6
       744.90000  1.77431e-09      85007.3
       745.00000  1.77431e-09      85007.3
       745.10000  1.77431e-09      85060.5
       745.20000  1.77431e-09      85113.8
       745.30000  1.77431e-09      85149.3
       745.40000  1.77431e-09      85202.5
       745.50000  2.84829e-09      136832.
       745.60000  2.84829e-09      136889.
       745.70000  2.84829e-09      136946.
       745.80000  2.84829e-09      137003.
       745.90000  2.84829e-09      137031.
       746.00000  2.84829e-09      137088.
       746.10000  2.84829e-09      137117.
       746.20000  2.84829e-09      137145.
       746.30000  2.83530e-09      136548.
       746.40000  2.83530e-09      136576.
       746.50000  5.34453e-09      257499.
       746.60000  5.34453e-09      257499.
       746.70000  5.34453e-09      257553.
       746.80000  5.34453e-09      257553.
       746.90000  5.34453e-09      257553.
       747.00000  5.34453e-09      257553.
       747.10000  5.34453e-09      257393.
       747.20000  5.34453e-09      257286.
       747.30000  5.34453e-09      257179.
       747.40000  5.34453e-09      257072.
       747.50000  9.16381e-10      44059.6
       747.60000  9.16381e-10      44041.2
       747.70000  9.16381e-10      44022.9
       747.80000  9.16381e-10      44004.6
       747.90000  9.16381e-10      43986.3
       748.00000  9.16381e-10      43967.9
       750.00000  1.21801e-09      58123.4
       750.10000  1.21801e-09      58111.2
       750.20000  1.21801e-09      58099.1
       750.30000  1.21801e-09      58086.9
       750.40000  1.21801e-09      58086.9
       750.50000  2.00141e-09      95427.2
       750.60000  2.00141e-09      95407.2
       750.70000  2.00141e-09      95407.2
       750.80000  2.00141e-09      95387.2
       750.90000  2.00141e-09      95387.2
       751.00000  2.00141e-09      95367.2
       751.10000  2.00141e-09      95367.2
       751.20000  2.00141e-09      95367.2
       751.30000  1.99693e-09      95133.8
       751.40000  1.99693e-09      95133.8
       751.50000  4.10320e-10      19547.7
       751.60000  4.10320e-10      19547.7
       751.70000  4.10320e-10      19547.7
       751.80000  4.10320e-10      19547.7
       751.90000  4.10320e-10      19547.7
       752.00000  4.10320e-10      19547.7
       752.10000  4.10320e-10      19547.7
       752.20000  4.10320e-10      19547.7
       752.30000  4.10320e-10      19547.7
       752.40000  4.10320e-10      19547.7
       752.50000  1.16026e-09      55286.3
       752.60000  1.16026e-09      55286.3
       752.70000  1.16026e-09      55286.3
       752.80000  1.16026e-09      55297.9
       752.90000  1.16026e-09      55297.9
       753.00000  1.16026e-09      55309.5
       755.00000  8.28971e-10      39492.2
       755.10000  8.28971e-10      39483.9
       755.20000  8.28971e-10      39483.9
       755.30000  8.28971e-10      39475.6
       755.40000  8.28971e-10      39475.6
       755.50000  1.01502e-09      48325.2
       755.60000  1.01502e-09      48315.1
       755.70000  1.01502e-09      48315.1
       755.80000  1.01502e-09      48304.9
       755.90000  1.01502e-09      48294.8
       756.00000  1.01502e-09      48294.8
       756.10000  1.01502e-09      48284.6
       756.20000  1.01502e-09      48274.5
       756.30000  1.01340e-09      48187.4
       756.40000  1.01340e-09      48187.4
       756.50000  4.62061e-10      21966.4
       756.60000  4.62061e-10      21961.8
       756.70000  4.62061e-10      21957.2
       756.80000  4.62061e-10      21957.2
       756.90000  4.62061e-10      21952.5
       757.00000  4.62061e-10      21947.9
       757.10000  4.62061e-10      21943.3
       757.20000  4.62061e-10      21938.7
       757.30000  4.62061e-10      21938.7
       757.40000  4.62061e-10      21934.1
       757.50000  1.72387e-11      818.147
       757.60000  1.72387e-11      817.975
       757.70000  1.72387e-11      817.802
       757.80000  1.72387e-11      817.630
       757.90000  1.72387e-11      817.458
       758.00000  1.72387e-11      817.458
       758.10000  1.72387e-11      817.285
       758.20000  1.72387e-11      817.113
       758.30000  1.72387e-11      816.940
       758.40000  1.72387e-11      816.768
       758.50000  9.35270e-10      44303.7
       758.60000  9.35270e-10      44294.4
       758.70000  9.35270e-10      44285.0
       758.80000  9.32746e-10      44156.2
       758.90000  9.32746e-10      44146.9
       759.00000  9.32746e-10      44137.5
       759.10000  9.32746e-10      44137.5
       759.20000  9.32746e-10      44128.2
       759.30000  9.32746e-10      44128.2
       759.40000  9.32746e-10      44118.9
       759.50000  3.71127e-10      17554.3
       759.60000  3.71127e-10      17554.3
       759.70000  3.71127e-10      17550.6
       759.80000  3.71127e-10      17550.6
       759.90000  3.71127e-10      17550.6
       760.00000  3.71127e-10      17550.6
       760.10000  3.71127e-10      17550.6
       760.20000  3.71127e-10      17550.6
       760.30000  3.71127e-10      17554.3
       760.40000  3.71127e-10      17554.3
       760.50000  8.15284e-11      3856.29
       760.60000  8.15284e-11      3857.11
       760.70000  8.15284e-11      3857.11
       760.80000  8.15284e-11      3857.93
       760.90000  8.15284e-11      3857.93
       761.00000  8.15284e-11      3858.74
       763.00000  4.85953e-10      23136.2
       763.10000  4.85953e-10      23131.4
       763.20000  4.85953e-10      23126.5
       763.30000  4.85953e-10      23116.8
       763.40000  4.85953e-10      23107.1
       763.50000  3.02090e-10      14358.4
       763.60000  3.02090e-10      14352.3
       763.70000  3.02090e-10      14346.3
       763.80000  3.01317e-10      14300.5
       763.90000  3.01317e-10      14291.5
       764.00000  3.01317e-10      14282.4
       764.10000  3.01317e-10      14273.4
       764.20000  3.01317e-10      14261.3
       764.30000  3.01317e-10      14249.3
       764.40000  3.01317e-10      14237.2
       764.50000  1.99788e-10      9432.00
       764.60000  1.99788e-10      9424.00
       764.70000  1.99788e-10      9414.01
       764.80000  1.99788e-10      9404.03
       764.90000  1.99788e-10      9394.04
       765.00000  1.99788e-10      9382.05
       765.10000  1.99788e-10      9360.07
       765.20000  1.99788e-10      9338.09
       765.30000  1.99788e-10      9318.12
       765.40000  1.99788e-10      9298.14
       765.50000  7.94816e-11      3691.92
       765.60000  7.94816e-11      3685.56
       765.70000  7.94816e-11      3678.41
       765.80000  7.94816e-11      3672.84
       765.90000  7.94816e-11      3667.28
       766.00000  7.94816e-11      3661.72
       766.10000  7.94816e-11      3656.95
       766.20000  7.94816e-11      3652.18
       766.30000  7.94795e-11      3648.11
       766.40000  7.94795e-11      3644.93
       766.50000  1.77848e-10      8148.99
       766.60000  1.77848e-10      8141.87
       766.70000  1.77848e-10      8138.31
       766.80000  1.77848e-10      8132.98
       766.90000  1.77848e-10      8129.42
       767.00000  1.77848e-10      8127.64
       767.10000  1.77848e-10      8136.54
       767.20000  1.77848e-10      8147.21
       767.30000  1.77848e-10      8156.10
       767.40000  1.77848e-10      8164.99
       767.50000  1.17911e-10      5419.20
       767.60000  1.17911e-10      5425.09
       767.70000  1.17911e-10      5430.99
       767.80000  1.17911e-10      5435.70
       767.90000  1.17911e-10      5441.60
       768.00000  1.17911e-10      5446.32
       768.10000  1.17911e-10      5451.03
       768.20000  1.17911e-10      5455.75
       768.30000  1.17911e-10      5459.29
       768.40000  1.17911e-10      5464.00
       768.50000  1.56348e-10      7249.84
       768.60000  1.56348e-10      7254.53
       768.70000  1.56348e-10      7259.22
       768.80000  1.56265e-10      7260.05
       768.90000  1.56265e-10      7264.74
       769.00000  1.56265e-10      7267.87
       769.10000  1.56265e-10      7272.56
       769.20000  1.56265e-10      7275.68
       769.30000  1.56265e-10      7278.81
       769.40000  1.56265e-10      7281.93
       769.50000  7.76965e-11      3621.44
       769.60000  7.76965e-11      3622.99
       769.70000  7.76965e-11      3623.77
       769.80000  7.76965e-11      3625.32
       769.90000  7.76965e-11      3626.10
       770.00000  7.76965e-11      3626.10
       770.10000  7.76965e-11      3626.87
       770.20000  7.76965e-11      3627.65
       770.30000  7.76965e-11      3627.65
       770.40000  7.76965e-11      3627.65
       770.50000  5.79456e-11      2705.48
       770.60000  5.79456e-11      2705.48
       770.70000  5.79456e-11      2705.48
       770.80000  5.79456e-11      2705.48
       770.90000  5.79456e-11      2704.90
       771.00000  5.79456e-11      2704.32
       771.10000  5.79456e-11      2706.64
       771.20000  5.79456e-11      2708.38
       771.30000  5.77682e-11      2701.82
       771.40000  5.77682e-11      2703.55
       771.50000  1.14888e-10      5380.22
       771.60000  1.14888e-10      5382.52
       771.70000  1.14888e-10      5385.97
       771.80000  1.14888e-10      5388.26
       771.90000  1.14888e-10      5389.41
       772.00000  1.14888e-10      5391.71
       772.10000  1.14888e-10      5392.86
       772.20000  1.14888e-10      5394.01
       772.30000  1.14888e-10      5395.16
       772.40000  1.14888e-10      5396.31
       772.50000  3.80789e-11      1788.57
       772.60000  3.80789e-11      1788.57
       772.70000  3.80789e-11      1788.57
       772.80000  3.80789e-11      1788.18
       772.90000  3.80789e-11      1788.18
       773.00000  3.80789e-11      1787.80
       773.10000  3.80789e-11      1785.52
       773.20000  3.80789e-11      1783.62
       773.30000  3.80789e-11      1781.33
       773.40000  3.80789e-11      1779.43
       773.50000  7.42967e-11      3468.17
       773.60000  7.42967e-11      3465.20
       773.70000  7.42967e-11      3462.23
       773.80000  7.40028e-11      3445.57
       773.90000  7.40028e-11      3442.61
       774.00000  7.40028e-11      3439.65
       774.10000  7.40028e-11      3437.43
       774.20000  7.40028e-11      3435.21
       774.30000  7.40028e-11      3433.73
       774.40000  7.40028e-11      3431.51
       774.50000  1.66926e-11      773.702
       774.60000  1.66926e-11      773.535
       774.70000  1.66926e-11      773.201
       774.80000  1.66926e-11      773.034
       774.90000  1.66926e-11      772.867
       775.00000  1.66926e-11      772.700
       775.10000  1.66926e-11      772.700
       775.20000  1.66926e-11      772.700
       775.30000  1.66926e-11      772.700
       775.40000  1.66926e-11      772.700
       775.50000  5.99207e-11      2774.33
       775.60000  5.99207e-11      2774.93
       775.70000  5.99207e-11      2775.53
       775.80000  5.99207e-11      2776.12
       775.90000  5.99207e-11      2777.32
       776.00000  5.99207e-11      2778.52
       776.10000  5.99207e-11      2779.72
       776.20000  5.99207e-11      2781.52
       776.30000  5.97688e-11      2776.26
       776.40000  5.97688e-11      2778.05
       776.50000  6.98182e-11      3247.25
       776.60000  6.98182e-11      3250.04
       776.70000  6.98182e-11      3252.83
       776.80000  6.98182e-11      3255.62
       776.90000  6.98182e-11      3259.11
       777.00000  6.98182e-11      3261.91
       777.10000  6.98182e-11      3260.51
       777.20000  6.98182e-11      3259.81
       777.30000  6.98182e-11      3258.42
       777.40000  6.98182e-11      3257.02
       777.50000  2.85023e-11      1329.06
       777.60000  2.85023e-11      1328.78
       777.70000  2.85023e-11      1328.21
       777.80000  2.85023e-11      1327.92
       777.90000  2.85023e-11      1327.64
       778.00000  2.85023e-11      1327.07
       778.10000  2.85023e-11      1326.78
       778.20000  2.85023e-11      1326.50
       778.30000  2.85023e-11      1326.21
       778.40000  2.85023e-11      1325.93
       778.50000  5.17108e-11      2405.58
       778.60000  5.17108e-11      2405.07
       778.70000  5.17108e-11      2404.55
       778.80000  5.15798e-11      2398.46
       778.90000  5.15798e-11      2398.46
       779.00000  5.15798e-11      2397.94
       779.10000  5.15798e-11      2398.98
       779.20000  5.15798e-11      2399.49
       779.30000  5.15798e-11      2400.52
       779.40000  5.15798e-11      2401.04
       779.50000  5.45559e-11      2540.12
       779.60000  5.45559e-11      2540.67
       779.70000  5.45559e-11      2541.21
       779.80000  5.45559e-11      2541.76
       779.90000  5.45559e-11      2542.30
       780.00000  5.45559e-11      2542.85
       780.10000  5.45559e-11      2542.85
       780.20000  5.45559e-11      2543.39
       780.30000  5.45559e-11      2543.39
       780.40000  5.45559e-11      2543.39
       780.50000  7.58747e-11      3537.28
       780.60000  7.58747e-11      3537.28
       780.70000  7.58747e-11      3537.28
       780.80000  7.58747e-11      3537.28
       780.90000  7.58747e-11      3537.28
       781.00000  7.58747e-11      3536.52
       781.10000  7.58747e-11      3536.52
       781.20000  7.58747e-11      3535.76
       781.30000  7.54529e-11      3515.35
       781.40000  7.54529e-11      3514.60
       781.50000  4.73061e-11      2203.05
       781.60000  4.73061e-11      2202.57
       781.70000  4.73061e-11      2202.10
       781.80000  4.73061e-11      2201.63
       781.90000  4.73061e-11      2200.68
       782.00000  4.73061e-11      2200.21
       782.10000  4.73061e-11      2199.26
       782.20000  4.73061e-11      2198.31
       782.30000  4.73061e-11      2197.84
       782.40000  4.73061e-11      2196.90
       782.50000  4.44470e-11      2063.23
       782.60000  4.44470e-11      2061.90
       782.70000  4.44470e-11      2061.01
       782.80000  4.44470e-11      2060.12
       782.90000  4.44470e-11      2058.78
       783.00000  4.44470e-11      2057.90
       783.10000  4.44470e-11      2058.78
       783.20000  4.44470e-11      2059.67
       783.30000  4.44470e-11      2060.56
       783.40000  4.44470e-11      2061.01
       783.50000  3.51763e-11      1631.83
       783.60000  3.51763e-11      1632.53
       783.70000  3.51763e-11      1632.89
       783.80000  3.49970e-11      1625.26
       783.90000  3.49970e-11      1625.96
       784.00000  3.49970e-11      1626.31
       784.10000  3.49970e-11      1626.66
       784.20000  3.49970e-11      1627.36
       784.30000  3.49970e-11      1627.71
       784.40000  3.49970e-11      1628.06
       784.50000  6.95681e-11      3237.00
       784.60000  6.95681e-11      3237.70
       784.70000  6.95681e-11      3238.39
       784.80000  6.95681e-11      3239.09
       784.90000  6.95681e-11      3239.78
       785.00000  6.95681e-11      3239.78
       785.10000  6.95681e-11      3239.78
       785.20000  6.95681e-11      3239.78
       785.30000  6.95681e-11      3239.78
       785.40000  6.95681e-11      3239.78
       785.50000  5.18583e-11      2415.04
       785.60000  5.18583e-11      2415.04
       785.70000  5.18583e-11      2415.04
       785.80000  5.18583e-11      2415.04
       785.90000  5.18583e-11      2415.04
       786.00000  5.18583e-11      2415.04
       786.10000  5.18583e-11      2415.04
       786.20000  5.18583e-11      2415.04
       786.30000  5.17714e-11      2410.99
       786.40000  5.17714e-11      2410.99
       786.50000  5.14524e-11      2396.14
       786.60000  5.14524e-11      2396.14
       786.70000  5.14524e-11      2396.14
       786.80000  5.14524e-11      2396.14
       786.90000  5.14524e-11      2396.14
       787.00000  5.14524e-11      2396.14
       787.10000  5.14524e-11      2396.14
       787.20000  5.14524e-11      2396.14
       787.30000  5.14524e-11      2396.14
       787.40000  5.14524e-11      2396.14
       787.50000  3.40902e-11      1587.58
       787.60000  3.40902e-11      1587.58
       787.70000  3.40902e-11      1587.58
       787.80000  3.40902e-11      1587.58
       787.90000  3.40902e-11      1587.58
       788.00000  3.40902e-11      1587.58
       788.10000  3.40902e-11      1587.58
       788.20000  3.40902e-11      1587.58
       788.30000  3.40902e-11      1587.58
       788.40000  3.40902e-11      1587.58
       788.50000  3.38775e-11      1577.68
       788.60000  3.38775e-11      1577.68
       788.70000  3.38775e-11      1577.68
       788.80000  3.38835e-11      1577.95
       788.90000  3.38835e-11      1577.95
       789.00000  3.38835e-11      1577.95
       789.10000  3.38835e-11      1577.28
       789.20000  3.38835e-11      1576.26
       789.30000  3.38835e-11      1575.24
       789.40000  3.38835e-11      1574.56
       789.50000  8.41770e-11      3909.18
       789.60000  8.41770e-11      3906.65
       789.70000  8.41770e-11      3904.97
       789.80000  8.41770e-11      3902.45
       789.90000  8.41770e-11      3899.92
       790.00000  8.41770e-11      3898.24
       790.10000  8.41770e-11      3895.71
       790.20000  8.41770e-11      3894.03
       790.30000  8.41770e-11      3891.50
       790.40000  8.41770e-11      3889.82
       790.50000  6.45658e-11      2981.65
       790.60000  6.45658e-11      2979.71
       790.70000  6.45658e-11      2978.42
       790.80000  6.45658e-11      2976.48
       790.90000  6.45658e-11      2975.19
       791.00000  6.45658e-11      2973.25
       791.10000  6.45658e-11      2971.32
       791.20000  6.45658e-11      2970.03
       791.30000  6.43776e-11      2959.44
       791.40000  6.43776e-11      2957.51
       791.50000  2.94025e-11      1349.87
       791.60000  2.94025e-11      1348.99
       791.70000  2.94025e-11      1348.40
       791.80000  2.94025e-11      1347.52
       791.90000  2.94025e-11      1346.93
       792.00000  2.94025e-11      1346.05
       792.10000  2.94025e-11      1345.46
       792.20000  2.94025e-11      1344.87
       792.30000  2.94025e-11      1343.99
       792.40000  2.94025e-11      1343.40
       792.50000  5.06832e-11      2314.70
       792.60000  5.06832e-11      2313.69
       792.70000  5.06832e-11      2312.67
       792.80000  5.06832e-11      2311.66
       792.90000  5.06832e-11      2310.65
       793.00000  5.06832e-11      2309.63
       793.10000  5.06832e-11      2308.11
       793.20000  5.06832e-11      2306.09
       793.30000  5.06832e-11      2304.57
       793.40000  5.06832e-11      2303.04
       793.50000  4.98240e-11      2262.51
       793.60000  4.98240e-11      2261.51
       793.70000  4.98240e-11      2260.02
       793.80000  4.96818e-11      2253.07
       793.90000  4.96818e-11      2252.08
       794.00000  4.96818e-11      2251.58
       794.10000  4.96818e-11      2250.59
       794.20000  4.96818e-11      2250.59
       794.30000  4.96818e-11      2250.09
       794.40000  4.96818e-11      2250.09
       794.50000  5.31364e-11      2406.55
       794.60000  5.31364e-11      2406.55
       794.70000  5.31364e-11      2407.08
       794.80000  5.31364e-11      2407.08
       794.90000  5.31364e-11      2407.61
       795.00000  5.31364e-11      2408.67
       795.10000  5.31364e-11      2412.39
       795.20000  5.31364e-11      2416.11
       795.30000  5.31364e-11      2419.83
       795.40000  5.31364e-11      2423.55
       795.50000  9.13760e-12      417.314
       795.60000  9.13760e-12      417.863
       795.70000  9.13760e-12      418.320
       795.80000  9.13760e-12      418.776
       795.90000  9.13760e-12      419.233
       796.00000  9.13760e-12      419.599
       796.10000  9.13760e-12      419.964
       796.20000  9.13760e-12      420.330
       796.30000  9.12544e-12      420.044
       796.40000  9.12544e-12      420.318
       796.50000  1.48773e-11      685.693
       796.60000  1.48773e-11      685.991
       796.70000  1.48773e-11      686.289
       796.80000  1.48773e-11      686.437
       796.90000  1.48773e-11      686.586
       797.00000  1.48773e-11      686.735
       797.10000  1.48773e-11      686.884
       797.20000  1.48773e-11      686.884
       797.30000  1.48773e-11      686.884
       797.40000  1.48773e-11      686.735
       797.50000  2.45685e-11      1133.84
       797.60000  2.45685e-11      1133.59
       797.70000  2.45685e-11      1133.10
       797.80000  2.45685e-11      1132.61
       797.90000  2.45685e-11      1132.12
       798.00000  2.45685e-11      1131.38
       798.10000  2.45685e-11      1130.64
       798.20000  2.45685e-11      1129.91
       798.30000  2.45685e-11      1128.92
       798.40000  2.45685e-11      1127.94
       798.50000  1.63069e-11      747.999
       798.60000  1.63069e-11      747.183
       798.70000  1.63069e-11      746.368
       798.80000  1.62696e-11      743.848
       798.90000  1.62696e-11      742.872
       799.00000  1.62696e-11      741.896
       799.10000  1.62696e-11      742.384
       799.20000  1.62696e-11      743.035
       799.30000  1.62696e-11      743.686
       799.40000  1.62696e-11      744.174
       799.50000  4.06140e-10      18589.0
       799.60000  4.06140e-10      18601.2
       799.70000  4.06140e-10      18613.4
       799.80000  4.06140e-10      18621.5
       799.90000  4.06140e-10      18629.6
       800.00000  4.06140e-10      18637.8
       800.10000  4.06140e-10      18645.9
       800.20000  4.06140e-10      18654.0
       800.30000  4.06140e-10      18662.1
       800.40000  4.06140e-10      18666.2
       800.50000  4.73139e-10      21750.2
       800.60000  4.73139e-10      21754.9
       800.70000  4.73139e-10      21754.9
       800.80000  4.73139e-10      21759.6
       800.90000  4.73139e-10      21759.6
       801.00000  4.73139e-10      21759.6
       801.10000  4.73139e-10      21750.2
       801.20000  4.73139e-10      21740.7
       801.30000  4.71750e-10      21667.5
       801.40000  4.71750e-10      21658.0
       801.50000  2.67100e-10      12257.2
       801.60000  2.67100e-10      12251.9
       801.70000  2.67100e-10      12246.6
       801.80000  2.67100e-10      12241.2
       801.90000  2.67100e-10      12235.9
       802.00000  2.67100e-10      12230.5
       802.10000  2.67100e-10      12225.2
       802.20000  2.67100e-10      12219.8
       802.30000  2.67100e-10      12214.5
       802.40000  2.67100e-10      12209.2
       802.50000  3.34338e-10      15275.9
       802.60000  3.34338e-10      15269.2
       802.70000  3.34338e-10      15262.5
       802.80000  3.34338e-10      15252.5
       802.90000  3.34338e-10      15245.8
       803.00000  3.34338e-10      15239.1
       803.10000  3.34338e-10      15232.4
       803.20000  3.34338e-10      15225.7
       803.30000  3.34338e-10      15219.1
       803.40000  3.34338e-10      15209.0
       803.50000  3.53964e-10      16094.7
       803.60000  3.53964e-10      16087.6
       803.70000  3.53964e-10      16080.6
       803.80000  3.52864e-10      16023.5
       803.90000  3.52864e-10      16013.0
       804.00000  3.52864e-10      16005.9
       804.10000  3.52864e-10      15998.8
       804.20000  3.52864e-10      15991.8
       804.30000  3.52864e-10      15981.2
       804.40000  3.52864e-10      15974.1
       804.50000  3.25368e-10      14722.9
       804.60000  3.25368e-10      14713.1
       804.70000  3.25368e-10      14706.6
       804.80000  3.25368e-10      14700.1
       804.90000  3.25368e-10      14690.4
       805.00000  3.25368e-10      14683.9
       805.10000  3.25368e-10      14696.9
       805.20000  3.25368e-10      14713.1
       805.30000  3.25368e-10      14722.9
       805.40000  3.25368e-10      14735.9
       805.50000  3.70778e-10      16803.7
       805.60000  3.70778e-10      16814.8
       805.70000  3.70778e-10      16825.9
       805.80000  3.70778e-10      16833.3
       805.90000  3.70778e-10      16840.7
       806.00000  3.70778e-10      16848.2
       806.10000  3.70778e-10      16851.9
       806.20000  3.70778e-10      16855.6
       806.30000  3.70053e-10      16826.3
       806.40000  3.70053e-10      16830.0
       806.50000  5.36456e-10      24398.0
       806.60000  5.36456e-10      24398.0
       806.70000  5.36456e-10      24392.6
       806.80000  5.36456e-10      24392.6
       806.90000  5.36456e-10      24387.3
       807.00000  5.36456e-10      24376.5
       807.10000  5.36456e-10      24333.6
       807.20000  5.36456e-10      24285.3
       807.30000  5.36456e-10      24242.4
       807.40000  5.36456e-10      24204.9
       807.50000  5.60510e-10      25251.0
       807.60000  5.60510e-10      25211.8
       807.70000  5.60510e-10      25178.1
       807.80000  5.60510e-10      25150.1
       807.90000  5.60510e-10      25122.1
       808.00000  5.60510e-10      25094.1
       808.10000  5.60510e-10      25071.6
       808.20000  5.60510e-10      25049.2
       808.30000  5.60510e-10      25026.8
       808.40000  5.60510e-10      25010.0
       808.50000  6.41283e-10      28601.2
       808.60000  6.41283e-10      28588.4
       808.70000  6.41283e-10      28575.6
       808.80000  6.40677e-10      28542.2
       808.90000  6.40677e-10      28535.7
       809.00000  6.40677e-10      28535.7
       809.10000  6.40677e-10      28535.7
       809.20000  6.40677e-10      28542.2
       809.30000  6.40677e-10      28548.6
       809.40000  6.40677e-10      28555.0
       809.50000  6.85671e-10      30574.1
       809.60000  6.85671e-10      30594.6
       809.70000  6.85671e-10      30615.2
       809.80000  6.85671e-10      30635.8
       809.90000  6.85671e-10      30663.2
       810.00000  6.85671e-10      30690.6
       810.10000  6.85671e-10      30724.9
       810.20000  6.85671e-10      30759.2
       810.30000  6.85671e-10      30793.5
       810.40000  6.85671e-10      30834.6
       810.50000  7.56548e-10      34074.9
       810.60000  7.56548e-10      34120.3
       810.70000  7.56548e-10      34180.8
       810.80000  7.56548e-10      34241.3
       810.90000  7.56548e-10      34301.9
       811.00000  7.56548e-10      34370.0
       811.10000  7.56548e-10      34377.5
       811.20000  7.56548e-10      34392.7
       811.30000  7.56049e-10      34377.6
       811.40000  7.56049e-10      34392.7
       811.50000  6.32676e-10      28786.7
       811.60000  6.32676e-10      28793.1
       811.70000  6.32676e-10      28799.4
       811.80000  6.32676e-10      28805.7
       811.90000  6.32676e-10      28812.1
       812.00000  6.32676e-10      28818.4
       812.10000  6.32676e-10      28818.4
       812.20000  6.32676e-10      28824.7
       812.30000  6.32676e-10      28831.0
       812.40000  6.32676e-10      28831.0
       812.50000  7.54284e-10      34372.7
       812.60000  7.54284e-10      34380.3
       812.70000  7.54284e-10      34380.3
       812.80000  7.54284e-10      34380.3
       812.90000  7.54284e-10      34380.3
       813.00000  7.54284e-10      34380.3
       813.10000  7.54284e-10      34365.2
       813.20000  7.54284e-10      34357.6
       813.30000  7.54284e-10      34342.6
       813.40000  7.54284e-10      34335.0
       813.50000  7.68782e-10      34979.6
       813.60000  7.68782e-10      34971.9
       813.70000  7.68782e-10      34964.2
       813.80000  7.68698e-10      34952.7
       813.90000  7.68698e-10      34945.0
       814.00000  7.68698e-10      34929.6
       814.10000  7.68698e-10      34921.9
       814.20000  7.68698e-10      34914.2
       814.30000  7.68698e-10      34906.6
       814.40000  7.68698e-10      34906.6
       814.50000  7.83056e-10      35550.7
       814.60000  7.83056e-10      35542.9
       814.70000  7.83056e-10      35535.1
       814.80000  7.83056e-10      35527.3
       814.90000  7.83056e-10      35527.3
       815.00000  7.83056e-10      35519.4
       815.10000  7.83056e-10      35550.7
       815.20000  7.83056e-10      35574.2
       815.30000  7.83056e-10      35597.7
       815.40000  7.83056e-10      35613.4
       815.50000  9.72286e-10      44248.7
       815.60000  9.72286e-10      44258.5
       815.70000  9.72286e-10      44277.9
       815.80000  9.72286e-10      44277.9
       815.90000  9.72286e-10      44287.6
       816.00000  9.72286e-10      44287.6
       816.10000  9.72286e-10      44287.6
       816.20000  9.72286e-10      44277.9
       816.30000  9.72259e-10      44266.9
       816.40000  9.72259e-10      44257.2
       816.50000  6.60505e-10      30053.0
       816.60000  6.60505e-10      30039.8
       816.70000  6.60505e-10      30020.0
       816.80000  6.60505e-10      30000.1
       816.90000  6.60505e-10      29980.3
       817.00000  6.60505e-10      29953.9
       817.10000  6.60505e-10      29861.4
       817.20000  6.60505e-10      29775.6
       817.30000  6.60505e-10      29696.3
       817.40000  6.60505e-10      29617.0
       817.50000  5.28256e-10      23628.9
       817.60000  5.28256e-10      23576.1
       817.70000  5.28256e-10      23523.2
       817.80000  5.28256e-10      23470.4
       817.90000  5.28256e-10      23428.2
       818.00000  5.28256e-10      23380.6
       818.10000  5.28256e-10      23343.6
       818.20000  5.28256e-10      23306.7
       818.30000  5.28256e-10      23269.7
       818.40000  5.28256e-10      23243.3
       818.50000  5.06869e-10      22271.8
       818.60000  5.06869e-10      22251.5
       818.70000  5.06869e-10      22231.3
       818.80000  5.06792e-10      22207.6
       818.90000  5.06792e-10      22197.5
       819.00000  5.06792e-10      22182.3
       819.10000  5.06792e-10      22177.2
       819.20000  5.06792e-10      22172.1
       819.30000  5.06792e-10      22167.1
       819.40000  5.06792e-10      22167.1
       819.50000  3.94324e-10      17251.7
       819.60000  3.94324e-10      17255.6
       819.70000  3.94324e-10      17263.5
       819.80000  3.94324e-10      17275.3
       819.90000  3.94324e-10      17287.2
       820.00000  3.94324e-10      17302.9
       820.10000  3.94324e-10      17318.7
       820.20000  3.94324e-10      17338.4
       820.30000  3.94324e-10      17362.1
       820.40000  3.94324e-10      17385.8
       820.50000  3.79822e-10      16773.0
       820.60000  3.79822e-10      16799.5
       820.70000  3.79822e-10      16829.9
       820.80000  3.79822e-10      16860.3
       820.90000  3.79822e-10      16894.5
       821.00000  3.79822e-10      16932.5
       821.10000  3.79822e-10      16924.9
       821.20000  3.79822e-10      16921.1
       821.30000  3.80911e-10      16962.0
       821.40000  3.80911e-10      16958.2
       821.50000  2.94618e-10      13110.5
       821.60000  2.94618e-10      13107.6
       821.70000  2.94618e-10      13104.6
       821.80000  2.94618e-10      13098.7
       821.90000  2.94618e-10      13095.8
       822.00000  2.94618e-10      13092.8
       822.10000  2.94618e-10      13092.8
       822.20000  2.94618e-10      13089.9
       822.30000  2.94618e-10      13086.9
       822.40000  2.94618e-10      13086.9
       822.50000  3.03093e-10      13460.4
       822.60000  3.03093e-10      13460.4
       822.70000  3.03093e-10      13457.3
       822.80000  3.03093e-10      13457.3
       822.90000  3.03093e-10      13457.3
       823.00000  3.03093e-10      13457.3
       823.10000  3.03093e-10      13457.3
       823.20000  3.03093e-10      13457.3
       823.30000  3.03093e-10      13457.3
       823.40000  3.03093e-10      13457.3
       823.50000  2.23628e-10      9931.30
       823.60000  2.23628e-10      9931.30
       823.70000  2.23628e-10      9933.53
       823.80000  2.24238e-10      9960.63
       823.90000  2.24238e-10      9962.88
       824.00000  2.24238e-10      9965.12
       824.10000  2.24238e-10      9967.36
       824.20000  2.24238e-10      9969.60
       824.30000  2.24238e-10      9971.85
       824.40000  2.24238e-10      9976.33
       824.50000  3.37908e-10      15036.9
       824.60000  3.37908e-10      15043.7
       824.70000  3.37908e-10      15047.1
       824.80000  3.37908e-10      15053.8
       824.90000  3.37908e-10      15060.6
       825.00000  3.37908e-10      15067.3
       825.10000  3.37908e-10      15074.1
       825.20000  3.37908e-10      15080.9
       825.30000  3.37908e-10      15091.0
       825.40000  3.37908e-10      15097.7
       825.50000  2.18029e-10      9748.09
       825.60000  2.18029e-10      9752.45
       825.70000  2.18029e-10      9758.99
       825.80000  2.18029e-10      9765.53
       825.90000  2.18029e-10      9772.08
       826.00000  2.18029e-10      9778.62
       826.10000  2.18029e-10      9785.16
       826.20000  2.18029e-10      9789.52
       826.30000  2.18174e-10      9802.57
       826.40000  2.18174e-10      9806.93
       826.50000  2.35978e-10      10609.6
       826.60000  2.35978e-10      10614.3
       826.70000  2.35978e-10      10619.0
       826.80000  2.35978e-10      10621.4
       826.90000  2.35978e-10      10623.7
       827.00000  2.35978e-10      10626.1
       827.10000  2.35978e-10      10626.1
       827.20000  2.35978e-10      10628.5
       827.30000  2.35978e-10      10628.5
       827.40000  2.35978e-10      10628.5
       827.50000  2.51326e-10      11319.7
       827.60000  2.51326e-10      11319.7
       827.70000  2.51326e-10      11317.2
       827.80000  2.51326e-10      11314.7
       827.90000  2.51326e-10      11312.2
       828.00000  2.51326e-10      11309.7
       828.10000  2.51326e-10      11302.1
       828.20000  2.51326e-10      11292.1
       828.30000  2.51326e-10      11282.0
       828.40000  2.51326e-10      11272.0
       828.50000  3.15969e-10      14161.7
       828.60000  3.15969e-10      14149.1
       828.70000  3.15969e-10      14139.6
       828.80000  3.15712e-10      14118.7
       828.90000  3.15712e-10      14106.0
       829.00000  3.15712e-10      14096.6
       829.10000  3.15712e-10      14087.1
       829.20000  3.15712e-10      14077.6
       829.30000  3.15712e-10      14068.1
       829.40000  3.15712e-10      14058.7
       829.50000  3.98728e-10      17743.4
       829.60000  3.98728e-10      17731.4
       829.70000  3.98728e-10      17719.5
       829.80000  3.98728e-10      17707.5
       829.90000  3.98728e-10      17699.5
       830.00000  3.98728e-10      17687.6
       830.10000  3.98728e-10      17679.6
       830.20000  3.98728e-10      17667.6
       830.30000  3.98728e-10      17659.7
       830.40000  3.98728e-10      17647.7
       830.50000  4.75865e-10      21052.3
       830.60000  4.75865e-10      21042.8
       830.70000  4.75865e-10      21028.5
       830.80000  4.75865e-10      21019.0
       830.90000  4.75865e-10      21009.4
       831.00000  4.75865e-10      20999.9
       831.10000  4.75865e-10      20990.4
       831.20000  4.75865e-10      20980.9
       831.30000  4.77155e-10      21033.0
       831.40000  4.77155e-10      21023.5
       831.50000  5.73235e-10      25245.3
       831.60000  5.73235e-10      25239.6
       831.70000  5.73235e-10      25228.1
       831.80000  5.73235e-10      25216.6
       831.90000  5.73235e-10      25210.9
       832.00000  5.73235e-10      25205.2
       832.10000  5.73235e-10      25182.2
       832.20000  5.73235e-10      25159.3
       832.30000  5.73235e-10      25142.1
       832.40000  5.73235e-10      25124.9
       832.50000  5.79160e-10      25367.2
       832.60000  5.79160e-10      25355.6
       832.70000  5.79160e-10      25344.0
       832.80000  5.79160e-10      25326.7
       832.90000  5.79160e-10      25320.9
       833.00000  5.79160e-10      25309.3
       833.10000  5.79160e-10      25297.7
       833.20000  5.79160e-10      25291.9
       833.30000  5.79160e-10      25286.1
       833.40000  5.79160e-10      25280.3
       833.50000  5.87431e-10      25641.4
       833.60000  5.87431e-10      25635.5
       833.70000  5.87431e-10      25635.5
       833.80000  5.88044e-10      25662.3
       833.90000  5.88044e-10      25668.1
       834.00000  5.88044e-10      25668.1
       834.10000  5.88044e-10      25697.5
       834.20000  5.88044e-10      25721.1
       834.30000  5.88044e-10      25750.5
       834.40000  5.88044e-10      25774.0
       834.50000  6.31556e-10      27706.4
       834.60000  6.31556e-10      27731.6
       834.70000  6.31556e-10      27750.6
       834.80000  6.31556e-10      27769.5
       834.90000  6.31556e-10      27794.8
       835.00000  6.31556e-10      27813.7
       835.10000  6.31556e-10      27826.4
       835.20000  6.31556e-10      27845.3
       835.30000  6.31556e-10      27857.9
       835.40000  6.31556e-10      27870.6
       835.50000  5.93410e-10      26199.1
       835.60000  5.93410e-10      26210.9
       835.70000  5.93410e-10      26216.9
       835.80000  5.93410e-10      26228.7
       835.90000  5.93410e-10      26234.7
       836.00000  5.93410e-10      26240.6
       836.10000  5.93410e-10      26228.7
       836.20000  5.93410e-10      26222.8
       836.30000  5.93142e-10      26199.1
       836.40000  5.93142e-10      26193.1
       836.50000  6.24249e-10      27560.6
       836.60000  6.24249e-10      27548.1
       836.70000  6.24249e-10      27541.9
       836.80000  6.24249e-10      27535.6
       836.90000  6.24249e-10      27523.1
       837.00000  6.24249e-10      27516.9
       837.10000  6.24249e-10      27510.6
       837.20000  6.24249e-10      27504.4
       837.30000  6.24249e-10      27498.2
       837.40000  6.24249e-10      27491.9
       837.50000  5.38481e-10      23709.3
       837.60000  5.38481e-10      23703.9
       837.70000  5.38481e-10      23698.5
       837.80000  5.38481e-10      23693.1
       837.90000  5.38481e-10      23693.1
       838.00000  5.38481e-10      23687.8
       838.10000  5.38481e-10      23682.4
       838.20000  5.38481e-10      23682.4
       838.30000  5.38481e-10      23682.4
       838.40000  5.38481e-10      23682.4
       838.50000  3.74248e-10      16455.7
       838.60000  3.74248e-10      16455.7
       838.70000  3.74248e-10      16455.7
       838.80000  3.73117e-10      16402.2
       838.90000  3.73117e-10      16402.2
       839.00000  3.73117e-10      16402.2
       839.10000  3.73117e-10      16398.5
       839.20000  3.73117e-10      16398.5
       839.30000  3.73117e-10      16398.5
       839.40000  3.73117e-10      16394.7
       839.50000  4.05997e-10      17839.5
       839.60000  4.05997e-10      17839.5
       839.70000  4.05997e-10      17835.5
       839.80000  4.05997e-10      17835.5
       839.90000  4.05997e-10      17835.5
       840.00000  4.05997e-10      17831.4
       840.10000  4.05997e-10      17831.4
       840.20000  4.05997e-10      17831.4
       840.30000  4.05997e-10      17827.3
       840.40000  4.05997e-10      17827.3
       840.50000  3.51235e-10      15422.7
       840.60000  3.51235e-10      15419.2
       840.70000  3.51235e-10      15419.2
       840.80000  3.51235e-10      15419.2
       840.90000  3.51235e-10      15415.7
       841.00000  3.51235e-10      15415.7
       841.10000  3.51235e-10      15415.7
       841.20000  3.51235e-10      15415.7
       841.30000  3.51216e-10      15411.4
       841.40000  3.51216e-10      15411.4
       841.50000  3.69350e-10      16207.1
       841.60000  3.69350e-10      16203.4
       841.70000  3.69350e-10      16203.4
       841.80000  3.69350e-10      16203.4
       841.90000  3.69350e-10      16199.7
       842.00000  3.69350e-10      16199.7
       842.10000  3.69350e-10      16184.9
       842.20000  3.69350e-10      16173.8
       842.30000  3.69350e-10      16162.8
       842.40000  3.69350e-10      16148.0
       842.50000  2.53632e-10      11081.2
       842.60000  2.53632e-10      11076.1
       842.70000  2.53632e-10      11068.5
       842.80000  2.53632e-10      11063.4
       842.90000  2.53632e-10      11055.8
       843.00000  2.53632e-10      11050.7
       843.10000  2.53632e-10      11045.7
       843.20000  2.53632e-10      11040.6
       843.30000  2.53632e-10      11038.1
       843.40000  2.53632e-10      11033.0
       843.50000  2.74798e-10      11951.0
       843.60000  2.74798e-10      11948.2
       843.70000  2.74798e-10      11945.5
       843.80000  2.75195e-10      11960.0
       843.90000  2.75195e-10      11960.0
       844.00000  2.75195e-10      11957.2
       844.10000  2.75195e-10      11965.5
       844.20000  2.75195e-10      11971.0
       844.30000  2.75195e-10      11976.5
       844.40000  2.75195e-10      11982.0
       844.50000  2.82139e-10      12290.0
       844.60000  2.82139e-10      12295.6
       844.70000  2.82139e-10      12298.4
       844.80000  2.82139e-10      12304.1
       844.90000  2.82139e-10      12306.9
       845.00000  2.82139e-10      12312.5
       845.10000  2.82139e-10      12315.4
       845.20000  2.82139e-10      12318.2
       845.30000  2.82139e-10      12323.8
       845.40000  2.82139e-10      12326.7
       845.50000  3.10717e-10      13575.2
       845.60000  3.10717e-10      13578.3
       845.70000  3.10717e-10      13581.4
       845.80000  3.10717e-10      13584.5
       845.90000  3.10717e-10      13584.5
       846.00000  3.10717e-10      13587.6
       846.10000  3.10717e-10      13587.6
       846.20000  3.10717e-10      13587.6
       846.30000  3.11535e-10      13623.4
       846.40000  3.11535e-10      13626.5
       846.50000  2.39982e-10      10496.8
       846.60000  2.39982e-10      10494.4
       846.70000  2.39982e-10      10494.4
       846.80000  2.39982e-10      10494.4
       846.90000  2.39982e-10      10492.0
       847.00000  2.39982e-10      10492.0
       847.10000  2.39982e-10      10489.6
       847.20000  2.39982e-10      10489.6
       847.30000  2.39982e-10      10487.2
       847.40000  2.39982e-10      10484.8
       847.50000  2.98785e-10      13050.9
       847.60000  2.98785e-10      13047.9
       847.70000  2.98785e-10      13044.9
       847.80000  2.98785e-10      13042.0
       847.90000  2.98785e-10      13036.0
       848.00000  2.98785e-10      13033.0
       848.10000  2.98785e-10      12970.2
       848.20000  2.98785e-10      12913.5
       848.30000  2.98785e-10      12856.7
       848.40000  2.98785e-10      12802.9
       848.50000  2.74067e-10      11697.2
       848.60000  2.74067e-10      11656.1
       848.70000  2.74067e-10      11614.9
       848.80000  2.75113e-10      11620.8
       848.90000  2.75113e-10      11585.0
       849.00000  2.75113e-10      11552.0
