PDS_VERSION_ID         = PDS3
RECORD_TYPE            = STREAM
OBJECT                 = TEXT
  PUBLICATION_DATE     = 2014-04-25
  INTERCHANGE_FORMAT   = ASCII
  NOTE                 = "System transmission vs. wavelength."
END_OBJECT             = TEXT
END
    
The systrans directory contains the non-wavelength-integrated system 
transmission values (QE*optics*filter1*filter2) for each filter combination. 
The naming convention for these files is as follows:

<camera><filter 1><filter 2>_systrans.tab

where <camera> is "issna" or "isswa," and <filter 1> and <filter 2> represent
the filter names. For polarized filter combinations, values are given for the
parallel orientation of the filter (full transmission), with values for the 
perpendicular (blocking) orientation provided in files with subscript 
"_b_systrans.tab". 

Columns in systrans files are as follows:

 1st column: Wavelength (nm)  
 2nd column: Transmitted Flux
 3rd column: Transmitted Flux * Solar Flux (phot per cm^2-s-angstrom at 1 AU)

The solar spectrum used for this calculation is provided in solarflux.tab.

\begindata
       619.00000  0.000391097  2.08142e+10
       619.10000  0.000391097  2.07985e+10
       619.20000  0.000391097  2.07907e+10
       619.30000  0.000391097  2.07868e+10
       619.40000  0.000391097  2.07868e+10
       619.50000  0.000418074  2.22290e+10
       619.60000  0.000418074  2.23084e+10
       619.70000  0.000418074  2.23795e+10
       619.80000  0.000418074  2.24422e+10
       619.90000  0.000418074  2.24965e+10
       620.00000  0.000418074  2.25383e+10
       620.10000  0.000418074  2.25718e+10
       620.20000  0.000418074  2.25969e+10
       620.30000  0.000418074  2.26136e+10
       620.40000  0.000418074  2.26178e+10
       620.50000  0.000503812  2.72562e+10
       620.60000  0.000503812  2.71454e+10
       620.70000  0.000503812  2.70396e+10
       620.80000  0.000503812  2.69489e+10
       620.90000  0.000503812  2.68683e+10
       621.00000  0.000503812  2.67978e+10
       621.10000  0.000503812  2.67373e+10
       621.20000  0.000503812  2.66920e+10
       621.30000  0.000503165  2.66175e+10
       621.40000  0.000503165  2.65873e+10
       621.50000  0.000657867  3.47420e+10
       621.60000  0.000657867  3.48604e+10
       621.70000  0.000657867  3.49657e+10
       621.80000  0.000657867  3.50512e+10
       621.90000  0.000657867  3.51301e+10
       622.00000  0.000657867  3.51893e+10
       622.10000  0.000657867  3.52354e+10
       622.20000  0.000657867  3.52617e+10
       622.30000  0.000657867  3.52814e+10
       622.40000  0.000657867  3.52814e+10
       622.50000  0.000967189  5.18510e+10
       622.60000  0.000967189  5.18123e+10
       622.70000  0.000967189  5.17543e+10
       622.80000  0.000967189  5.16769e+10
       622.90000  0.000967189  5.15705e+10
       623.00000  0.000967189  5.14544e+10
       623.10000  0.000967189  5.13094e+10
       623.20000  0.000967189  5.11353e+10
       623.30000  0.000967189  5.09515e+10
       623.40000  0.000967189  5.07387e+10
       623.50000   0.00159869  8.34993e+10
       623.60000   0.00159869  8.34833e+10
       623.70000   0.00159869  8.34833e+10
       623.80000   0.00159524  8.32717e+10
       623.90000   0.00159524  8.32558e+10
       624.00000   0.00159524  8.32239e+10
       624.10000   0.00159524  8.31760e+10
       624.20000   0.00159524  8.31281e+10
       624.30000   0.00159524  8.30803e+10
       624.40000   0.00159524  8.30165e+10
       624.50000   0.00303237  1.57683e+11
       624.60000   0.00303237  1.57077e+11
       624.70000   0.00303237  1.56592e+11
       624.80000   0.00303237  1.56167e+11
       624.90000   0.00303237  1.55834e+11
       625.00000   0.00303237  1.55591e+11
       625.10000   0.00303237  1.55440e+11
       625.20000   0.00303237  1.55349e+11
       625.30000   0.00303237  1.55379e+11
       625.40000   0.00303237  1.55470e+11
       625.50000   0.00686814  3.52542e+11
       625.60000   0.00686814  3.53091e+11
       625.70000   0.00686814  3.53915e+11
       625.80000   0.00686814  3.54877e+11
       625.90000   0.00686814  3.56044e+11
       626.00000   0.00686814  3.57418e+11
       626.10000   0.00686814  3.58998e+11
       626.20000   0.00686814  3.60715e+11
       626.30000   0.00685731  3.62134e+11
       626.40000   0.00685731  3.64260e+11
       626.50000    0.0183815  9.82491e+11
       626.60000    0.0183815  9.82675e+11
       626.70000    0.0183815  9.82859e+11
       626.80000    0.0183815  9.83043e+11
       626.90000    0.0183815  9.83227e+11
       627.00000    0.0183815  9.83410e+11
       627.10000    0.0183815  9.83594e+11
       627.20000    0.0183815  9.83594e+11
       627.30000    0.0183815  9.83778e+11
       627.40000    0.0183815  9.83962e+11
       627.50000    0.0485417  2.59893e+12
       627.60000    0.0485417  2.60087e+12
       627.70000    0.0485417  2.60232e+12
       627.80000    0.0485417  2.60329e+12
       627.90000    0.0485417  2.60426e+12
       628.00000    0.0485417  2.60475e+12
       628.10000    0.0485417  2.60524e+12
       628.20000    0.0485417  2.60524e+12
       628.30000    0.0485417  2.60475e+12
       628.40000    0.0485417  2.60426e+12
       628.50000    0.0989894  5.30880e+12
       628.60000    0.0989894  5.30583e+12
       628.70000    0.0989894  5.30286e+12
       628.80000    0.0987802  5.28770e+12
       628.90000    0.0987802  5.28277e+12
       629.00000    0.0987802  5.27783e+12
       629.10000    0.0987802  5.27190e+12
       629.20000    0.0987802  5.26597e+12
       629.30000    0.0987802  5.25906e+12
       629.40000    0.0987802  5.25116e+12
       629.50000     0.143203  7.60120e+12
       629.60000     0.143203  7.58545e+12
       629.70000     0.143203  7.56970e+12
       629.80000     0.143203  7.55538e+12
       629.90000     0.143203  7.54249e+12
       630.00000     0.143203  7.52960e+12
       630.10000     0.143203  7.51671e+12
       630.20000     0.143203  7.50669e+12
       630.30000     0.143203  7.49523e+12
       630.40000     0.143203  7.48664e+12
       630.50000     0.156935  8.19515e+12
       630.60000     0.156935  8.18574e+12
       630.70000     0.156935  8.17789e+12
       630.80000     0.156935  8.17161e+12
       630.90000     0.156935  8.16533e+12
       631.00000     0.156935  8.16063e+12
       631.10000     0.156935  8.16533e+12
       631.20000     0.156935  8.17004e+12
       631.30000     0.156927  8.17592e+12
       631.40000     0.156927  8.18063e+12
       631.50000     0.154025  8.03397e+12
       631.60000     0.154025  8.03859e+12
       631.70000     0.154025  8.04321e+12
       631.80000     0.154025  8.04629e+12
       631.90000     0.154025  8.05091e+12
       632.00000     0.154025  8.05553e+12
       632.10000     0.154025  8.06015e+12
       632.20000     0.154025  8.06323e+12
       632.30000     0.154025  8.06785e+12
       632.40000     0.154025  8.07247e+12
       632.50000     0.153320  8.03857e+12
       632.60000     0.153320  8.04164e+12
       632.70000     0.153320  8.04624e+12
       632.80000     0.153320  8.04930e+12
       632.90000     0.153320  8.05237e+12
       633.00000     0.153320  8.05697e+12
       633.10000     0.153320  8.06004e+12
       633.20000     0.153320  8.06310e+12
       633.30000     0.153320  8.06617e+12
       633.40000     0.153320  8.06923e+12
       633.50000     0.155839  8.20491e+12
       633.60000     0.155839  8.20803e+12
       633.70000     0.155839  8.21114e+12
       633.80000     0.155815  8.21144e+12
       633.90000     0.155815  8.21456e+12
       634.00000     0.155815  8.21767e+12
       634.10000     0.155815  8.21923e+12
       634.20000     0.155815  8.22235e+12
       634.30000     0.155815  8.22391e+12
       634.40000     0.155815  8.22702e+12
       634.50000     0.157508  8.31802e+12
       634.60000     0.157508  8.31960e+12
       634.70000     0.157508  8.32275e+12
       634.80000     0.157508  8.32432e+12
       634.90000     0.157508  8.32590e+12
       635.00000     0.157508  8.32747e+12
       635.10000     0.157508  8.32905e+12
       635.20000     0.157508  8.32905e+12
       635.30000     0.157508  8.33062e+12
       635.40000     0.157508  8.33062e+12
       635.50000     0.156675  8.28810e+12
       635.60000     0.156675  8.28967e+12
       635.70000     0.156675  8.28967e+12
       635.80000     0.156675  8.29124e+12
       635.90000     0.156675  8.29124e+12
       636.00000     0.156675  8.29280e+12
       636.10000     0.156675  8.29280e+12
       636.20000     0.156675  8.29437e+12
       636.30000     0.155746  8.24521e+12
       636.40000     0.155746  8.24677e+12
       636.50000     0.150989  7.99488e+12
       636.60000     0.150989  7.99639e+12
       636.70000     0.150989  7.99639e+12
       636.80000     0.150989  7.99790e+12
       636.90000     0.150989  7.99790e+12
       637.00000     0.150989  7.99790e+12
       637.10000     0.150989  7.99941e+12
       637.20000     0.150989  7.99941e+12
       637.30000     0.150989  8.00092e+12
       637.40000     0.150989  8.00092e+12
       637.50000     0.138639  7.34649e+12
       637.60000     0.138639  7.34787e+12
       637.70000     0.138639  7.34787e+12
       637.80000     0.138639  7.34926e+12
       637.90000     0.138639  7.34926e+12
       638.00000     0.138639  7.34926e+12
       638.10000     0.138639  7.35064e+12
       638.20000     0.138639  7.35064e+12
       638.30000     0.138639  7.35064e+12
       638.40000     0.138639  7.35203e+12
       638.50000     0.116678  6.18745e+12
       638.60000     0.116678  6.18745e+12
       638.70000     0.116678  6.18862e+12
       638.80000     0.115913  6.14803e+12
       638.90000     0.115913  6.14803e+12
       639.00000     0.115913  6.14803e+12
       639.10000     0.115913  6.13876e+12
       639.20000     0.115913  6.12949e+12
       639.30000     0.115913  6.12022e+12
       639.40000     0.115913  6.11210e+12
       639.50000    0.0870982  4.58572e+12
       639.60000    0.0870982  4.58049e+12
       639.70000    0.0870982  4.57440e+12
       639.80000    0.0870982  4.56917e+12
       639.90000    0.0870982  4.56481e+12
       640.00000    0.0870982  4.55959e+12
       640.10000    0.0870982  4.55523e+12
       640.20000    0.0870982  4.55175e+12
       640.30000    0.0870982  4.54827e+12
       640.40000    0.0870982  4.54478e+12
       640.50000    0.0572767  2.98640e+12
       640.60000    0.0572767  2.98469e+12
       640.70000    0.0572767  2.98297e+12
       640.80000    0.0572767  2.98182e+12
       640.90000    0.0572767  2.98010e+12
       641.00000    0.0572767  2.97953e+12
       641.10000    0.0572767  2.98068e+12
       641.20000    0.0572767  2.98182e+12
       641.30000    0.0568892  2.96279e+12
       641.40000    0.0568892  2.96393e+12
       641.50000    0.0333752  1.73952e+12
       641.60000    0.0333752  1.74018e+12
       641.70000    0.0333752  1.74085e+12
       641.80000    0.0333752  1.74152e+12
       641.90000    0.0333752  1.74219e+12
       642.00000    0.0333752  1.74285e+12
       642.10000    0.0333752  1.74319e+12
       642.20000    0.0333752  1.74386e+12
       642.30000    0.0333752  1.74452e+12
       642.40000    0.0333752  1.74519e+12
       642.50000    0.0183243  9.58546e+11
       642.60000    0.0183243  9.58913e+11
       642.70000    0.0183243  9.59279e+11
       642.80000    0.0183243  9.59646e+11
       642.90000    0.0183243  9.60012e+11
       643.00000    0.0183243  9.60379e+11
       643.10000    0.0183243  9.60562e+11
       643.20000    0.0183243  9.60928e+11
       643.30000    0.0183243  9.61295e+11
       643.40000    0.0183243  9.61661e+11
       643.50000    0.0100189  5.25993e+11
       643.60000    0.0100189  5.26194e+11
       643.70000    0.0100189  5.26294e+11
       643.80000    0.0100056  5.25793e+11
       643.90000    0.0100056  5.25993e+11
       644.00000    0.0100056  5.26193e+11
       644.10000    0.0100056  5.26393e+11
       644.20000    0.0100056  5.26494e+11
       644.30000    0.0100056  5.26694e+11
       644.40000    0.0100056  5.26894e+11
       644.50000   0.00551407  2.90481e+11
       644.60000   0.00551407  2.90536e+11
       644.70000   0.00551407  2.90647e+11
       644.80000   0.00551407  2.90757e+11
       644.90000   0.00551407  2.90867e+11
       645.00000   0.00551407  2.90922e+11
       645.10000   0.00551407  2.90867e+11
       645.20000   0.00551407  2.90757e+11
       645.30000   0.00551407  2.90702e+11
       645.40000   0.00551407  2.90592e+11
       645.50000   0.00307910  1.62176e+11
       645.60000   0.00307910  1.62115e+11
       645.70000   0.00307910  1.62053e+11
       645.80000   0.00307910  1.61961e+11
       645.90000   0.00307910  1.61868e+11
       646.00000   0.00307910  1.61776e+11
       646.10000   0.00307910  1.61684e+11
       646.20000   0.00307910  1.61591e+11
       646.30000   0.00307721  1.61369e+11
       646.40000   0.00307721  1.61246e+11
       646.50000   0.00178806  9.36405e+10
       646.60000   0.00178806  9.35510e+10
       646.70000   0.00178806  9.34795e+10
       646.80000   0.00178806  9.34080e+10
       646.90000   0.00178806  9.33186e+10
       647.00000   0.00178806  9.32471e+10
       647.10000   0.00178806  9.29967e+10
       647.20000   0.00178806  9.27643e+10
       647.30000   0.00178806  9.25497e+10
       647.40000   0.00178806  9.23352e+10
       647.50000   0.00108382  5.58492e+10
       647.60000   0.00108382  5.57516e+10
       647.70000   0.00108382  5.56433e+10
       647.80000   0.00108382  5.55566e+10
       647.90000   0.00108382  5.54699e+10
       648.00000   0.00108382  5.53940e+10
       648.10000   0.00108382  5.53289e+10
       648.20000   0.00108382  5.52748e+10
       648.30000   0.00108382  5.52206e+10
       648.40000   0.00108382  5.51772e+10
       648.50000  0.000677929  3.44930e+10
       648.60000  0.000677929  3.44795e+10
       648.70000  0.000677929  3.44659e+10
       648.80000  0.000678631  3.44948e+10
       648.90000  0.000678631  3.44948e+10
       649.00000  0.000678631  3.45016e+10
       649.10000  0.000678631  3.45084e+10
       649.20000  0.000678631  3.45287e+10
       649.30000  0.000678631  3.45423e+10
       649.40000  0.000678631  3.45694e+10
       649.50000  0.000429715  2.19112e+10
       649.60000  0.000429715  2.19327e+10
       649.70000  0.000429715  2.19585e+10
       649.80000  0.000429715  2.19885e+10
       649.90000  0.000429715  2.20186e+10
       650.00000  0.000429715  2.20530e+10
       650.10000  0.000429715  2.20917e+10
       650.20000  0.000429715  2.21346e+10
       650.30000  0.000429715  2.21819e+10
       650.40000  0.000429715  2.22292e+10
       650.50000  0.000274924  1.42548e+10
       650.60000  0.000274924  1.42905e+10
       650.70000  0.000274924  1.43263e+10
       650.80000  0.000274924  1.43675e+10
       650.90000  0.000274924  1.44088e+10
       651.00000  0.000274924  1.44528e+10
       651.10000  0.000274924  1.44637e+10
       651.20000  0.000274924  1.44747e+10
       651.30000  0.000274579  1.44648e+10
       651.40000  0.000274579  1.44731e+10
       651.50000  0.000181264  9.55987e+09
       651.60000  0.000181264  9.56168e+09
       651.70000  0.000181264  9.56531e+09
       651.80000  0.000181264  9.56712e+09
       651.90000  0.000181264  9.56712e+09
       652.00000  0.000181264  9.56712e+09
       652.10000  0.000181264  9.56531e+09
       652.20000  0.000181264  9.56350e+09
       652.30000  0.000181264  9.56168e+09
       652.40000  0.000181264  9.55806e+09
       652.50000  0.000129535  6.82652e+09
       652.60000  0.000129535  6.82263e+09
       652.70000  0.000129535  6.81874e+09
       652.80000  0.000129535  6.81227e+09
       652.90000  0.000129535  6.80709e+09
       653.00000  0.000129535  6.80061e+09
       653.10000  0.000129535  6.79543e+09
       653.20000  0.000129535  6.79025e+09
       653.30000  0.000129535  6.78247e+09
       653.40000  0.000129535  6.77470e+09
       653.50000  9.37179e-05  4.89582e+09
       653.60000  9.37179e-05  4.88926e+09
       653.70000  9.37179e-05  4.88176e+09
       653.80000  9.36037e-05  4.86739e+09
       653.90000  9.36037e-05  4.85897e+09
       654.00000  9.36037e-05  4.84961e+09
       654.10000  9.36037e-05  4.84025e+09
       654.20000  9.36037e-05  4.82902e+09
       654.30000  9.36037e-05  4.81778e+09
       654.40000  9.36037e-05  4.80655e+09
       654.50000  6.37719e-05  3.26639e+09
       654.60000  6.37719e-05  3.25747e+09
       654.70000  6.37719e-05  3.24790e+09
       654.80000  6.37719e-05  3.23833e+09
       654.90000  6.37719e-05  3.22813e+09
       655.00000  6.37719e-05  3.21729e+09
       655.10000  6.37719e-05  3.18668e+09
       655.20000  6.37719e-05  3.15734e+09
       655.30000  6.37719e-05  3.12992e+09
       655.40000  6.37719e-05  3.10441e+09
       655.50000  4.98546e-05  2.40798e+09
       655.60000  4.98546e-05  2.39053e+09
       655.70000  4.98546e-05  2.37408e+09
       655.80000  4.98546e-05  2.35912e+09
       655.90000  4.98546e-05  2.34516e+09
       656.00000  4.98546e-05  2.33270e+09
       656.10000  4.98546e-05  2.32173e+09
       656.20000  4.98546e-05  2.31176e+09
       656.30000  4.98167e-05  2.30153e+09
       656.40000  4.98167e-05  2.29406e+09
       656.50000  3.39032e-05  1.55718e+09
       656.60000  3.39032e-05  1.55412e+09
       656.70000  3.39032e-05  1.55175e+09
       656.80000  3.39032e-05  1.55039e+09
       656.90000  3.39032e-05  1.54972e+09
       657.00000  3.39032e-05  1.55006e+09
       657.10000  3.39032e-05  1.56328e+09
       657.20000  3.39032e-05  1.57616e+09
       657.30000  3.39032e-05  1.58871e+09
       657.40000  3.39032e-05  1.60091e+09
       657.50000  2.79264e-05  1.32818e+09
       657.60000  2.79264e-05  1.33768e+09
       657.70000  2.79264e-05  1.34661e+09
       657.80000  2.79264e-05  1.35527e+09
       657.90000  2.79264e-05  1.36337e+09
       658.00000  2.79264e-05  1.37147e+09
       658.10000  2.79264e-05  1.37929e+09
       658.20000  2.79264e-05  1.38655e+09
       658.30000  2.79264e-05  1.39353e+09
       658.40000  2.79264e-05  1.40023e+09
       658.50000  2.39486e-05  1.20605e+09
       658.60000  2.39486e-05  1.21132e+09
       658.70000  2.39486e-05  1.21611e+09
       658.80000  2.39237e-05  1.21963e+09
       658.90000  2.39237e-05  1.22394e+09
       659.00000  2.39237e-05  1.22776e+09
       659.10000  2.39237e-05  1.23159e+09
       659.20000  2.39237e-05  1.23518e+09
       659.30000  2.39237e-05  1.23829e+09
       659.40000  2.39237e-05  1.24116e+09
       659.50000  1.79547e-05  9.33467e+08
       659.60000  1.79547e-05  9.35263e+08
       659.70000  1.79547e-05  9.36699e+08
       659.80000  1.79547e-05  9.38135e+08
       659.90000  1.79547e-05  9.39213e+08
       660.00000  1.79547e-05  9.40110e+08
       660.10000  1.79547e-05  9.40829e+08
       660.20000  1.79547e-05  9.41188e+08
       660.30000  1.79547e-05  9.41547e+08
       660.40000  1.79547e-05  9.41547e+08
       660.50000  1.39694e-05  7.32414e+08
       660.60000  1.39694e-05  7.32134e+08
       660.70000  1.39694e-05  7.31715e+08
       660.80000  1.39694e-05  7.31017e+08
       660.90000  1.39694e-05  7.30318e+08
       661.00000  1.39694e-05  7.29340e+08
       661.10000  1.39694e-05  7.28921e+08
       661.20000  1.39694e-05  7.28362e+08
       661.30000  1.39347e-05  7.26136e+08
       661.40000  1.39347e-05  7.25718e+08
       661.50000  1.19508e-05  6.22041e+08
       661.60000  1.19508e-05  6.21802e+08
       661.70000  1.19508e-05  6.21444e+08
       661.80000  1.19508e-05  6.21205e+08
       661.90000  1.19508e-05  6.20966e+08
       662.00000  1.19508e-05  6.20727e+08
       662.10000  1.19508e-05  6.20488e+08
       662.20000  1.19508e-05  6.20249e+08
       662.30000  1.19508e-05  6.20129e+08
       662.40000  1.19508e-05  6.20010e+08
       662.50000  9.96208e-06  5.16633e+08
       662.60000  9.96208e-06  5.16633e+08
       662.70000  9.96208e-06  5.16534e+08
       662.80000  9.96208e-06  5.16434e+08
       662.90000  9.96208e-06  5.16434e+08
       663.00000  9.96208e-06  5.16434e+08
       663.10000  9.96208e-06  5.16832e+08
       663.20000  9.96208e-06  5.17131e+08
       663.30000  9.96208e-06  5.17530e+08
       663.40000  9.96208e-06  5.17829e+08
       663.50000  7.97117e-06  4.14581e+08
       663.60000  7.97117e-06  4.14820e+08
       663.70000  7.97117e-06  4.14979e+08
       663.80000  7.95417e-06  4.14333e+08
       663.90000  7.95417e-06  4.14492e+08
       664.00000  7.95417e-06  4.14571e+08
       664.10000  7.95417e-06  4.14730e+08
       664.20000  7.95417e-06  4.14810e+08
       664.30000  7.95417e-06  4.14889e+08
       664.40000  7.95417e-06  4.14969e+08
       664.50000  5.96836e-06  3.11370e+08
       664.60000  5.96836e-06  3.11370e+08
       664.70000  5.96836e-06  3.11370e+08
       664.80000  5.96836e-06  3.11370e+08
       664.90000  5.96836e-06  3.11370e+08
       665.00000  5.96836e-06  3.11310e+08
       665.10000  5.96836e-06  3.11250e+08
       665.20000  5.96836e-06  3.11191e+08
       665.30000  5.96836e-06  3.11071e+08
       665.40000  5.96836e-06  3.10952e+08
       665.50000  5.97024e-06  3.10930e+08
       665.60000  5.97024e-06  3.10810e+08
       665.70000  5.97024e-06  3.10631e+08
       665.80000  5.97024e-06  3.10512e+08
       665.90000  5.97024e-06  3.10333e+08
       666.00000  5.97024e-06  3.10094e+08
       666.10000  5.97024e-06  3.09915e+08
       666.20000  5.97024e-06  3.09676e+08
       666.30000  5.95524e-06  3.08660e+08
       666.40000  5.95524e-06  3.08422e+08
       666.50000  3.97163e-06  2.05492e+08
       666.60000  3.97163e-06  2.05293e+08
       666.70000  3.97163e-06  2.05095e+08
       666.80000  3.97163e-06  2.04896e+08
       666.90000  3.97163e-06  2.04698e+08
       667.00000  3.97163e-06  2.04459e+08
       667.10000  3.97163e-06  2.04698e+08
       667.20000  3.97163e-06  2.04896e+08
       667.30000  3.97163e-06  2.05095e+08
       667.40000  3.97163e-06  2.05293e+08
       667.50000  3.97377e-06  2.05603e+08
       667.60000  3.97377e-06  2.05762e+08
       667.70000  3.97377e-06  2.05921e+08
       667.80000  3.97377e-06  2.06040e+08
       667.90000  3.97377e-06  2.06159e+08
       668.00000  3.97377e-06  2.06278e+08
       668.10000  3.97377e-06  2.06398e+08
       668.20000  3.97377e-06  2.06477e+08
       668.30000  3.97377e-06  2.06557e+08
       668.40000  3.97377e-06  2.06596e+08
       668.50000  3.97450e-06  2.06674e+08
       668.60000  3.97450e-06  2.06714e+08
       668.70000  3.97450e-06  2.06714e+08
       668.80000  3.96800e-06  2.06376e+08
       668.90000  3.96800e-06  2.06376e+08
       669.00000  3.96800e-06  2.06336e+08
       669.10000  3.96800e-06  2.06058e+08
       669.20000  3.96800e-06  2.05780e+08
       669.30000  3.96800e-06  2.05542e+08
       669.40000  3.96800e-06  2.05304e+08
       669.50000  3.96766e-06  2.05049e+08
       669.60000  3.96766e-06  2.04811e+08
       669.70000  3.96766e-06  2.04612e+08
       669.80000  3.96766e-06  2.04414e+08
       669.90000  3.96766e-06  2.04215e+08
       670.00000  3.96766e-06  2.04057e+08
       670.10000  3.96766e-06  2.03898e+08
       670.20000  3.96766e-06  2.03739e+08
       670.30000  3.96766e-06  2.03581e+08
       670.40000  3.96766e-06  2.03462e+08
       670.50000  1.98501e-06  1.01732e+08
       670.60000  1.98501e-06  1.01672e+08
       670.70000  1.98501e-06  1.01632e+08
       670.80000  1.98501e-06  1.01593e+08
       670.90000  1.98501e-06  1.01553e+08
       671.00000  1.98501e-06  1.01533e+08
       671.10000  1.98501e-06  1.01493e+08
       671.20000  1.98501e-06  1.01493e+08
       671.30000  1.98508e-06  1.01477e+08
       671.40000  1.98508e-06  1.01477e+08
       671.50000  1.98585e-06  1.01516e+08
       671.60000  1.98585e-06  1.01516e+08
       671.70000  1.98585e-06  1.01516e+08
       671.80000  1.98585e-06  1.01536e+08
       671.90000  1.98585e-06  1.01556e+08
       672.00000  1.98585e-06  1.01596e+08
       672.10000  1.98585e-06  1.01636e+08
       672.20000  1.98585e-06  1.01675e+08
       672.30000  1.98585e-06  1.01715e+08
       672.40000  1.98585e-06  1.01775e+08
       672.50000  1.98498e-06  1.01790e+08
       672.60000  1.98498e-06  1.01849e+08
       672.70000  1.98498e-06  1.01909e+08
       672.80000  1.98498e-06  1.01988e+08
       672.90000  1.98498e-06  1.02068e+08
       673.00000  1.98498e-06  1.02167e+08
       673.10000  1.98498e-06  1.02127e+08
       673.20000  1.98498e-06  1.02088e+08
       673.30000  1.98498e-06  1.02048e+08
       673.40000  1.98498e-06  1.02028e+08
       673.50000  1.98623e-06  1.02052e+08
       673.60000  1.98623e-06  1.02033e+08
       673.70000  1.98623e-06  1.02013e+08
       673.80000  1.98702e-06  1.02014e+08
       673.90000  1.98702e-06  1.01994e+08
       674.00000  1.98702e-06  1.01974e+08
       674.10000  1.98702e-06  1.01954e+08
       674.20000  1.98702e-06  1.01934e+08
       674.30000  1.98702e-06  1.01914e+08
       674.40000  1.98702e-06  1.01894e+08
       674.50000  1.85651e-06  9.51835e+07
       674.60000  1.85651e-06  9.51835e+07
       674.70000  1.85651e-06  9.51649e+07
       674.80000  1.85651e-06  9.51649e+07
       674.90000  1.85651e-06  9.51464e+07
       675.00000  1.85651e-06  9.51464e+07
       675.10000  1.85651e-06  9.51649e+07
       675.20000  1.85651e-06  9.51835e+07
       675.30000  1.85651e-06  9.52021e+07
       675.40000  1.85651e-06  9.52206e+07
       675.50000  1.93526e-06  9.92596e+07
       675.60000  1.93526e-06  9.92789e+07
       675.70000  1.93526e-06  9.92983e+07
       675.80000  1.93526e-06  9.92983e+07
       675.90000  1.93526e-06  9.93176e+07
       676.00000  1.93526e-06  9.93176e+07
       676.10000  1.93526e-06  9.93370e+07
       676.20000  1.93526e-06  9.93370e+07
       676.30000  1.93329e-06  9.92356e+07
       676.40000  1.93329e-06  9.92356e+07
       676.50000  1.77129e-06  9.09378e+07
       676.60000  1.77129e-06  9.09378e+07
       676.70000  1.77129e-06  9.09378e+07
       676.80000  1.77129e-06  9.09201e+07
       676.90000  1.77129e-06  9.09201e+07
       677.00000  1.77129e-06  9.09201e+07
       677.10000  1.77129e-06  9.09201e+07
       677.20000  1.77129e-06  9.09024e+07
       677.30000  1.77129e-06  9.09024e+07
       677.40000  1.77129e-06  9.08847e+07
       677.50000  1.74187e-06  8.93754e+07
       677.60000  1.74187e-06  8.93579e+07
       677.70000  1.74187e-06  8.93579e+07
       677.80000  1.74187e-06  8.93405e+07
       677.90000  1.74187e-06  8.93231e+07
       678.00000  1.74187e-06  8.93057e+07
       678.10000  1.74187e-06  8.92883e+07
       678.20000  1.74187e-06  8.92708e+07
       678.30000  1.74187e-06  8.92534e+07
       678.40000  1.74187e-06  8.92360e+07
       678.50000  1.77002e-06  9.06428e+07
       678.60000  1.77002e-06  9.06251e+07
       678.70000  1.77002e-06  9.06074e+07
       678.80000  1.76989e-06  9.05651e+07
       678.90000  1.76989e-06  9.05474e+07
       679.00000  1.76989e-06  9.05120e+07
       679.10000  1.76989e-06  9.05120e+07
       679.20000  1.76989e-06  9.05297e+07
       679.30000  1.76989e-06  9.05297e+07
       679.40000  1.76989e-06  9.05297e+07
       679.50000  1.66433e-06  8.51307e+07
       679.60000  1.66433e-06  8.51307e+07
       679.70000  1.66433e-06  8.51307e+07
       679.80000  1.66433e-06  8.51307e+07
       679.90000  1.66433e-06  8.51307e+07
       680.00000  1.66433e-06  8.51140e+07
       680.10000  1.66433e-06  8.51140e+07
       680.20000  1.66433e-06  8.51140e+07
       680.30000  1.66433e-06  8.50974e+07
       680.40000  1.66433e-06  8.50974e+07
       680.50000  1.54603e-06  7.90331e+07
       680.60000  1.54603e-06  7.90331e+07
       680.70000  1.54603e-06  7.90177e+07
       680.80000  1.54603e-06  7.90022e+07
       680.90000  1.54603e-06  7.89868e+07
       681.00000  1.54603e-06  7.89868e+07
       681.10000  1.54603e-06  7.89713e+07
       681.20000  1.54603e-06  7.89558e+07
       681.30000  1.54589e-06  7.89484e+07
       681.40000  1.54589e-06  7.89329e+07
       681.50000  1.66216e-06  8.48534e+07
       681.60000  1.66216e-06  8.48368e+07
       681.70000  1.66216e-06  8.48202e+07
       681.80000  1.66216e-06  8.47869e+07
       681.90000  1.66216e-06  8.47703e+07
       682.00000  1.66216e-06  8.47537e+07
       682.10000  1.66216e-06  8.47205e+07
       682.20000  1.66216e-06  8.46872e+07
       682.30000  1.66216e-06  8.46706e+07
       682.40000  1.66216e-06  8.46374e+07
       682.50000  1.62843e-06  8.28870e+07
       682.60000  1.62843e-06  8.28545e+07
       682.70000  1.62843e-06  8.28219e+07
       682.80000  1.62843e-06  8.27893e+07
       682.90000  1.62843e-06  8.27405e+07
       683.00000  1.62843e-06  8.27079e+07
       683.10000  1.62843e-06  8.26753e+07
       683.20000  1.62843e-06  8.26265e+07
       683.30000  1.62843e-06  8.25776e+07
       683.40000  1.62843e-06  8.25288e+07
       683.50000  1.51581e-06  7.67909e+07
       683.60000  1.51581e-06  7.67454e+07
       683.70000  1.51581e-06  7.66999e+07
       683.80000  1.51465e-06  7.65806e+07
       683.90000  1.51465e-06  7.65352e+07
       684.00000  1.51465e-06  7.64897e+07
       684.10000  1.51465e-06  7.64291e+07
       684.20000  1.51465e-06  7.63837e+07
       684.30000  1.51465e-06  7.63231e+07
       684.40000  1.51465e-06  7.62777e+07
       684.50000  1.58093e-06  7.95526e+07
       684.60000  1.58093e-06  7.94894e+07
       684.70000  1.58093e-06  7.94261e+07
       684.80000  1.58093e-06  7.93629e+07
       684.90000  1.58093e-06  7.92838e+07
       685.00000  1.58093e-06  7.92206e+07
       685.10000  1.58093e-06  7.92838e+07
       685.20000  1.58093e-06  7.93629e+07
       685.30000  1.58093e-06  7.94261e+07
       685.40000  1.58093e-06  7.94735e+07
       685.50000  1.46568e-06  7.37386e+07
       685.60000  1.46568e-06  7.37972e+07
       685.70000  1.46568e-06  7.38412e+07
       685.80000  1.46568e-06  7.38851e+07
       685.90000  1.46568e-06  7.39291e+07
       686.00000  1.46568e-06  7.39731e+07
       686.10000  1.46568e-06  7.40170e+07
       686.20000  1.46568e-06  7.40464e+07
       686.30000  1.46414e-06  7.40125e+07
       686.40000  1.46414e-06  7.40418e+07
       686.50000  1.26679e-06  6.40869e+07
       686.60000  1.26679e-06  6.41122e+07
       686.70000  1.26679e-06  6.41376e+07
       686.80000  1.26679e-06  6.41502e+07
       686.90000  1.26679e-06  6.41756e+07
       687.00000  1.26679e-06  6.41882e+07
       687.10000  1.26679e-06  6.42009e+07
       687.20000  1.26679e-06  6.42009e+07
       687.30000  1.26679e-06  6.42009e+07
       687.40000  1.26679e-06  6.42009e+07
       687.50000  1.26647e-06  6.41846e+07
       687.60000  1.26647e-06  6.41846e+07
       687.70000  1.26647e-06  6.41846e+07
       687.80000  1.26647e-06  6.41846e+07
       687.90000  1.26647e-06  6.41846e+07
       688.00000  1.26647e-06  6.41720e+07
       688.10000  1.26647e-06  6.41720e+07
       688.20000  1.26647e-06  6.41720e+07
       688.30000  1.26647e-06  6.41593e+07
       688.40000  1.26647e-06  6.41593e+07
       688.50000  9.64123e-07  4.88328e+07
       688.60000  9.64123e-07  4.88232e+07
       688.70000  9.64123e-07  4.88232e+07
       688.80000  9.62893e-07  4.87513e+07
       688.90000  9.62893e-07  4.87416e+07
       689.00000  9.62893e-07  4.87320e+07
       689.10000  9.62893e-07  4.87224e+07
       689.20000  9.62893e-07  4.87128e+07
       689.30000  9.62893e-07  4.87031e+07
       689.40000  9.62893e-07  4.86935e+07
       689.50000  9.05611e-07  4.57877e+07
       689.60000  9.05611e-07  4.57787e+07
       689.70000  9.05611e-07  4.57605e+07
       689.80000  9.05611e-07  4.57515e+07
       689.90000  9.05611e-07  4.57424e+07
       690.00000  9.05611e-07  4.57243e+07
       690.10000  9.05611e-07  4.57062e+07
       690.20000  9.05611e-07  4.56972e+07
       690.30000  9.05611e-07  4.56790e+07
       690.40000  9.05611e-07  4.56609e+07
       690.50000  7.78165e-07  3.92273e+07
       690.60000  7.78165e-07  3.92118e+07
       690.70000  7.78165e-07  3.91962e+07
       690.80000  7.78165e-07  3.91806e+07
       690.90000  7.78165e-07  3.91651e+07
       691.00000  7.78165e-07  3.91495e+07
       691.10000  7.78165e-07  3.91651e+07
       691.20000  7.78165e-07  3.91728e+07
       691.30000  7.77422e-07  3.91510e+07
       691.40000  7.77422e-07  3.91588e+07
       691.50000  5.94027e-07  2.99271e+07
       691.60000  5.94027e-07  2.99390e+07
       691.70000  5.94027e-07  2.99449e+07
       691.80000  5.94027e-07  2.99509e+07
       691.90000  5.94027e-07  2.99568e+07
       692.00000  5.94027e-07  2.99568e+07
       692.10000  5.94027e-07  2.99627e+07
       692.20000  5.94027e-07  2.99687e+07
       692.30000  5.94027e-07  2.99687e+07
       692.40000  5.94027e-07  2.99687e+07
       692.50000  6.56448e-07  3.31244e+07
       692.60000  6.56448e-07  3.31244e+07
       692.70000  6.56448e-07  3.31244e+07
       692.80000  6.56448e-07  3.31244e+07
       692.90000  6.56448e-07  3.31244e+07
       693.00000  6.56448e-07  3.31178e+07
       693.10000  6.56448e-07  3.31178e+07
       693.20000  6.56448e-07  3.31112e+07
       693.30000  6.56448e-07  3.31047e+07
       693.40000  6.56448e-07  3.30981e+07
       693.50000  4.82594e-07  2.43275e+07
       693.60000  4.82594e-07  2.43227e+07
       693.70000  4.82594e-07  2.43179e+07
       693.80000  4.80679e-07  2.42166e+07
       693.90000  4.80679e-07  2.42070e+07
       694.00000  4.80679e-07  2.42022e+07
       694.10000  4.80679e-07  2.41974e+07
       694.20000  4.80679e-07  2.41878e+07
       694.30000  4.80679e-07  2.41830e+07
       694.40000  4.80679e-07  2.41733e+07
       694.50000  3.55171e-07  1.78545e+07
       694.60000  3.55171e-07  1.78509e+07
       694.70000  3.55171e-07  1.78438e+07
       694.80000  3.55171e-07  1.78367e+07
       694.90000  3.55171e-07  1.78296e+07
       695.00000  3.55171e-07  1.78225e+07
       695.10000  3.55171e-07  1.78154e+07
       695.20000  3.55171e-07  1.78083e+07
       695.30000  3.55171e-07  1.77976e+07
       695.40000  3.55171e-07  1.77905e+07
       695.50000  4.16875e-07  2.08730e+07
       695.60000  4.16875e-07  2.08604e+07
       695.70000  4.16875e-07  2.08521e+07
       695.80000  4.16875e-07  2.08396e+07
       695.90000  4.16875e-07  2.08271e+07
       696.00000  4.16875e-07  2.08188e+07
       696.10000  4.16875e-07  2.08063e+07
       696.20000  4.16875e-07  2.07938e+07
       696.30000  4.16466e-07  2.07608e+07
       696.40000  4.16466e-07  2.07483e+07
       696.50000  5.71134e-07  2.84368e+07
       696.60000  5.71134e-07  2.84196e+07
       696.70000  5.71134e-07  2.83968e+07
       696.80000  5.71134e-07  2.83797e+07
       696.90000  5.71134e-07  2.83625e+07
       697.00000  5.71134e-07  2.83397e+07
       697.10000  5.71134e-07  2.83797e+07
       697.20000  5.71134e-07  2.84082e+07
       697.30000  5.71134e-07  2.84425e+07
       697.40000  5.71134e-07  2.84710e+07
       697.50000  4.41557e-07  2.20337e+07
       697.60000  4.41557e-07  2.20514e+07
       697.70000  4.41557e-07  2.20690e+07
       697.80000  4.41557e-07  2.20823e+07
       697.90000  4.41557e-07  2.20955e+07
       698.00000  4.41557e-07  2.21044e+07
       698.10000  4.41557e-07  2.21132e+07
       698.20000  4.41557e-07  2.21220e+07
       698.30000  4.41557e-07  2.21264e+07
       698.40000  4.41557e-07  2.21308e+07
       698.50000  5.09873e-07  2.55599e+07
       698.60000  5.09873e-07  2.55599e+07
       698.70000  5.09873e-07  2.55548e+07
       698.80000  5.09003e-07  2.55061e+07
       698.90000  5.09003e-07  2.55010e+07
       699.00000  5.09003e-07  2.54909e+07
       699.10000  5.09003e-07  2.54450e+07
       699.20000  5.09003e-07  2.53941e+07
       699.30000  5.09003e-07  2.53534e+07
       699.40000  5.09003e-07  2.53076e+07
       699.50000  4.35894e-07  2.16378e+07
       699.60000  4.35894e-07  2.16029e+07
       699.70000  4.35894e-07  2.15724e+07
       699.80000  4.35894e-07  2.15419e+07
       699.90000  4.35894e-07  2.15114e+07
       700.00000  4.35894e-07  2.14852e+07
       700.10000  4.35894e-07  2.14590e+07
       700.20000  4.35894e-07  2.14329e+07
       700.30000  4.35894e-07  2.14111e+07
       700.40000  4.35894e-07  2.13893e+07
       700.50000  3.20842e-07  1.57277e+07
       700.60000  3.20842e-07  1.57148e+07
       700.70000  3.20842e-07  1.57020e+07
       700.80000  3.20842e-07  1.56924e+07
       700.90000  3.20842e-07  1.56827e+07
       701.00000  3.20842e-07  1.56731e+07
       701.10000  3.20842e-07  1.56699e+07
       701.20000  3.20842e-07  1.56667e+07
       701.30000  3.20623e-07  1.56528e+07
       701.40000  3.20623e-07  1.56528e+07
       701.50000  4.35949e-07  2.12831e+07
       701.60000  4.35949e-07  2.12831e+07
       701.70000  4.35949e-07  2.12831e+07
       701.80000  4.35949e-07  2.12874e+07
       701.90000  4.35949e-07  2.12874e+07
       702.00000  4.35949e-07  2.12918e+07
       702.10000  4.35949e-07  2.13005e+07
       702.20000  4.35949e-07  2.13048e+07
       702.30000  4.35949e-07  2.13136e+07
       702.40000  4.35949e-07  2.13179e+07
       702.50000  4.23602e-07  2.07226e+07
       702.60000  4.23602e-07  2.07353e+07
       702.70000  4.23602e-07  2.07438e+07
       702.80000  4.23602e-07  2.07565e+07
       702.90000  4.23602e-07  2.07692e+07
       703.00000  4.23602e-07  2.07819e+07
       703.10000  4.23602e-07  2.08200e+07
       703.20000  4.23602e-07  2.08582e+07
       703.30000  4.23602e-07  2.08920e+07
       703.40000  4.23602e-07  2.09259e+07
       703.50000  2.76336e-07  1.36703e+07
       703.60000  2.76336e-07  1.36924e+07
       703.70000  2.76336e-07  1.37090e+07
       703.80000  2.75592e-07  1.36914e+07
       703.90000  2.75592e-07  1.37079e+07
       704.00000  2.75592e-07  1.37217e+07
       704.10000  2.75592e-07  1.37383e+07
       704.20000  2.75592e-07  1.37520e+07
       704.30000  2.75592e-07  1.37631e+07
       704.40000  2.75592e-07  1.37741e+07
       704.50000  4.65336e-07  2.32761e+07
       704.60000  4.65336e-07  2.32947e+07
       704.70000  4.65336e-07  2.33087e+07
       704.80000  4.65336e-07  2.33180e+07
       704.90000  4.65336e-07  2.33319e+07
       705.00000  4.65336e-07  2.33412e+07
       705.10000  4.65336e-07  2.33459e+07
       705.20000  4.65336e-07  2.33506e+07
       705.30000  4.65336e-07  2.33552e+07
       705.40000  4.65336e-07  2.33599e+07
       705.50000  4.05780e-07  2.03702e+07
       705.60000  4.05780e-07  2.03702e+07
       705.70000  4.05780e-07  2.03661e+07
       705.80000  4.05780e-07  2.03620e+07
       705.90000  4.05780e-07  2.03580e+07
       706.00000  4.05780e-07  2.03499e+07
       706.10000  4.05780e-07  2.03418e+07
       706.20000  4.05780e-07  2.03296e+07
       706.30000  4.06085e-07  2.03327e+07
       706.40000  4.06085e-07  2.03205e+07
       706.50000  2.09891e-07  1.04946e+07
       706.60000  2.09891e-07  1.04862e+07
       706.70000  2.09891e-07  1.04778e+07
       706.80000  2.09891e-07  1.04673e+07
       706.90000  2.09891e-07  1.04568e+07
       707.00000  2.09891e-07  1.04463e+07
       707.10000  2.09891e-07  1.04379e+07
       707.20000  2.09891e-07  1.04316e+07
       707.30000  2.09891e-07  1.04232e+07
       707.40000  2.09891e-07  1.04169e+07
       707.50000  4.26285e-07  2.11437e+07
       707.60000  4.26285e-07  2.11309e+07
       707.70000  4.26285e-07  2.11224e+07
       707.80000  4.26285e-07  2.11096e+07
       707.90000  4.26285e-07  2.11011e+07
       708.00000  4.26285e-07  2.10926e+07
       708.10000  4.26285e-07  2.10840e+07
       708.20000  4.26285e-07  2.10755e+07
       708.30000  4.26285e-07  2.10670e+07
       708.40000  4.26285e-07  2.10585e+07
       708.50000  2.51967e-07  1.24447e+07
       708.60000  2.51967e-07  1.24396e+07
       708.70000  2.51967e-07  1.24371e+07
       708.80000  2.51110e-07  1.23923e+07
       708.90000  2.51110e-07  1.23898e+07
       709.00000  2.51110e-07  1.23898e+07
       709.10000  2.51110e-07  1.23948e+07
       709.20000  2.51110e-07  1.23998e+07
       709.30000  2.51110e-07  1.24023e+07
       709.40000  2.51110e-07  1.24073e+07
       709.50000  4.31196e-07  2.13097e+07
       709.60000  4.31196e-07  2.13183e+07
       709.70000  4.31196e-07  2.13226e+07
       709.80000  4.31196e-07  2.13270e+07
       709.90000  4.31196e-07  2.13313e+07
       710.00000  4.31196e-07  2.13356e+07
       710.10000  4.31196e-07  2.13399e+07
       710.20000  4.31196e-07  2.13442e+07
       710.30000  4.31196e-07  2.13442e+07
       710.40000  4.31196e-07  2.13485e+07
       710.50000  3.11544e-07  1.54245e+07
       710.60000  3.11544e-07  1.54245e+07
       710.70000  3.11544e-07  1.54245e+07
       710.80000  3.11544e-07  1.54245e+07
       710.90000  3.11544e-07  1.54245e+07
       711.00000  3.11544e-07  1.54245e+07
       711.10000  3.11544e-07  1.54245e+07
       711.20000  3.11544e-07  1.54214e+07
       711.30000  3.11611e-07  1.54248e+07
       711.40000  3.11611e-07  1.54216e+07
       711.50000  3.78568e-07  1.87315e+07
       711.60000  3.78568e-07  1.87277e+07
       711.70000  3.78568e-07  1.87240e+07
       711.80000  3.78568e-07  1.87202e+07
       711.90000  3.78568e-07  1.87164e+07
       712.00000  3.78568e-07  1.87088e+07
       712.10000  3.78568e-07  1.87050e+07
       712.20000  3.78568e-07  1.86975e+07
       712.30000  3.78568e-07  1.86937e+07
       712.40000  3.78568e-07  1.86861e+07
       712.50000  3.56105e-07  1.75702e+07
       712.60000  3.56105e-07  1.75631e+07
       712.70000  3.56105e-07  1.75524e+07
       712.80000  3.56105e-07  1.75453e+07
       712.90000  3.56105e-07  1.75382e+07
       713.00000  3.56105e-07  1.75275e+07
       713.10000  3.56105e-07  1.75275e+07
       713.20000  3.56105e-07  1.75275e+07
       713.30000  3.56105e-07  1.75275e+07
       713.40000  3.56105e-07  1.75239e+07
       713.50000  3.59852e-07  1.77083e+07
       713.60000  3.59852e-07  1.77083e+07
       713.70000  3.59852e-07  1.77047e+07
       713.80000  3.59768e-07  1.77006e+07
       713.90000  3.59768e-07  1.76970e+07
       714.00000  3.59768e-07  1.76970e+07
       714.10000  3.59768e-07  1.76934e+07
       714.20000  3.59768e-07  1.76898e+07
       714.30000  3.59768e-07  1.76898e+07
       714.40000  3.59768e-07  1.76862e+07
       714.50000  3.03965e-07  1.49399e+07
       714.60000  3.03965e-07  1.49368e+07
       714.70000  3.03965e-07  1.49368e+07
       714.80000  3.03965e-07  1.49338e+07
       714.90000  3.03965e-07  1.49307e+07
       715.00000  3.03965e-07  1.49277e+07
       715.10000  3.03965e-07  1.49247e+07
       715.20000  3.03965e-07  1.49247e+07
       715.30000  3.03965e-07  1.49247e+07
       715.40000  3.03965e-07  1.49216e+07
       715.50000  4.18130e-07  2.05218e+07
       715.60000  4.18130e-07  2.05176e+07
       715.70000  4.18130e-07  2.05135e+07
       715.80000  4.18130e-07  2.05093e+07
       715.90000  4.18130e-07  2.05051e+07
       716.00000  4.18130e-07  2.04967e+07
       716.10000  4.18130e-07  2.04926e+07
       716.20000  4.18130e-07  2.04842e+07
       716.30000  4.17527e-07  2.04463e+07
       716.40000  4.17527e-07  2.04380e+07
       716.50000  2.86048e-07  1.39963e+07
       716.60000  2.86048e-07  1.39906e+07
       716.70000  2.86048e-07  1.39849e+07
       716.80000  2.86048e-07  1.39763e+07
       716.90000  2.86048e-07  1.39706e+07
       717.00000  2.86048e-07  1.39620e+07
       717.10000  2.86048e-07  1.39534e+07
       717.20000  2.86048e-07  1.39448e+07
       717.30000  2.86048e-07  1.39363e+07
       717.40000  2.86048e-07  1.39277e+07
       717.50000  2.98634e-07  1.45315e+07
       717.60000  2.98634e-07  1.45196e+07
       717.70000  2.98634e-07  1.45106e+07
       717.80000  2.98634e-07  1.44987e+07
       717.90000  2.98634e-07  1.44867e+07
       718.00000  2.98634e-07  1.44748e+07
       718.10000  2.98634e-07  1.44628e+07
       718.20000  2.98634e-07  1.44509e+07
       718.30000  2.98634e-07  1.44389e+07
       718.40000  2.98634e-07  1.44240e+07
       718.50000  4.25459e-07  2.05327e+07
       718.60000  4.25459e-07  2.05114e+07
       718.70000  4.25459e-07  2.04901e+07
       718.80000  4.23712e-07  2.03848e+07
       718.90000  4.23712e-07  2.03636e+07
       719.00000  4.23712e-07  2.03424e+07
       719.10000  4.23712e-07  2.03424e+07
       719.20000  4.23712e-07  2.03424e+07
       719.30000  4.23712e-07  2.03424e+07
       719.40000  4.23712e-07  2.03466e+07
       719.50000  3.53664e-07  1.69829e+07
       719.60000  3.53664e-07  1.69865e+07
       719.70000  3.53664e-07  1.69865e+07
       719.80000  3.53664e-07  1.69900e+07
       719.90000  3.53664e-07  1.69935e+07
       720.00000  3.53664e-07  1.70006e+07
       720.10000  3.53664e-07  1.70041e+07
       720.20000  3.53664e-07  1.70077e+07
       720.30000  3.53664e-07  1.70148e+07
       720.40000  3.53664e-07  1.70183e+07
       720.50000  7.22902e-07  3.48005e+07
       720.60000  7.22902e-07  3.48150e+07
       720.70000  7.22902e-07  3.48294e+07
       720.80000  7.22902e-07  3.48439e+07
       720.90000  7.22902e-07  3.48656e+07
       721.00000  7.22902e-07  3.48800e+07
       721.10000  7.22902e-07  3.49162e+07
       721.20000  7.22902e-07  3.49523e+07
       721.30000  7.21431e-07  3.49172e+07
       721.40000  7.21431e-07  3.49461e+07
       721.50000  1.06178e-06  5.14856e+07
       721.60000  1.06178e-06  5.15281e+07
       721.70000  1.06178e-06  5.15706e+07
       721.80000  1.06178e-06  5.16237e+07
       721.90000  1.06178e-06  5.16661e+07
       722.00000  1.06178e-06  5.16980e+07
       722.10000  1.06178e-06  5.17405e+07
       722.20000  1.06178e-06  5.17829e+07
       722.30000  1.06178e-06  5.18148e+07
       722.40000  1.06178e-06  5.18466e+07
       722.50000  1.66170e-06  8.11904e+07
       722.60000  1.66170e-06  8.12569e+07
       722.70000  1.66170e-06  8.12901e+07
       722.80000  1.66170e-06  8.13400e+07
       722.90000  1.66170e-06  8.13898e+07
       723.00000  1.66170e-06  8.14231e+07
       723.10000  1.66170e-06  8.14729e+07
       723.20000  1.66170e-06  8.15061e+07
       723.30000  1.66170e-06  8.15394e+07
       723.40000  1.66170e-06  8.15726e+07
       723.50000  1.99106e-06  9.77808e+07
       723.60000  1.99106e-06  9.78007e+07
       723.70000  1.99106e-06  9.78406e+07
       723.80000  1.98495e-06  9.75602e+07
       723.90000  1.98495e-06  9.75800e+07
       724.00000  1.98495e-06  9.75999e+07
       724.10000  1.98495e-06  9.76197e+07
       724.20000  1.98495e-06  9.76396e+07
       724.30000  1.98495e-06  9.76594e+07
       724.40000  1.98495e-06  9.76793e+07
       724.50000  3.97195e-06  1.95460e+08
       724.60000  3.97195e-06  1.95460e+08
       724.70000  3.97195e-06  1.95460e+08
       724.80000  3.97195e-06  1.95460e+08
       724.90000  3.97195e-06  1.95460e+08
       725.00000  3.97195e-06  1.95460e+08
       725.10000  3.97195e-06  1.95539e+08
       725.20000  3.97195e-06  1.95619e+08
       725.30000  3.97195e-06  1.95658e+08
       725.40000  3.97195e-06  1.95738e+08
       725.50000  3.97574e-06  1.95964e+08
       725.60000  3.97574e-06  1.96004e+08
       725.70000  3.97574e-06  1.96004e+08
       725.80000  3.97574e-06  1.96044e+08
       725.90000  3.97574e-06  1.96044e+08
       726.00000  3.97574e-06  1.96044e+08
       726.10000  3.97574e-06  1.96044e+08
       726.20000  3.97574e-06  1.96044e+08
       726.30000  3.96539e-06  1.95494e+08
       726.40000  3.96539e-06  1.95454e+08
       726.50000  3.96881e-06  1.95583e+08
       726.60000  3.96881e-06  1.95543e+08
       726.70000  3.96881e-06  1.95504e+08
       726.80000  3.96881e-06  1.95424e+08
       726.90000  3.96881e-06  1.95345e+08
       727.00000  3.96881e-06  1.95266e+08
       727.10000  3.96881e-06  1.94988e+08
       727.20000  3.96881e-06  1.94710e+08
       727.30000  3.96881e-06  1.94432e+08
       727.40000  3.96881e-06  1.94194e+08
       727.50000  3.96831e-06  1.93931e+08
       727.60000  3.96831e-06  1.93693e+08
       727.70000  3.96831e-06  1.93495e+08
       727.80000  3.96831e-06  1.93296e+08
       727.90000  3.96831e-06  1.93098e+08
       728.00000  3.96831e-06  1.92939e+08
       728.10000  3.96831e-06  1.92781e+08
       728.20000  3.96831e-06  1.92622e+08
       728.30000  3.96831e-06  1.92463e+08
       728.40000  3.96831e-06  1.92344e+08
       728.50000  3.96962e-06  1.92288e+08
       728.60000  3.96962e-06  1.92209e+08
       728.70000  3.96962e-06  1.92090e+08
       728.80000  3.97045e-06  1.92091e+08
       728.90000  3.97045e-06  1.92011e+08
       729.00000  3.97045e-06  1.91971e+08
       729.10000  3.97045e-06  1.91932e+08
       729.20000  3.97045e-06  1.91892e+08
       729.30000  3.97045e-06  1.91892e+08
       729.40000  3.97045e-06  1.91852e+08
       729.50000  1.98798e-06  9.60789e+07
       729.60000  1.98798e-06  9.60789e+07
       729.70000  1.98798e-06  9.60988e+07
       729.80000  1.98798e-06  9.61186e+07
       729.90000  1.98798e-06  9.61584e+07
       730.00000  1.98798e-06  9.61982e+07
       730.10000  1.98798e-06  9.62379e+07
       730.20000  1.98798e-06  9.62777e+07
       730.30000  1.98798e-06  9.63373e+07
       730.40000  1.98798e-06  9.63969e+07
       730.50000  1.98861e-06  9.64872e+07
       730.60000  1.98861e-06  9.65668e+07
       730.70000  1.98861e-06  9.66463e+07
       730.80000  1.98861e-06  9.67259e+07
       730.90000  1.98861e-06  9.68253e+07
       731.00000  1.98861e-06  9.69247e+07
       731.10000  1.98861e-06  9.69048e+07
       731.20000  1.98861e-06  9.68850e+07
       731.30000  1.98714e-06  9.67938e+07
       731.40000  1.98714e-06  9.67938e+07
       731.50000  1.79283e-06  8.73110e+07
       731.60000  1.79283e-06  8.72931e+07
       731.70000  1.79283e-06  8.72752e+07
       731.80000  1.79283e-06  8.72752e+07
       731.90000  1.79283e-06  8.72572e+07
       732.00000  1.79283e-06  8.72393e+07
       732.10000  1.79283e-06  8.72214e+07
       732.20000  1.79283e-06  8.72035e+07
       732.30000  1.79283e-06  8.72035e+07
       732.40000  1.79283e-06  8.71855e+07
       732.50000  1.72832e-06  8.40307e+07
       732.60000  1.72832e-06  8.40134e+07
       732.70000  1.72832e-06  8.39962e+07
       732.80000  1.72832e-06  8.39789e+07
       732.90000  1.72832e-06  8.39616e+07
       733.00000  1.72832e-06  8.39443e+07
       733.10000  1.72832e-06  8.39270e+07
       733.20000  1.72832e-06  8.38925e+07
       733.30000  1.72832e-06  8.38752e+07
       733.40000  1.72832e-06  8.38406e+07
       733.50000  1.73083e-06  8.39454e+07
       733.60000  1.73083e-06  8.39281e+07
       733.70000  1.73083e-06  8.38935e+07
       733.80000  1.72797e-06  8.37376e+07
       733.90000  1.72797e-06  8.37204e+07
       734.00000  1.72797e-06  8.37031e+07
       734.10000  1.72797e-06  8.36858e+07
       734.20000  1.72797e-06  8.36685e+07
       734.30000  1.72797e-06  8.36512e+07
       734.40000  1.72797e-06  8.36512e+07
       734.50000  1.98882e-06  9.62588e+07
       734.60000  1.98882e-06  9.62389e+07
       734.70000  1.98882e-06  9.62389e+07
       734.80000  1.98882e-06  9.62190e+07
       734.90000  1.98882e-06  9.62190e+07
       735.00000  1.98882e-06  9.61991e+07
       735.10000  1.98882e-06  9.61991e+07
       735.20000  1.98882e-06  9.61991e+07
       735.30000  1.98882e-06  9.61991e+07
       735.40000  1.98882e-06  9.61792e+07
       735.50000  1.99176e-06  9.63216e+07
       735.60000  1.99176e-06  9.63216e+07
       735.70000  1.99176e-06  9.63216e+07
       735.80000  1.99176e-06  9.63415e+07
       735.90000  1.99176e-06  9.63415e+07
       736.00000  1.99176e-06  9.63415e+07
       736.10000  1.99176e-06  9.63415e+07
       736.20000  1.99176e-06  9.63614e+07
       736.30000  1.98796e-06  9.61774e+07
       736.40000  1.98796e-06  9.61973e+07
       736.50000  3.97489e-06  1.92345e+08
       736.60000  3.97489e-06  1.92385e+08
       736.70000  3.97489e-06  1.92425e+08
       736.80000  3.97489e-06  1.92425e+08
       736.90000  3.97489e-06  1.92464e+08
       737.00000  3.97489e-06  1.92504e+08
       737.10000  3.97489e-06  1.92305e+08
       737.20000  3.97489e-06  1.92067e+08
       737.30000  3.97489e-06  1.91868e+08
       737.40000  3.97489e-06  1.91669e+08
       737.50000  3.97756e-06  1.91559e+08
       737.60000  3.97756e-06  1.91360e+08
       737.70000  3.97756e-06  1.91162e+08
       737.80000  3.97756e-06  1.90963e+08
       737.90000  3.97756e-06  1.90804e+08
       738.00000  3.97756e-06  1.90605e+08
       738.10000  3.97756e-06  1.90406e+08
       738.20000  3.97756e-06  1.90207e+08
       738.30000  3.97756e-06  1.90048e+08
       738.40000  3.97756e-06  1.89889e+08
       738.50000  3.98173e-06  1.89889e+08
       738.60000  3.98173e-06  1.89729e+08
       738.70000  3.98173e-06  1.89570e+08
       738.80000  3.96500e-06  1.88615e+08
       738.90000  3.96500e-06  1.88456e+08
       739.00000  3.96500e-06  1.88298e+08
       739.10000  3.96500e-06  1.87981e+08
       739.20000  3.96500e-06  1.87703e+08
       739.30000  3.96500e-06  1.87465e+08
       739.40000  3.96500e-06  1.87227e+08
       739.50000  3.96656e-06  1.87063e+08
       739.60000  3.96656e-06  1.86865e+08
       739.70000  3.96656e-06  1.86706e+08
       739.80000  3.96656e-06  1.86508e+08
       739.90000  3.96656e-06  1.86389e+08
       740.00000  3.96656e-06  1.86230e+08
       740.10000  3.96656e-06  1.86151e+08
       740.20000  3.96656e-06  1.86032e+08
       740.30000  3.96656e-06  1.85953e+08
       740.40000  3.96656e-06  1.85913e+08
       740.50000  5.95660e-06  2.79126e+08
       740.60000  5.95660e-06  2.79066e+08
       740.70000  5.95660e-06  2.79066e+08
       740.80000  5.95660e-06  2.79066e+08
       740.90000  5.95660e-06  2.79126e+08
       741.00000  5.95660e-06  2.79186e+08
       741.10000  5.95660e-06  2.79305e+08
       741.20000  5.95660e-06  2.79424e+08
       741.30000  5.95254e-06  2.79353e+08
       741.40000  5.95254e-06  2.79531e+08
       741.50000  3.96988e-06  1.86545e+08
       741.60000  3.96988e-06  1.86704e+08
       741.70000  3.96988e-06  1.86902e+08
       741.80000  3.96988e-06  1.87061e+08
       741.90000  3.96988e-06  1.87299e+08
       742.00000  3.96988e-06  1.87498e+08
       742.10000  3.96988e-06  1.87736e+08
       742.20000  3.96988e-06  1.88014e+08
       742.30000  3.96988e-06  1.88292e+08
       742.40000  3.96988e-06  1.88569e+08
       742.50000  3.96969e-06  1.88878e+08
       742.60000  3.96969e-06  1.89196e+08
       742.70000  3.96969e-06  1.89553e+08
       742.80000  3.96969e-06  1.89910e+08
       742.90000  3.96969e-06  1.90307e+08
       743.00000  3.96969e-06  1.90704e+08
       743.10000  3.96969e-06  1.90625e+08
       743.20000  3.96969e-06  1.90585e+08
       743.30000  3.96969e-06  1.90545e+08
       743.40000  3.96969e-06  1.90466e+08
       743.50000  3.97485e-06  1.90674e+08
       743.60000  3.97485e-06  1.90634e+08
       743.70000  3.97485e-06  1.90594e+08
       743.80000  3.97308e-06  1.90469e+08
       743.90000  3.97308e-06  1.90430e+08
       744.00000  3.97308e-06  1.90390e+08
       744.10000  3.97308e-06  1.90390e+08
       744.20000  3.97308e-06  1.90350e+08
       744.30000  3.97308e-06  1.90350e+08
       744.40000  3.97308e-06  1.90350e+08
       744.50000  1.98704e-06  9.51790e+07
       744.60000  1.98704e-06  9.51790e+07
       744.70000  1.98704e-06  9.51790e+07
       744.80000  1.98704e-06  9.51790e+07
       744.90000  1.98704e-06  9.51989e+07
       745.00000  1.98704e-06  9.51989e+07
       745.10000  1.98704e-06  9.52585e+07
       745.20000  1.98704e-06  9.53181e+07
       745.30000  1.98704e-06  9.53578e+07
       745.40000  1.98704e-06  9.54174e+07
       745.50000  1.97118e-06  9.46955e+07
       745.60000  1.97118e-06  9.47349e+07
       745.70000  1.97118e-06  9.47743e+07
       745.80000  1.97118e-06  9.48138e+07
       745.90000  1.97118e-06  9.48335e+07
       746.00000  1.97118e-06  9.48729e+07
       746.10000  1.97118e-06  9.48926e+07
       746.20000  1.97118e-06  9.49123e+07
       746.30000  1.96219e-06  9.44991e+07
       746.40000  1.96219e-06  9.45187e+07
       746.50000  1.46256e-06  7.04662e+07
       746.60000  1.46256e-06  7.04662e+07
       746.70000  1.46256e-06  7.04808e+07
       746.80000  1.46256e-06  7.04808e+07
       746.90000  1.46256e-06  7.04808e+07
       747.00000  1.46256e-06  7.04808e+07
       747.10000  1.46256e-06  7.04369e+07
       747.20000  1.46256e-06  7.04077e+07
       747.30000  1.46256e-06  7.03784e+07
       747.40000  1.46256e-06  7.03492e+07
       747.50000  1.20127e-06  5.77571e+07
       747.60000  1.20127e-06  5.77331e+07
       747.70000  1.20127e-06  5.77091e+07
       747.80000  1.20127e-06  5.76851e+07
       747.90000  1.20127e-06  5.76610e+07
       748.00000  1.20127e-06  5.76370e+07
       748.10000  1.20127e-06  5.76250e+07
       748.20000  1.20127e-06  5.76010e+07
       748.30000  1.20127e-06  5.75770e+07
       748.40000  1.20127e-06  5.75649e+07
       748.50000  1.09961e-06  5.26713e+07
       748.60000  1.09961e-06  5.26493e+07
       748.70000  1.09961e-06  5.26383e+07
       748.80000  1.09573e-06  5.24308e+07
       748.90000  1.09573e-06  5.24198e+07
       749.00000  1.09573e-06  5.24089e+07
       749.10000  1.09573e-06  5.23869e+07
       749.20000  1.09573e-06  5.23760e+07
       749.30000  1.09573e-06  5.23650e+07
       749.40000  1.09573e-06  5.23541e+07
       749.50000  7.98571e-07  3.81477e+07
       749.60000  7.98571e-07  3.81397e+07
       749.70000  7.98571e-07  3.81238e+07
       749.80000  7.98571e-07  3.81158e+07
       749.90000  7.98571e-07  3.81158e+07
       750.00000  7.98571e-07  3.81078e+07
       750.10000  7.98571e-07  3.80998e+07
       750.20000  7.98571e-07  3.80918e+07
       750.30000  7.98571e-07  3.80838e+07
       750.40000  7.98571e-07  3.80838e+07
       750.50000  7.41049e-07  3.53332e+07
       750.60000  7.41049e-07  3.53258e+07
       750.70000  7.41049e-07  3.53258e+07
       750.80000  7.41049e-07  3.53184e+07
       750.90000  7.41049e-07  3.53184e+07
       751.00000  7.41049e-07  3.53110e+07
       751.10000  7.41049e-07  3.53110e+07
       751.20000  7.41049e-07  3.53110e+07
       751.30000  7.39390e-07  3.52246e+07
       751.40000  7.39390e-07  3.52246e+07
       751.50000  6.28781e-07  2.99551e+07
       751.60000  6.28781e-07  2.99551e+07
       751.70000  6.28781e-07  2.99551e+07
       751.80000  6.28781e-07  2.99551e+07
       751.90000  6.28781e-07  2.99551e+07
       752.00000  6.28781e-07  2.99551e+07
       752.10000  6.28781e-07  2.99551e+07
       752.20000  6.28781e-07  2.99551e+07
       752.30000  6.28781e-07  2.99551e+07
       752.40000  6.28781e-07  2.99551e+07
       752.50000  5.84131e-07  2.78339e+07
       752.60000  5.84131e-07  2.78339e+07
       752.70000  5.84131e-07  2.78339e+07
       752.80000  5.84131e-07  2.78397e+07
       752.90000  5.84131e-07  2.78397e+07
       753.00000  5.84131e-07  2.78455e+07
       753.10000  5.84131e-07  2.78455e+07
       753.20000  5.84131e-07  2.78455e+07
       753.30000  5.84131e-07  2.78455e+07
       753.40000  5.84131e-07  2.78455e+07
       753.50000  6.72878e-07  3.20761e+07
       753.60000  6.72878e-07  3.20761e+07
       753.70000  6.72878e-07  3.20761e+07
       753.80000  6.72539e-07  3.20599e+07
       753.90000  6.72539e-07  3.20599e+07
       754.00000  6.72539e-07  3.20599e+07
       754.10000  6.72539e-07  3.20599e+07
       754.20000  6.72539e-07  3.20532e+07
       754.30000  6.72539e-07  3.20532e+07
       754.40000  6.72539e-07  3.20532e+07
       754.50000  6.23451e-07  2.97137e+07
       754.60000  6.23451e-07  2.97137e+07
       754.70000  6.23451e-07  2.97075e+07
       754.80000  6.23451e-07  2.97075e+07
       754.90000  6.23451e-07  2.97012e+07
       755.00000  6.23451e-07  2.97012e+07
       755.10000  6.23451e-07  2.96950e+07
       755.20000  6.23451e-07  2.96950e+07
       755.30000  6.23451e-07  2.96888e+07
       755.40000  6.23451e-07  2.96888e+07
       755.50000  4.50928e-07  2.14687e+07
       755.60000  4.50928e-07  2.14642e+07
       755.70000  4.50928e-07  2.14642e+07
       755.80000  4.50928e-07  2.14597e+07
       755.90000  4.50928e-07  2.14552e+07
       756.00000  4.50928e-07  2.14552e+07
       756.10000  4.50928e-07  2.14507e+07
       756.20000  4.50928e-07  2.14462e+07
       756.30000  4.50210e-07  2.14075e+07
       756.40000  4.50210e-07  2.14075e+07
       756.50000  5.23894e-07  2.49059e+07
       756.60000  5.23894e-07  2.49007e+07
       756.70000  5.23894e-07  2.48954e+07
       756.80000  5.23894e-07  2.48954e+07
       756.90000  5.23894e-07  2.48902e+07
       757.00000  5.23894e-07  2.48850e+07
       757.10000  5.23894e-07  2.48797e+07
       757.20000  5.23894e-07  2.48745e+07
       757.30000  5.23894e-07  2.48745e+07
       757.40000  5.23894e-07  2.48692e+07
       757.50000  5.97142e-07  2.83404e+07
       757.60000  5.97142e-07  2.83344e+07
       757.70000  5.97142e-07  2.83284e+07
       757.80000  5.97142e-07  2.83224e+07
       757.90000  5.97142e-07  2.83165e+07
       758.00000  5.97142e-07  2.83165e+07
       758.10000  5.97142e-07  2.83105e+07
       758.20000  5.97142e-07  2.83045e+07
       758.30000  5.97142e-07  2.82986e+07
       758.40000  5.97142e-07  2.82926e+07
       758.50000  5.64716e-07  2.67506e+07
       758.60000  5.64716e-07  2.67449e+07
       758.70000  5.64716e-07  2.67393e+07
       758.80000  5.63192e-07  2.66615e+07
       758.90000  5.63192e-07  2.66559e+07
       759.00000  5.63192e-07  2.66502e+07
       759.10000  5.63192e-07  2.66502e+07
       759.20000  5.63192e-07  2.66446e+07
       759.30000  5.63192e-07  2.66446e+07
       759.40000  5.63192e-07  2.66390e+07
       759.50000  7.25788e-07  3.43298e+07
       759.60000  7.25788e-07  3.43298e+07
       759.70000  7.25788e-07  3.43225e+07
       759.80000  7.25788e-07  3.43225e+07
       759.90000  7.25788e-07  3.43225e+07
       760.00000  7.25788e-07  3.43225e+07
       760.10000  7.25788e-07  3.43225e+07
       760.20000  7.25788e-07  3.43225e+07
       760.30000  7.25788e-07  3.43298e+07
       760.40000  7.25788e-07  3.43298e+07
       760.50000  7.45858e-07  3.52791e+07
       760.60000  7.45858e-07  3.52865e+07
       760.70000  7.45858e-07  3.52865e+07
       760.80000  7.45858e-07  3.52940e+07
       760.90000  7.45858e-07  3.52940e+07
       761.00000  7.45858e-07  3.53015e+07
       761.10000  7.45858e-07  3.53313e+07
       761.20000  7.45858e-07  3.53537e+07
       761.30000  7.44307e-07  3.53025e+07
       761.40000  7.44307e-07  3.53248e+07
       761.50000  6.88355e-07  3.26900e+07
       761.60000  6.88355e-07  3.27038e+07
       761.70000  6.88355e-07  3.27175e+07
       761.80000  6.88355e-07  3.27313e+07
       761.90000  6.88355e-07  3.27451e+07
       762.00000  6.88355e-07  3.27520e+07
       762.10000  6.88355e-07  3.27657e+07
       762.20000  6.88355e-07  3.27726e+07
       762.30000  6.88355e-07  3.27795e+07
       762.40000  6.88355e-07  3.27795e+07
       762.50000  6.61441e-07  3.14978e+07
       762.60000  6.61441e-07  3.15044e+07
       762.70000  6.61441e-07  3.15044e+07
       762.80000  6.61441e-07  3.14978e+07
       762.90000  6.61441e-07  3.14978e+07
       763.00000  6.61441e-07  3.14912e+07
       763.10000  6.61441e-07  3.14846e+07
       763.20000  6.61441e-07  3.14780e+07
       763.30000  6.61441e-07  3.14647e+07
       763.40000  6.61441e-07  3.14515e+07
       763.50000  7.37198e-07  3.50390e+07
       763.60000  7.37198e-07  3.50243e+07
       763.70000  7.37198e-07  3.50095e+07
       763.80000  7.35311e-07  3.48978e+07
       763.90000  7.35311e-07  3.48758e+07
       764.00000  7.35311e-07  3.48537e+07
       764.10000  7.35311e-07  3.48317e+07
       764.20000  7.35311e-07  3.48022e+07
       764.30000  7.35311e-07  3.47728e+07
       764.40000  7.35311e-07  3.47434e+07
       764.50000  7.10336e-07  3.35350e+07
       764.60000  7.10336e-07  3.35066e+07
       764.70000  7.10336e-07  3.34710e+07
       764.80000  7.10336e-07  3.34355e+07
       764.90000  7.10336e-07  3.34000e+07
       765.00000  7.10336e-07  3.33574e+07
       765.10000  7.10336e-07  3.32793e+07
       765.20000  7.10336e-07  3.32011e+07
       765.30000  7.10336e-07  3.31301e+07
       765.40000  7.10336e-07  3.30591e+07
       765.50000  6.49918e-07  3.01887e+07
       765.60000  6.49918e-07  3.01367e+07
       765.70000  6.49918e-07  3.00782e+07
       765.80000  6.49918e-07  3.00327e+07
       765.90000  6.49918e-07  2.99872e+07
       766.00000  6.49918e-07  2.99417e+07
       766.10000  6.49918e-07  2.99027e+07
       766.20000  6.49918e-07  2.98637e+07
       766.30000  6.49900e-07  2.98304e+07
       766.40000  6.49900e-07  2.98044e+07
       766.50000  7.05306e-07  3.23171e+07
       766.60000  7.05306e-07  3.22889e+07
       766.70000  7.05306e-07  3.22748e+07
       766.80000  7.05306e-07  3.22536e+07
       766.90000  7.05306e-07  3.22395e+07
       767.00000  7.05306e-07  3.22325e+07
       767.10000  7.05306e-07  3.22677e+07
       767.20000  7.05306e-07  3.23100e+07
       767.30000  7.05306e-07  3.23453e+07
       767.40000  7.05306e-07  3.23806e+07
       767.50000  8.97870e-07  4.12661e+07
       767.60000  8.97870e-07  4.13110e+07
       767.70000  8.97870e-07  4.13559e+07
       767.80000  8.97870e-07  4.13918e+07
       767.90000  8.97870e-07  4.14367e+07
       768.00000  8.97870e-07  4.14726e+07
       768.10000  8.97870e-07  4.15085e+07
       768.20000  8.97870e-07  4.15444e+07
       768.30000  8.97870e-07  4.15714e+07
       768.40000  8.97870e-07  4.16073e+07
       768.50000  9.59311e-07  4.44833e+07
       768.60000  9.59311e-07  4.45120e+07
       768.70000  9.59311e-07  4.45408e+07
       768.80000  9.58802e-07  4.45459e+07
       768.90000  9.58802e-07  4.45747e+07
       769.00000  9.58802e-07  4.45939e+07
       769.10000  9.58802e-07  4.46226e+07
       769.20000  9.58802e-07  4.46418e+07
       769.30000  9.58802e-07  4.46610e+07
       769.40000  9.58802e-07  4.46802e+07
       769.50000  1.03722e-06  4.83446e+07
       769.60000  1.03722e-06  4.83654e+07
       769.70000  1.03722e-06  4.83758e+07
       769.80000  1.03722e-06  4.83965e+07
       769.90000  1.03722e-06  4.84069e+07
       770.00000  1.03722e-06  4.84069e+07
       770.10000  1.03722e-06  4.84173e+07
       770.20000  1.03722e-06  4.84276e+07
       770.30000  1.03722e-06  4.84276e+07
       770.40000  1.03722e-06  4.84276e+07
       770.50000  1.32906e-06  6.20540e+07
       770.60000  1.32906e-06  6.20540e+07
       770.70000  1.32906e-06  6.20540e+07
       770.80000  1.32906e-06  6.20540e+07
       770.90000  1.32906e-06  6.20407e+07
       771.00000  1.32906e-06  6.20274e+07
       771.10000  1.32906e-06  6.20806e+07
       771.20000  1.32906e-06  6.21204e+07
       771.30000  1.32500e-06  6.19701e+07
       771.40000  1.32500e-06  6.20098e+07
       771.50000  1.54691e-06  7.24420e+07
       771.60000  1.54691e-06  7.24729e+07
       771.70000  1.54691e-06  7.25193e+07
       771.80000  1.54691e-06  7.25503e+07
       771.90000  1.54691e-06  7.25657e+07
       772.00000  1.54691e-06  7.25967e+07
       772.10000  1.54691e-06  7.26121e+07
       772.20000  1.54691e-06  7.26276e+07
       772.30000  1.54691e-06  7.26431e+07
       772.40000  1.54691e-06  7.26586e+07
       772.50000  1.74868e-06  8.21354e+07
       772.60000  1.74868e-06  8.21354e+07
       772.70000  1.74868e-06  8.21354e+07
       772.80000  1.74868e-06  8.21179e+07
       772.90000  1.74868e-06  8.21179e+07
       773.00000  1.74868e-06  8.21004e+07
       773.10000  1.74868e-06  8.19955e+07
       773.20000  1.74868e-06  8.19081e+07
       773.30000  1.74868e-06  8.18032e+07
       773.40000  1.74868e-06  8.17157e+07
       773.50000  1.73927e-06  8.11891e+07
       773.60000  1.73927e-06  8.11196e+07
       773.70000  1.73927e-06  8.10500e+07
       773.80000  1.73239e-06  8.06600e+07
       773.90000  1.73239e-06  8.05908e+07
       774.00000  1.73239e-06  8.05215e+07
       774.10000  1.73239e-06  8.04695e+07
       774.20000  1.73239e-06  8.04175e+07
       774.30000  1.73239e-06  8.03829e+07
       774.40000  1.73239e-06  8.03309e+07
       774.50000  1.72303e-06  7.98624e+07
       774.60000  1.72303e-06  7.98452e+07
       774.70000  1.72303e-06  7.98107e+07
       774.80000  1.72303e-06  7.97935e+07
       774.90000  1.72303e-06  7.97763e+07
       775.00000  1.72303e-06  7.97590e+07
       775.10000  1.72303e-06  7.97590e+07
       775.20000  1.72303e-06  7.97590e+07
       775.30000  1.72303e-06  7.97590e+07
       775.40000  1.72303e-06  7.97590e+07
       775.50000  3.42763e-06  1.58699e+08
       775.60000  3.42763e-06  1.58733e+08
       775.70000  3.42763e-06  1.58768e+08
       775.80000  3.42763e-06  1.58802e+08
       775.90000  3.42763e-06  1.58871e+08
       776.00000  3.42763e-06  1.58939e+08
       776.10000  3.42763e-06  1.59008e+08
       776.20000  3.42763e-06  1.59110e+08
       776.30000  3.41894e-06  1.58810e+08
       776.40000  3.41894e-06  1.58912e+08
       776.50000  3.40042e-06  1.58154e+08
       776.60000  3.40042e-06  1.58290e+08
       776.70000  3.40042e-06  1.58426e+08
       776.80000  3.40042e-06  1.58562e+08
       776.90000  3.40042e-06  1.58732e+08
       777.00000  3.40042e-06  1.58868e+08
       777.10000  3.40042e-06  1.58800e+08
       777.20000  3.40042e-06  1.58766e+08
       777.30000  3.40042e-06  1.58698e+08
       777.40000  3.40042e-06  1.58630e+08
       777.50000  3.38454e-06  1.57821e+08
       777.60000  3.38454e-06  1.57787e+08
       777.70000  3.38454e-06  1.57720e+08
       777.80000  3.38454e-06  1.57686e+08
       777.90000  3.38454e-06  1.57652e+08
       778.00000  3.38454e-06  1.57584e+08
       778.10000  3.38454e-06  1.57551e+08
       778.20000  3.38454e-06  1.57517e+08
       778.30000  3.38454e-06  1.57483e+08
       778.40000  3.38454e-06  1.57449e+08
       778.50000  3.36573e-06  1.56574e+08
       778.60000  3.36573e-06  1.56540e+08
       778.70000  3.36573e-06  1.56506e+08
       778.80000  3.35720e-06  1.56110e+08
       778.90000  3.35720e-06  1.56110e+08
       779.00000  3.35720e-06  1.56076e+08
       779.10000  3.35720e-06  1.56144e+08
       779.20000  3.35720e-06  1.56177e+08
       779.30000  3.35720e-06  1.56244e+08
       779.40000  3.35720e-06  1.56278e+08
       779.50000  5.00161e-06  2.32875e+08
       779.60000  5.00161e-06  2.32925e+08
       779.70000  5.00161e-06  2.32975e+08
       779.80000  5.00161e-06  2.33025e+08
       779.90000  5.00161e-06  2.33075e+08
       780.00000  5.00161e-06  2.33125e+08
       780.10000  5.00161e-06  2.33125e+08
       780.20000  5.00161e-06  2.33175e+08
       780.30000  5.00161e-06  2.33175e+08
       780.40000  5.00161e-06  2.33175e+08
       780.50000  4.97670e-06  2.32014e+08
       780.60000  4.97670e-06  2.32014e+08
       780.70000  4.97670e-06  2.32014e+08
       780.80000  4.97670e-06  2.32014e+08
       780.90000  4.97670e-06  2.32014e+08
       781.00000  4.97670e-06  2.31964e+08
       781.10000  4.97670e-06  2.31964e+08
       781.20000  4.97670e-06  2.31914e+08
       781.30000  4.94903e-06  2.30575e+08
       781.40000  4.94903e-06  2.30526e+08
       781.50000  4.92367e-06  2.29295e+08
       781.60000  4.92367e-06  2.29246e+08
       781.70000  4.92367e-06  2.29197e+08
       781.80000  4.92367e-06  2.29148e+08
       781.90000  4.92367e-06  2.29049e+08
       782.00000  4.92367e-06  2.29000e+08
       782.10000  4.92367e-06  2.28901e+08
       782.20000  4.92367e-06  2.28803e+08
       782.30000  4.92367e-06  2.28754e+08
       782.40000  4.92367e-06  2.28655e+08
       782.50000  4.89853e-06  2.27390e+08
       782.60000  4.89853e-06  2.27243e+08
       782.70000  4.89853e-06  2.27145e+08
       782.80000  4.89853e-06  2.27047e+08
       782.90000  4.89853e-06  2.26900e+08
       783.00000  4.89853e-06  2.26802e+08
       783.10000  4.89853e-06  2.26900e+08
       783.20000  4.89853e-06  2.26998e+08
       783.30000  4.89853e-06  2.27096e+08
       783.40000  4.89853e-06  2.27145e+08
       783.50000  3.24386e-06  1.50482e+08
       783.60000  3.24386e-06  1.50547e+08
       783.70000  3.24386e-06  1.50580e+08
       783.80000  3.22732e-06  1.49877e+08
       783.90000  3.22732e-06  1.49941e+08
       784.00000  3.22732e-06  1.49974e+08
       784.10000  3.22732e-06  1.50006e+08
       784.20000  3.22732e-06  1.50070e+08
       784.30000  3.22732e-06  1.50103e+08
       784.40000  3.22732e-06  1.50135e+08
       784.50000  3.21217e-06  1.49462e+08
       784.60000  3.21217e-06  1.49494e+08
       784.70000  3.21217e-06  1.49526e+08
       784.80000  3.21217e-06  1.49558e+08
       784.90000  3.21217e-06  1.49591e+08
       785.00000  3.21217e-06  1.49591e+08
       785.10000  3.21217e-06  1.49591e+08
       785.20000  3.21217e-06  1.49591e+08
       785.30000  3.21217e-06  1.49591e+08
       785.40000  3.21217e-06  1.49591e+08
       785.50000  1.59755e-06  7.43978e+07
       785.60000  1.59755e-06  7.43978e+07
       785.70000  1.59755e-06  7.43978e+07
       785.80000  1.59755e-06  7.43978e+07
       785.90000  1.59755e-06  7.43978e+07
       786.00000  1.59755e-06  7.43978e+07
       786.10000  1.59755e-06  7.43978e+07
       786.20000  1.59755e-06  7.43978e+07
       786.30000  1.59487e-06  7.42731e+07
       786.40000  1.59487e-06  7.42731e+07
       786.50000  1.54003e-06  7.17190e+07
       786.60000  1.54003e-06  7.17190e+07
       786.70000  1.54003e-06  7.17190e+07
       786.80000  1.54003e-06  7.17190e+07
       786.90000  1.54003e-06  7.17190e+07
       787.00000  1.54003e-06  7.17190e+07
       787.10000  1.54003e-06  7.17190e+07
       787.20000  1.54003e-06  7.17190e+07
       787.30000  1.54003e-06  7.17190e+07
       787.40000  1.54003e-06  7.17190e+07
       787.50000  1.03069e-06  4.79991e+07
       787.60000  1.03069e-06  4.79991e+07
       787.70000  1.03069e-06  4.79991e+07
       787.80000  1.03069e-06  4.79991e+07
       787.90000  1.03069e-06  4.79991e+07
       788.00000  1.03069e-06  4.79991e+07
       788.10000  1.03069e-06  4.79991e+07
       788.20000  1.03069e-06  4.79991e+07
       788.30000  1.03069e-06  4.79991e+07
       788.40000  1.03069e-06  4.79991e+07
       788.50000  8.59728e-07  4.00375e+07
       788.60000  8.59728e-07  4.00375e+07
       788.70000  8.59728e-07  4.00375e+07
       788.80000  8.59878e-07  4.00445e+07
       788.90000  8.59878e-07  4.00445e+07
       789.00000  8.59878e-07  4.00445e+07
       789.10000  8.59878e-07  4.00273e+07
       789.20000  8.59878e-07  4.00015e+07
       789.30000  8.59878e-07  3.99757e+07
       789.40000  8.59878e-07  3.99585e+07
       789.50000  7.09660e-07  3.29566e+07
       789.60000  7.09660e-07  3.29353e+07
       789.70000  7.09660e-07  3.29211e+07
       789.80000  7.09660e-07  3.28998e+07
       789.90000  7.09660e-07  3.28785e+07
       790.00000  7.09660e-07  3.28643e+07
       790.10000  7.09660e-07  3.28430e+07
       790.20000  7.09660e-07  3.28288e+07
       790.30000  7.09660e-07  3.28076e+07
       790.40000  7.09660e-07  3.27934e+07
       790.50000  4.89856e-07  2.26216e+07
       790.60000  4.89856e-07  2.26069e+07
       790.70000  4.89856e-07  2.25971e+07
       790.80000  4.89856e-07  2.25824e+07
       790.90000  4.89856e-07  2.25726e+07
       791.00000  4.89856e-07  2.25579e+07
       791.10000  4.89856e-07  2.25432e+07
       791.20000  4.89856e-07  2.25334e+07
       791.30000  4.88429e-07  2.24531e+07
       791.40000  4.88429e-07  2.24384e+07
       791.50000  6.00626e-07  2.75747e+07
       791.60000  6.00626e-07  2.75567e+07
       791.70000  6.00626e-07  2.75447e+07
       791.80000  6.00626e-07  2.75267e+07
       791.90000  6.00626e-07  2.75147e+07
       792.00000  6.00626e-07  2.74966e+07
       792.10000  6.00626e-07  2.74846e+07
       792.20000  6.00626e-07  2.74726e+07
       792.30000  6.00626e-07  2.74546e+07
       792.40000  6.00626e-07  2.74426e+07
       792.50000  4.89571e-07  2.23587e+07
       792.60000  4.89571e-07  2.23489e+07
       792.70000  4.89571e-07  2.23391e+07
       792.80000  4.89571e-07  2.23293e+07
       792.90000  4.89571e-07  2.23195e+07
       793.00000  4.89571e-07  2.23098e+07
       793.10000  4.89571e-07  2.22951e+07
       793.20000  4.89571e-07  2.22755e+07
       793.30000  4.89571e-07  2.22608e+07
       793.40000  4.89571e-07  2.22461e+07
       793.50000  4.48387e-07  2.03613e+07
       793.60000  4.48387e-07  2.03523e+07
       793.70000  4.48387e-07  2.03389e+07
       793.80000  4.47108e-07  2.02764e+07
       793.90000  4.47108e-07  2.02674e+07
       794.00000  4.47108e-07  2.02629e+07
       794.10000  4.47108e-07  2.02540e+07
       794.20000  4.47108e-07  2.02540e+07
       794.30000  4.47108e-07  2.02495e+07
       794.40000  4.47108e-07  2.02495e+07
       794.50000  5.02257e-07  2.27472e+07
       794.60000  5.02257e-07  2.27472e+07
       794.70000  5.02257e-07  2.27522e+07
       794.80000  5.02257e-07  2.27522e+07
       794.90000  5.02257e-07  2.27573e+07
       795.00000  5.02257e-07  2.27673e+07
       795.10000  5.02257e-07  2.28025e+07
       795.20000  5.02257e-07  2.28376e+07
       795.30000  5.02257e-07  2.28728e+07
       795.40000  5.02257e-07  2.29079e+07
       795.50000  4.19518e-07  1.91594e+07
       795.60000  4.19518e-07  1.91846e+07
       795.70000  4.19518e-07  1.92055e+07
       795.80000  4.19518e-07  1.92265e+07
       795.90000  4.19518e-07  1.92475e+07
       796.00000  4.19518e-07  1.92643e+07
       796.10000  4.19518e-07  1.92811e+07
       796.20000  4.19518e-07  1.92978e+07
       796.30000  4.18960e-07  1.92847e+07
       796.40000  4.18960e-07  1.92973e+07
       796.50000  3.30047e-07  1.52119e+07
       796.60000  3.30047e-07  1.52185e+07
       796.70000  3.30047e-07  1.52251e+07
       796.80000  3.30047e-07  1.52284e+07
       796.90000  3.30047e-07  1.52317e+07
       797.00000  3.30047e-07  1.52350e+07
       797.10000  3.30047e-07  1.52383e+07
       797.20000  3.30047e-07  1.52383e+07
       797.30000  3.30047e-07  1.52383e+07
       797.40000  3.30047e-07  1.52350e+07
       797.50000  3.50056e-07  1.61551e+07
       797.60000  3.50056e-07  1.61516e+07
       797.70000  3.50056e-07  1.61446e+07
       797.80000  3.50056e-07  1.61376e+07
       797.90000  3.50056e-07  1.61306e+07
       798.00000  3.50056e-07  1.61201e+07
       798.10000  3.50056e-07  1.61096e+07
       798.20000  3.50056e-07  1.60991e+07
       798.30000  3.50056e-07  1.60851e+07
       798.40000  3.50056e-07  1.60711e+07
       798.50000  2.84787e-07  1.30632e+07
       798.60000  2.84787e-07  1.30489e+07
       798.70000  2.84787e-07  1.30347e+07
       798.80000  2.84136e-07  1.29907e+07
       798.90000  2.84136e-07  1.29736e+07
       799.00000  2.84136e-07  1.29566e+07
       799.10000  2.84136e-07  1.29651e+07
       799.20000  2.84136e-07  1.29765e+07
       799.30000  2.84136e-07  1.29878e+07
       799.40000  2.84136e-07  1.29964e+07
       799.50000  2.14252e-07  9.80630e+06
       799.60000  2.14252e-07  9.81273e+06
       799.70000  2.14252e-07  9.81915e+06
       799.80000  2.14252e-07  9.82344e+06
       799.90000  2.14252e-07  9.82772e+06
       800.00000  2.14252e-07  9.83201e+06
       800.10000  2.14252e-07  9.83629e+06
       800.20000  2.14252e-07  9.84058e+06
       800.30000  2.14252e-07  9.84486e+06
       800.40000  2.14252e-07  9.84701e+06
       800.50000  1.87554e-07  8.62184e+06
       800.60000  1.87554e-07  8.62371e+06
       800.70000  1.87554e-07  8.62371e+06
       800.80000  1.87554e-07  8.62559e+06
       800.90000  1.87554e-07  8.62559e+06
       801.00000  1.87554e-07  8.62559e+06
       801.10000  1.87554e-07  8.62184e+06
       801.20000  1.87554e-07  8.61809e+06
       801.30000  1.87003e-07  8.58905e+06
       801.40000  1.87003e-07  8.58531e+06
       801.50000  2.05999e-07  9.45328e+06
       801.60000  2.05999e-07  9.44916e+06
       801.70000  2.05999e-07  9.44504e+06
       801.80000  2.05999e-07  9.44092e+06
       801.90000  2.05999e-07  9.43680e+06
       802.00000  2.05999e-07  9.43268e+06
       802.10000  2.05999e-07  9.42856e+06
       802.20000  2.05999e-07  9.42444e+06
       802.30000  2.05999e-07  9.42032e+06
       802.40000  2.05999e-07  9.41620e+06
       802.50000  1.60213e-07  7.32014e+06
       802.60000  1.60213e-07  7.31694e+06
       802.70000  1.60213e-07  7.31373e+06
       802.80000  1.60213e-07  7.30893e+06
       802.90000  1.60213e-07  7.30572e+06
       803.00000  1.60213e-07  7.30252e+06
       803.10000  1.60213e-07  7.29931e+06
       803.20000  1.60213e-07  7.29611e+06
       803.30000  1.60213e-07  7.29290e+06
       803.40000  1.60213e-07  7.28810e+06
       803.50000  3.04792e-07  1.38589e+07
       803.60000  3.04792e-07  1.38528e+07
       803.70000  3.04792e-07  1.38467e+07
       803.80000  3.03845e-07  1.37976e+07
       803.90000  3.03845e-07  1.37885e+07
       804.00000  3.03845e-07  1.37824e+07
       804.10000  3.03845e-07  1.37763e+07
       804.20000  3.03845e-07  1.37703e+07
       804.30000  3.03845e-07  1.37611e+07
       804.40000  3.03845e-07  1.37551e+07
       804.50000  2.39547e-07  1.08395e+07
       804.60000  2.39547e-07  1.08323e+07
       804.70000  2.39547e-07  1.08275e+07
       804.80000  2.39547e-07  1.08227e+07
       804.90000  2.39547e-07  1.08156e+07
       805.00000  2.39547e-07  1.08108e+07
       805.10000  2.39547e-07  1.08204e+07
       805.20000  2.39547e-07  1.08323e+07
       805.30000  2.39547e-07  1.08395e+07
       805.40000  2.39547e-07  1.08491e+07
       805.50000  2.30341e-07  1.04390e+07
       805.60000  2.30341e-07  1.04460e+07
       805.70000  2.30341e-07  1.04529e+07
       805.80000  2.30341e-07  1.04575e+07
       805.90000  2.30341e-07  1.04621e+07
       806.00000  2.30341e-07  1.04667e+07
       806.10000  2.30341e-07  1.04690e+07
       806.20000  2.30341e-07  1.04713e+07
       806.30000  2.29890e-07  1.04531e+07
       806.40000  2.29890e-07  1.04554e+07
       806.50000  2.26493e-07  1.03009e+07
       806.60000  2.26493e-07  1.03009e+07
       806.70000  2.26493e-07  1.02986e+07
       806.80000  2.26493e-07  1.02986e+07
       806.90000  2.26493e-07  1.02964e+07
       807.00000  2.26493e-07  1.02918e+07
       807.10000  2.26493e-07  1.02737e+07
       807.20000  2.26493e-07  1.02533e+07
       807.30000  2.26493e-07  1.02352e+07
       807.40000  2.26493e-07  1.02194e+07
       807.50000  2.29477e-07  1.03379e+07
       807.60000  2.29477e-07  1.03219e+07
       807.70000  2.29477e-07  1.03081e+07
       807.80000  2.29477e-07  1.02966e+07
       807.90000  2.29477e-07  1.02852e+07
       808.00000  2.29477e-07  1.02737e+07
       808.10000  2.29477e-07  1.02645e+07
       808.20000  2.29477e-07  1.02553e+07
       808.30000  2.29477e-07  1.02461e+07
       808.40000  2.29477e-07  1.02393e+07
       808.50000  1.43615e-07  6.40522e+06
       808.60000  1.43615e-07  6.40235e+06
       808.70000  1.43615e-07  6.39948e+06
       808.80000  1.43479e-07  6.39199e+06
       808.90000  1.43479e-07  6.39055e+06
       809.00000  1.43479e-07  6.39055e+06
       809.10000  1.43479e-07  6.39055e+06
       809.20000  1.43479e-07  6.39199e+06
       809.30000  1.43479e-07  6.39342e+06
       809.40000  1.43479e-07  6.39486e+06
       809.50000  2.01104e-07  8.96724e+06
       809.60000  2.01104e-07  8.97327e+06
       809.70000  2.01104e-07  8.97930e+06
       809.80000  2.01104e-07  8.98533e+06
       809.90000  2.01104e-07  8.99338e+06
       810.00000  2.01104e-07  9.00142e+06
       810.10000  2.01104e-07  9.01148e+06
       810.20000  2.01104e-07  9.02153e+06
       810.30000  2.01104e-07  9.03159e+06
       810.40000  2.01104e-07  9.04366e+06
       810.50000  2.12258e-07  9.56011e+06
       810.60000  2.12258e-07  9.57285e+06
       810.70000  2.12258e-07  9.58983e+06
       810.80000  2.12258e-07  9.60681e+06
       810.90000  2.12258e-07  9.62379e+06
       811.00000  2.12258e-07  9.64289e+06
       811.10000  2.12258e-07  9.64501e+06
       811.20000  2.12258e-07  9.64926e+06
       811.30000  2.12118e-07  9.64502e+06
       811.40000  2.12118e-07  9.64926e+06
       811.50000  1.51614e-07  6.89843e+06
       811.60000  1.51614e-07  6.89995e+06
       811.70000  1.51614e-07  6.90146e+06
       811.80000  1.51614e-07  6.90298e+06
       811.90000  1.51614e-07  6.90449e+06
       812.00000  1.51614e-07  6.90601e+06
       812.10000  1.51614e-07  6.90601e+06
       812.20000  1.51614e-07  6.90753e+06
       812.30000  1.51614e-07  6.90904e+06
       812.40000  1.51614e-07  6.90904e+06
       812.50000  2.44194e-07  1.11279e+07
       812.60000  2.44194e-07  1.11304e+07
       812.70000  2.44194e-07  1.11304e+07
       812.80000  2.44194e-07  1.11304e+07
       812.90000  2.44194e-07  1.11304e+07
       813.00000  2.44194e-07  1.11304e+07
       813.10000  2.44194e-07  1.11255e+07
       813.20000  2.44194e-07  1.11231e+07
       813.30000  2.44194e-07  1.11182e+07
       813.40000  2.44194e-07  1.11157e+07
       813.50000  2.74631e-07  1.24957e+07
       813.60000  2.74631e-07  1.24930e+07
       813.70000  2.74631e-07  1.24902e+07
       813.80000  2.74601e-07  1.24861e+07
       813.90000  2.74601e-07  1.24834e+07
       814.00000  2.74601e-07  1.24779e+07
       814.10000  2.74601e-07  1.24751e+07
       814.20000  2.74601e-07  1.24724e+07
       814.30000  2.74601e-07  1.24696e+07
       814.40000  2.74601e-07  1.24696e+07
       814.50000  2.00515e-07  9.10336e+06
       814.60000  2.00515e-07  9.10136e+06
       814.70000  2.00515e-07  9.09935e+06
       814.80000  2.00515e-07  9.09735e+06
       814.90000  2.00515e-07  9.09735e+06
       815.00000  2.00515e-07  9.09534e+06
       815.10000  2.00515e-07  9.10336e+06
       815.20000  2.00515e-07  9.10938e+06
       815.30000  2.00515e-07  9.11539e+06
       815.40000  2.00515e-07  9.11940e+06
       815.50000  2.54061e-07  1.15623e+07
       815.60000  2.54061e-07  1.15649e+07
       815.70000  2.54061e-07  1.15699e+07
       815.80000  2.54061e-07  1.15699e+07
       815.90000  2.54061e-07  1.15725e+07
       816.00000  2.54061e-07  1.15725e+07
       816.10000  2.54061e-07  1.15725e+07
       816.20000  2.54061e-07  1.15699e+07
       816.30000  2.54054e-07  1.15671e+07
       816.40000  2.54054e-07  1.15645e+07
       816.50000  2.69918e-07  1.22813e+07
       816.60000  2.69918e-07  1.22759e+07
       816.70000  2.69918e-07  1.22678e+07
       816.80000  2.69918e-07  1.22597e+07
       816.90000  2.69918e-07  1.22516e+07
       817.00000  2.69918e-07  1.22408e+07
       817.10000  2.69918e-07  1.22030e+07
       817.20000  2.69918e-07  1.21679e+07
       817.30000  2.69918e-07  1.21355e+07
       817.40000  2.69918e-07  1.21031e+07
       817.50000  1.78412e-07  7.98035e+06
       817.60000  1.78412e-07  7.96251e+06
       817.70000  1.78412e-07  7.94466e+06
       817.80000  1.78412e-07  7.92682e+06
       817.90000  1.78412e-07  7.91255e+06
       818.00000  1.78412e-07  7.89649e+06
       818.10000  1.78412e-07  7.88401e+06
       818.20000  1.78412e-07  7.87152e+06
       818.30000  1.78412e-07  7.85903e+06
       818.40000  1.78412e-07  7.85011e+06
       818.50000  3.03825e-07  1.33501e+07
       818.60000  3.03825e-07  1.33379e+07
       818.70000  3.03825e-07  1.33258e+07
       818.80000  3.03779e-07  1.33116e+07
       818.90000  3.03779e-07  1.33055e+07
       819.00000  3.03779e-07  1.32964e+07
       819.10000  3.03779e-07  1.32934e+07
       819.20000  3.03779e-07  1.32903e+07
       819.30000  3.03779e-07  1.32873e+07
       819.40000  3.03779e-07  1.32873e+07
       819.50000  2.06212e-07  9.02177e+06
       819.60000  2.06212e-07  9.02383e+06
       819.70000  2.06212e-07  9.02795e+06
       819.80000  2.06212e-07  9.03414e+06
       819.90000  2.06212e-07  9.04033e+06
       820.00000  2.06212e-07  9.04858e+06
       820.10000  2.06212e-07  9.05682e+06
       820.20000  2.06212e-07  9.06713e+06
       820.30000  2.06212e-07  9.07951e+06
       820.40000  2.06212e-07  9.09188e+06
       820.50000  1.93368e-07  8.53913e+06
       820.60000  1.93368e-07  8.55266e+06
       820.70000  1.93368e-07  8.56813e+06
       820.80000  1.93368e-07  8.58360e+06
       820.90000  1.93368e-07  8.60101e+06
       821.00000  1.93368e-07  8.62034e+06
       821.10000  1.93368e-07  8.61648e+06
       821.20000  1.93368e-07  8.61454e+06
       821.30000  1.93922e-07  8.63536e+06
       821.40000  1.93922e-07  8.63342e+06
       821.50000  2.66499e-07  1.18592e+07
       821.60000  2.66499e-07  1.18565e+07
       821.70000  2.66499e-07  1.18539e+07
       821.80000  2.66499e-07  1.18485e+07
       821.90000  2.66499e-07  1.18459e+07
       822.00000  2.66499e-07  1.18432e+07
       822.10000  2.66499e-07  1.18432e+07
       822.20000  2.66499e-07  1.18405e+07
       822.30000  2.66499e-07  1.18379e+07
       822.40000  2.66499e-07  1.18379e+07
       822.50000  2.19664e-07  9.75527e+06
       822.60000  2.19664e-07  9.75527e+06
       822.70000  2.19664e-07  9.75307e+06
       822.80000  2.19664e-07  9.75307e+06
       822.90000  2.19664e-07  9.75307e+06
       823.00000  2.19664e-07  9.75307e+06
       823.10000  2.19664e-07  9.75307e+06
       823.20000  2.19664e-07  9.75307e+06
       823.30000  2.19664e-07  9.75307e+06
       823.40000  2.19664e-07  9.75307e+06
       823.50000  2.07919e-07  9.23370e+06
       823.60000  2.07919e-07  9.23370e+06
       823.70000  2.07919e-07  9.23578e+06
       823.80000  2.08487e-07  9.26098e+06
       823.90000  2.08487e-07  9.26306e+06
       824.00000  2.08487e-07  9.26515e+06
       824.10000  2.08487e-07  9.26723e+06
       824.20000  2.08487e-07  9.26932e+06
       824.30000  2.08487e-07  9.27140e+06
       824.40000  2.08487e-07  9.27557e+06
       824.50000  2.01300e-07  8.95784e+06
       824.60000  2.01300e-07  8.96187e+06
       824.70000  2.01300e-07  8.96388e+06
       824.80000  2.01300e-07  8.96791e+06
       824.90000  2.01300e-07  8.97194e+06
       825.00000  2.01300e-07  8.97596e+06
       825.10000  2.01300e-07  8.97999e+06
       825.20000  2.01300e-07  8.98401e+06
       825.30000  2.01300e-07  8.99005e+06
       825.40000  2.01300e-07  8.99408e+06
       825.50000  2.13818e-07  9.55980e+06
       825.60000  2.13818e-07  9.56408e+06
       825.70000  2.13818e-07  9.57049e+06
       825.80000  2.13818e-07  9.57691e+06
       825.90000  2.13818e-07  9.58332e+06
       826.00000  2.13818e-07  9.58974e+06
       826.10000  2.13818e-07  9.59615e+06
       826.20000  2.13818e-07  9.60043e+06
       826.30000  2.13960e-07  9.61323e+06
       826.40000  2.13960e-07  9.61750e+06
       826.50000  2.13770e-07  9.61108e+06
       826.60000  2.13770e-07  9.61536e+06
       826.70000  2.13770e-07  9.61963e+06
       826.80000  2.13770e-07  9.62177e+06
       826.90000  2.13770e-07  9.62391e+06
       827.00000  2.13770e-07  9.62605e+06
       827.10000  2.13770e-07  9.62605e+06
       827.20000  2.13770e-07  9.62818e+06
       827.30000  2.13770e-07  9.62818e+06
       827.40000  2.13770e-07  9.62818e+06
       827.50000  7.36511e-08  3.31724e+06
       827.60000  7.36511e-08  3.31724e+06
       827.70000  7.36511e-08  3.31651e+06
       827.80000  7.36511e-08  3.31577e+06
       827.90000  7.36511e-08  3.31503e+06
       828.00000  7.36511e-08  3.31430e+06
       828.10000  7.36511e-08  3.31209e+06
       828.20000  7.36511e-08  3.30914e+06
       828.30000  7.36511e-08  3.30620e+06
       828.40000  7.36511e-08  3.30325e+06
       828.50000  1.35220e-07  6.06057e+06
       828.60000  1.35220e-07  6.05516e+06
       828.70000  1.35220e-07  6.05110e+06
       828.80000  1.35110e-07  6.04214e+06
       828.90000  1.35110e-07  6.03673e+06
       829.00000  1.35110e-07  6.03268e+06
       829.10000  1.35110e-07  6.02863e+06
       829.20000  1.35110e-07  6.02457e+06
       829.30000  1.35110e-07  6.02052e+06
       829.40000  1.35110e-07  6.01646e+06
       829.50000  1.47262e-07  6.55314e+06
       829.60000  1.47262e-07  6.54872e+06
       829.70000  1.47262e-07  6.54430e+06
       829.80000  1.47262e-07  6.53988e+06
       829.90000  1.47262e-07  6.53694e+06
       830.00000  1.47262e-07  6.53252e+06
       830.10000  1.47262e-07  6.52958e+06
       830.20000  1.47262e-07  6.52516e+06
       830.30000  1.47262e-07  6.52221e+06
       830.40000  1.47262e-07  6.51780e+06
       830.50000  1.59301e-07  7.04748e+06
       830.60000  1.59301e-07  7.04430e+06
       830.70000  1.59301e-07  7.03952e+06
       830.80000  1.59301e-07  7.03633e+06
       830.90000  1.59301e-07  7.03315e+06
       831.00000  1.59301e-07  7.02996e+06
       831.10000  1.59301e-07  7.02678e+06
       831.20000  1.59301e-07  7.02359e+06
       831.30000  1.59733e-07  7.04103e+06
       831.40000  1.59733e-07  7.03784e+06
       831.50000  1.76639e-07  7.77919e+06
       831.60000  1.76639e-07  7.77742e+06
       831.70000  1.76639e-07  7.77389e+06
       831.80000  1.76639e-07  7.77036e+06
       831.90000  1.76639e-07  7.76859e+06
       832.00000  1.76639e-07  7.76683e+06
       832.10000  1.76639e-07  7.75976e+06
       832.20000  1.76639e-07  7.75270e+06
       832.30000  1.76639e-07  7.74740e+06
       832.40000  1.76639e-07  7.74210e+06
       832.50000  1.55134e-07  6.79486e+06
       832.60000  1.55134e-07  6.79176e+06
       832.70000  1.55134e-07  6.78866e+06
       832.80000  1.55134e-07  6.78400e+06
       832.90000  1.55134e-07  6.78245e+06
       833.00000  1.55134e-07  6.77935e+06
       833.10000  1.55134e-07  6.77625e+06
       833.20000  1.55134e-07  6.77470e+06
       833.30000  1.55134e-07  6.77314e+06
       833.40000  1.55134e-07  6.77159e+06
       833.50000  1.26722e-07  5.53140e+06
       833.60000  1.26722e-07  5.53014e+06
       833.70000  1.26722e-07  5.53014e+06
       833.80000  1.26854e-07  5.53591e+06
       833.90000  1.26854e-07  5.53718e+06
       834.00000  1.26854e-07  5.53718e+06
       834.10000  1.26854e-07  5.54352e+06
       834.20000  1.26854e-07  5.54859e+06
       834.30000  1.26854e-07  5.55494e+06
       834.40000  1.26854e-07  5.56001e+06
       834.50000  1.62565e-07  7.13172e+06
       834.60000  1.62565e-07  7.13822e+06
       834.70000  1.62565e-07  7.14310e+06
       834.80000  1.62565e-07  7.14798e+06
       834.90000  1.62565e-07  7.15448e+06
       835.00000  1.62565e-07  7.15935e+06
       835.10000  1.62565e-07  7.16261e+06
       835.20000  1.62565e-07  7.16748e+06
       835.30000  1.62565e-07  7.17073e+06
       835.40000  1.62565e-07  7.17399e+06
       835.50000  8.70478e-08  3.84316e+06
       835.60000  8.70478e-08  3.84490e+06
       835.70000  8.70478e-08  3.84577e+06
       835.80000  8.70478e-08  3.84751e+06
       835.90000  8.70478e-08  3.84838e+06
       836.00000  8.70478e-08  3.84926e+06
       836.10000  8.70478e-08  3.84751e+06
       836.20000  8.70478e-08  3.84664e+06
       836.30000  8.70084e-08  3.84316e+06
       836.40000  8.70084e-08  3.84229e+06
       836.50000  1.32502e-07  5.84997e+06
       836.60000  1.32502e-07  5.84732e+06
       836.70000  1.32502e-07  5.84600e+06
       836.80000  1.32502e-07  5.84467e+06
       836.90000  1.32502e-07  5.84202e+06
       837.00000  1.32502e-07  5.84070e+06
       837.10000  1.32502e-07  5.83937e+06
       837.20000  1.32502e-07  5.83805e+06
       837.30000  1.32502e-07  5.83672e+06
       837.40000  1.32502e-07  5.83540e+06
       837.50000  2.04686e-07  9.01233e+06
       837.60000  2.04686e-07  9.01028e+06
       837.70000  2.04686e-07  9.00824e+06
       837.80000  2.04686e-07  9.00619e+06
       837.90000  2.04686e-07  9.00619e+06
       838.00000  2.04686e-07  9.00414e+06
       838.10000  2.04686e-07  9.00209e+06
       838.20000  2.04686e-07  9.00209e+06
       838.30000  2.04686e-07  9.00209e+06
       838.40000  2.04686e-07  9.00209e+06
       838.50000  1.73069e-07  7.60983e+06
       838.60000  1.73069e-07  7.60983e+06
       838.70000  1.73069e-07  7.60983e+06
       838.80000  1.72545e-07  7.58509e+06
       838.90000  1.72545e-07  7.58509e+06
       839.00000  1.72545e-07  7.58509e+06
       839.10000  1.72545e-07  7.58336e+06
       839.20000  1.72545e-07  7.58336e+06
       839.30000  1.72545e-07  7.58336e+06
       839.40000  1.72545e-07  7.58164e+06
       839.50000  8.99951e-08  3.95438e+06
       839.60000  8.99951e-08  3.95438e+06
       839.70000  8.99951e-08  3.95348e+06
       839.80000  8.99951e-08  3.95348e+06
       839.90000  8.99951e-08  3.95348e+06
       840.00000  8.99951e-08  3.95258e+06
       840.10000  8.99951e-08  3.95258e+06
       840.20000  8.99951e-08  3.95258e+06
       840.30000  8.99951e-08  3.95168e+06
       840.40000  8.99951e-08  3.95168e+06
       840.50000  8.86287e-08  3.89169e+06
       840.60000  8.86287e-08  3.89080e+06
       840.70000  8.86287e-08  3.89080e+06
       840.80000  8.86287e-08  3.89080e+06
       840.90000  8.86287e-08  3.88991e+06
       841.00000  8.86287e-08  3.88991e+06
       841.10000  8.86287e-08  3.88991e+06
       841.20000  8.86287e-08  3.88991e+06
       841.30000  8.86239e-08  3.88882e+06
       841.40000  8.86239e-08  3.88882e+06
       841.50000  1.08326e-07  4.75334e+06
       841.60000  1.08326e-07  4.75226e+06
       841.70000  1.08326e-07  4.75226e+06
       841.80000  1.08326e-07  4.75226e+06
       841.90000  1.08326e-07  4.75117e+06
       842.00000  1.08326e-07  4.75117e+06
       842.10000  1.08326e-07  4.74684e+06
       842.20000  1.08326e-07  4.74359e+06
       842.30000  1.08326e-07  4.74034e+06
       842.40000  1.08326e-07  4.73601e+06
       842.50000  6.77730e-08  2.96100e+06
       842.60000  6.77730e-08  2.95965e+06
       842.70000  6.77730e-08  2.95761e+06
       842.80000  6.77730e-08  2.95626e+06
       842.90000  6.77730e-08  2.95422e+06
       843.00000  6.77730e-08  2.95287e+06
       843.10000  6.77730e-08  2.95151e+06
       843.20000  6.77730e-08  2.95016e+06
       843.30000  6.77730e-08  2.94948e+06
       843.40000  6.77730e-08  2.94812e+06
       843.50000  1.31514e-07  5.71956e+06
       843.60000  1.31514e-07  5.71825e+06
       843.70000  1.31514e-07  5.71693e+06
       843.80000  1.31704e-07  5.72386e+06
       843.90000  1.31704e-07  5.72386e+06
       844.00000  1.31704e-07  5.72254e+06
       844.10000  1.31704e-07  5.72649e+06
       844.20000  1.31704e-07  5.72913e+06
       844.30000  1.31704e-07  5.73176e+06
       844.40000  1.31704e-07  5.73440e+06
       844.50000  1.06568e-07  4.64211e+06
       844.60000  1.06568e-07  4.64424e+06
       844.70000  1.06568e-07  4.64531e+06
       844.80000  1.06568e-07  4.64744e+06
       844.90000  1.06568e-07  4.64851e+06
       845.00000  1.06568e-07  4.65064e+06
       845.10000  1.06568e-07  4.65170e+06
       845.20000  1.06568e-07  4.65277e+06
       845.30000  1.06568e-07  4.65490e+06
       845.40000  1.06568e-07  4.65597e+06
       845.50000  7.90872e-08  3.45532e+06
       845.60000  7.90872e-08  3.45611e+06
       845.70000  7.90872e-08  3.45690e+06
       845.80000  7.90872e-08  3.45769e+06
       845.90000  7.90872e-08  3.45769e+06
       846.00000  7.90872e-08  3.45848e+06
       846.10000  7.90872e-08  3.45848e+06
       846.20000  7.90872e-08  3.45848e+06
       846.30000  7.92954e-08  3.46759e+06
       846.40000  7.92954e-08  3.46838e+06
       846.50000  1.10804e-07  4.84656e+06
       846.60000  1.10804e-07  4.84545e+06
       846.70000  1.10804e-07  4.84545e+06
       846.80000  1.10804e-07  4.84545e+06
       846.90000  1.10804e-07  4.84434e+06
       847.00000  1.10804e-07  4.84434e+06
       847.10000  1.10804e-07  4.84323e+06
       847.20000  1.10804e-07  4.84323e+06
       847.30000  1.10804e-07  4.84212e+06
       847.40000  1.10804e-07  4.84102e+06
       847.50000  9.53549e-08  4.16510e+06
       847.60000  9.53549e-08  4.16415e+06
       847.70000  9.53549e-08  4.16319e+06
       847.80000  9.53549e-08  4.16224e+06
       847.90000  9.53549e-08  4.16033e+06
       848.00000  9.53549e-08  4.15938e+06
       848.10000  9.53549e-08  4.13936e+06
       848.20000  9.53549e-08  4.12124e+06
       848.30000  9.53549e-08  4.10312e+06
       848.40000  9.53549e-08  4.08596e+06
       848.50000  3.76068e-08  1.60506e+06
       848.60000  3.76068e-08  1.59942e+06
       848.70000  3.76068e-08  1.59378e+06
       848.80000  3.77504e-08  1.59458e+06
       848.90000  3.77504e-08  1.58967e+06
       849.00000  3.77504e-08  1.58514e+06
