PDS_VERSION_ID         = PDS3
RECORD_TYPE            = STREAM
OBJECT                 = TEXT
  PUBLICATION_DATE     = 2014-04-25
  INTERCHANGE_FORMAT   = ASCII
  NOTE                 = "System transmission vs. wavelength."
END_OBJECT             = TEXT
END
    
The systrans directory contains the non-wavelength-integrated system 
transmission values (QE*optics*filter1*filter2) for each filter combination. 
The naming convention for these files is as follows:

<camera><filter 1><filter 2>_systrans.tab

where <camera> is "issna" or "isswa," and <filter 1> and <filter 2> represent
the filter names. For polarized filter combinations, values are given for the
parallel orientation of the filter (full transmission), with values for the 
perpendicular (blocking) orientation provided in files with subscript 
"_b_systrans.tab". 

Columns in systrans files are as follows:

 1st column: Wavelength (nm)  
 2nd column: Transmitted Flux
 3rd column: Transmitted Flux * Solar Flux (phot per cm^2-s-angstrom at 1 AU)

The solar spectrum used for this calculation is provided in solarflux.tab.

\begindata
       299.00000  3.93831e-09      28722.1
       299.10000  3.93831e-09      28816.6
       299.20000  3.93831e-09      28860.0
       299.30000  3.93831e-09      28856.0
       299.40000  3.93831e-09      28804.8
       299.50000  2.91322e-09      21231.5
       299.60000  2.91322e-09      21120.8
       299.70000  2.91322e-09      20972.3
       299.80000  2.91322e-09      20788.7
       299.90000  2.91322e-09      20570.2
       300.00000  2.91322e-09      20313.9
       300.10000  2.91322e-09      20019.6
       300.20000  2.91322e-09      19690.5
       300.30000  2.91322e-09      19326.3
       300.40000  2.91322e-09      18924.3
       300.50000  1.31465e-08      83428.0
       300.60000  1.31465e-08      84177.3
       300.70000  1.31465e-08      84926.7
       300.80000  1.31465e-08      85662.9
       300.90000  1.31465e-08      86412.3
       301.00000  1.31465e-08      87148.5
       301.10000  1.31465e-08      87884.7
       301.20000  1.31465e-08      88607.7
       301.30000  1.31239e-08      89177.0
       301.40000  1.31239e-08      89898.8
       301.50000  1.58467e-08      109422.
       301.60000  1.58467e-08      109200.
       301.70000  1.58467e-08      109200.
       301.80000  1.58467e-08      109453.
       301.90000  1.58467e-08      109945.
       302.00000  1.58467e-08      110673.
       302.10000  1.58467e-08      111624.
       302.20000  1.58467e-08      112829.
       302.30000  1.58467e-08      114271.
       302.40000  1.58467e-08      115950.
       302.50000  7.44079e-09      55337.1
       302.60000  7.44079e-09      57614.0
       302.70000  7.44079e-09      59719.8
       302.80000  7.44079e-09      61661.8
       302.90000  7.44079e-09      63425.3
       303.00000  7.44079e-09      65025.0
       303.10000  7.44079e-09      66453.7
       303.20000  7.44079e-09      67711.1
       303.30000  7.44079e-09      68797.5
       303.40000  7.44079e-09      69712.7
       303.50000  8.45587e-09      80077.1
       303.60000  8.45587e-09      79806.5
       303.70000  8.45587e-09      79552.8
       303.80000  8.46481e-09      79399.9
       303.90000  8.46481e-09      79171.3
       304.00000  8.46481e-09      78951.3
       304.10000  8.46481e-09      78756.6
       304.20000  8.46481e-09      78561.9
       304.30000  8.46481e-09      78392.6
       304.40000  8.46481e-09      78231.8
       304.50000  5.83939e-10      5386.26
       304.60000  5.83939e-10      5376.91
       304.70000  5.83939e-10      5368.74
       304.80000  5.83939e-10      5361.15
       304.90000  5.83939e-10      5354.72
       305.00000  5.83939e-10      5348.89
       305.10000  5.83939e-10      5344.21
       305.20000  5.83939e-10      5340.71
       305.30000  5.83939e-10      5337.79
       305.40000  5.83939e-10      5336.04
       305.50000  2.20254e-08      201224.
       305.60000  2.20254e-08      198471.
       305.70000  2.20254e-08      196026.
       305.80000  2.20254e-08      193933.
       305.90000  2.20254e-08      192171.
       306.00000  2.20254e-08      190740.
       306.10000  2.20254e-08      189661.
       306.20000  2.20254e-08      188890.
       306.30000  2.19733e-08      188025.
       306.40000  2.19733e-08      187937.
       306.50000  4.45360e-09      38140.6
       306.60000  4.45360e-09      38755.2
       306.70000  4.45360e-09      39325.3
       306.80000  4.45360e-09      39855.2
       306.90000  4.45360e-09      40340.7
       307.00000  4.45360e-09      40781.6
       307.10000  4.45360e-09      41182.4
       307.20000  4.45360e-09      41538.7
       307.30000  4.45360e-09      41850.5
       307.40000  4.45360e-09      42122.1
       307.50000  1.07291e-08      102012.
       307.60000  1.07291e-08      102463.
       307.70000  1.07291e-08      102796.
       307.80000  1.07291e-08      103032.
       307.90000  1.07291e-08      103160.
       308.00000  1.07291e-08      103182.
       308.10000  1.07291e-08      103107.
       308.20000  1.07291e-08      102924.
       308.30000  1.07291e-08      102635.
       308.40000  1.07291e-08      102248.
       308.50000  2.91213e-08      276157.
       308.60000  2.91213e-08      266139.
       308.70000  2.91213e-08      257199.
       308.80000  2.90270e-08      248558.
       308.90000  2.90270e-08      241824.
       309.00000  2.90270e-08      236164.
       309.10000  2.90270e-08      231606.
       309.20000  2.90270e-08      228152.
       309.30000  2.90270e-08      225772.
       309.40000  2.90270e-08      224466.
       309.50000  3.31661e-08      256241.
       309.60000  3.31661e-08      263273.
       309.70000  3.31661e-08      270204.
       309.80000  3.31661e-08      277037.
       309.90000  3.31661e-08      283802.
       310.00000  3.31661e-08      290436.
       310.10000  3.31661e-08      297003.
       310.20000  3.31661e-08      303470.
       310.30000  3.31661e-08      309805.
       310.40000  3.31661e-08      316106.
       310.50000  1.32513e-08      128763.
       310.60000  1.32513e-08      131188.
       310.70000  1.32513e-08      133573.
       310.80000  1.32513e-08      135958.
       310.90000  1.32513e-08      138211.
       311.00000  1.32513e-08      140464.
       311.10000  1.32513e-08      142716.
       311.20000  1.32513e-08      144969.
       311.30000  1.32149e-08      146686.
       311.40000  1.32149e-08      148800.
       311.50000  3.27037e-08      373477.
       311.60000  3.27037e-08      367263.
       311.70000  3.27037e-08      361376.
       311.80000  3.27037e-08      356144.
       311.90000  3.27037e-08      351565.
       312.00000  3.27037e-08      347641.
       312.10000  3.27037e-08      344370.
       312.20000  3.27037e-08      341754.
       312.30000  3.27037e-08      339465.
       312.40000  3.27037e-08      337830.
       312.50000  1.85437e-08      191185.
       312.60000  1.85437e-08      193596.
       312.70000  1.85437e-08      195636.
       312.80000  1.85437e-08      197675.
       312.90000  1.85437e-08      199344.
       313.00000  1.85437e-08      200828.
       313.10000  1.85437e-08      201940.
       313.20000  1.85437e-08      203053.
       313.30000  1.85437e-08      203795.
       313.40000  1.85437e-08      204351.
       313.50000  3.70222e-08      408355.
       313.60000  3.70222e-08      408355.
       313.70000  3.70222e-08      407985.
       313.80000  3.69842e-08      406826.
       313.90000  3.69842e-08      405716.
       314.00000  3.69842e-08      403867.
       314.10000  3.69842e-08      401648.
       314.20000  3.69842e-08      398689.
       314.30000  3.69842e-08      395361.
       314.40000  3.69842e-08      391662.
       314.50000  6.72935e-09      70523.5
       314.60000  6.72935e-09      70119.8
       314.70000  6.72935e-09      69716.0
       314.80000  6.72935e-09      69312.3
       314.90000  6.72935e-09      68975.8
       315.00000  6.72935e-09      68639.3
       315.10000  6.72935e-09      68370.1
       315.20000  6.72935e-09      68101.0
       315.30000  6.72935e-09      67899.1
       315.40000  6.72935e-09      67697.2
       315.50000  1.46098e-09      14668.2
       315.60000  1.46098e-09      14527.9
       315.70000  1.46098e-09      14418.4
       315.80000  1.46098e-09      14340.9
       315.90000  1.46098e-09      14297.1
       316.00000  1.46098e-09      14285.4
       316.10000  1.46098e-09      14307.3
       316.20000  1.46098e-09      14361.4
       316.30000  1.46290e-09      14468.1
       316.40000  1.46290e-09      14588.0
       316.50000  2.17367e-08      219106.
       316.60000  2.17367e-08      221714.
       316.70000  2.17367e-08      224974.
       316.80000  2.17367e-08      228670.
       316.90000  2.17367e-08      233017.
       317.00000  2.17367e-08      237582.
       317.10000  2.17367e-08      242798.
       317.20000  2.17367e-08      248667.
       317.30000  2.17367e-08      254754.
       317.40000  2.17367e-08      261492.
       317.50000  2.36897e-08      292568.
       317.60000  2.36897e-08      285935.
       317.70000  2.36897e-08      280012.
       317.80000  2.36897e-08      274327.
       317.90000  2.36897e-08      269352.
       318.00000  2.36897e-08      265088.
       318.10000  2.36897e-08      261297.
       318.20000  2.36897e-08      258218.
       318.30000  2.36897e-08      255612.
       318.40000  2.36897e-08      253717.
       318.50000  4.51463e-09      48080.8
       318.60000  4.51463e-09      48261.4
       318.70000  4.51463e-09      48487.1
       318.80000  4.51443e-09      48710.7
       318.90000  4.51443e-09      49026.7
       319.00000  4.51443e-09      49342.7
       319.10000  4.51443e-09      49703.9
       319.20000  4.51443e-09      50110.2
       319.30000  4.51443e-09      50561.6
       319.40000  4.51443e-09      51013.1
       319.50000  1.91538e-08      218544.
       319.60000  1.91538e-08      220843.
       319.70000  1.91538e-08      223333.
       319.80000  1.91538e-08      226014.
       319.90000  1.91538e-08      228696.
       320.00000  1.91538e-08      231569.
       320.10000  1.91538e-08      234634.
       320.20000  1.91538e-08      237890.
       320.30000  1.91538e-08      241337.
       320.40000  1.91538e-08      244785.
       320.50000  2.36259e-08      306428.
       320.60000  2.36259e-08      300994.
       320.70000  2.36259e-08      295797.
       320.80000  2.36259e-08      290835.
       320.90000  2.36259e-08      286346.
       321.00000  2.36259e-08      282330.
       321.10000  2.36259e-08      278550.
       321.20000  2.36259e-08      275242.
       321.30000  2.36145e-08      272039.
       321.40000  2.36145e-08      269442.
       321.50000  2.18540e-08      247168.
       321.60000  2.18540e-08      247168.
       321.70000  2.18540e-08      246950.
       321.80000  2.18540e-08      246731.
       321.90000  2.18540e-08      246513.
       322.00000  2.18540e-08      246294.
       322.10000  2.18540e-08      245857.
       322.20000  2.18540e-08      245639.
       322.30000  2.18540e-08      245201.
       322.40000  2.18540e-08      244546.
       322.50000  2.70029e-08      301623.
       322.60000  2.70029e-08      300812.
       322.70000  2.70029e-08      300002.
       322.80000  2.70029e-08      298922.
       322.90000  2.70029e-08      297842.
       323.00000  2.70029e-08      296762.
       323.10000  2.70029e-08      295682.
       323.20000  2.70029e-08      294602.
       323.30000  2.70029e-08      293252.
       323.40000  2.70029e-08      291902.
       323.50000  4.58381e-09      49321.8
       323.60000  4.58381e-09      50009.4
       323.70000  4.58381e-09      50742.8
       323.80000  4.59199e-09      51568.1
       323.90000  4.59199e-09      52302.8
       324.00000  4.59199e-09      53037.5
       324.10000  4.59199e-09      53818.1
       324.20000  4.59199e-09      54598.8
       324.30000  4.59199e-09      55379.4
       324.40000  4.59199e-09      56206.0
       324.50000  3.21799e-08      399353.
       324.60000  3.21799e-08      405789.
       324.70000  3.21799e-08      412225.
       324.80000  3.21799e-08      418661.
       324.90000  3.21799e-08      424775.
       325.00000  3.21799e-08      430889.
       325.10000  3.21799e-08      437325.
       325.20000  3.21799e-08      443440.
       325.30000  3.21799e-08      449232.
       325.40000  3.21799e-08      455346.
       325.50000  4.10893e-09      58881.0
       325.60000  4.10893e-09      59990.4
       325.70000  4.10893e-09      61017.7
       325.80000  4.10893e-09      61962.7
       325.90000  4.10893e-09      62825.6
       326.00000  4.10893e-09      63565.2
       326.10000  4.10893e-09      64263.7
       326.20000  4.10893e-09      64839.0
       326.30000  4.12690e-09      65617.7
       326.40000  4.12690e-09      66030.4
       326.50000  1.89667e-08      304984.
       326.60000  1.89667e-08      304415.
       326.70000  1.89667e-08      303656.
       326.80000  1.89667e-08      303087.
       326.90000  1.89667e-08      302328.
       327.00000  1.89667e-08      301570.
       327.10000  1.89667e-08      300811.
       327.20000  1.89667e-08      300052.
       327.30000  1.89667e-08      299294.
       327.40000  1.89667e-08      298345.
       327.50000  2.36933e-08      371748.
       327.60000  2.36933e-08      370563.
       327.70000  2.36933e-08      369379.
       327.80000  2.36933e-08      368194.
       327.90000  2.36933e-08      367009.
       328.00000  2.36933e-08      365825.
       328.10000  2.36933e-08      364640.
       328.20000  2.36933e-08      363218.
       328.30000  2.36933e-08      361797.
       328.40000  2.36933e-08      360612.
       328.50000  1.86871e-08      283296.
       328.60000  1.86871e-08      290397.
       328.70000  1.86871e-08      296938.
       328.80000  1.87277e-08      303576.
       328.90000  1.87277e-08      309007.
       329.00000  1.87277e-08      313876.
       329.10000  1.87277e-08      317997.
       329.20000  1.87277e-08      321742.
       329.30000  1.87277e-08      324739.
       329.40000  1.87277e-08      327360.
       329.50000  1.43424e-08      252139.
       329.60000  1.43424e-08      251135.
       329.70000  1.43424e-08      250274.
       329.80000  1.43424e-08      249270.
       329.90000  1.43424e-08      248266.
       330.00000  1.43424e-08      247262.
       330.10000  1.43424e-08      246258.
       330.20000  1.43424e-08      245254.
       330.30000  1.43424e-08      244250.
       330.40000  1.43424e-08      243246.
       330.50000  1.10681e-08      186830.
       330.60000  1.10681e-08      186055.
       330.70000  1.10681e-08      185169.
       330.80000  1.10681e-08      184395.
       330.90000  1.10681e-08      183509.
       331.00000  1.10681e-08      182624.
       331.10000  1.10681e-08      181738.
       331.20000  1.10681e-08      180853.
       331.30000  1.10690e-08      179982.
       331.40000  1.10690e-08      179096.
       331.50000  1.13208e-08      182265.
       331.60000  1.13208e-08      182265.
       331.70000  1.13208e-08      182265.
       331.80000  1.13208e-08      182265.
       331.90000  1.13208e-08      182151.
       332.00000  1.13208e-08      182038.
       332.10000  1.13208e-08      181812.
       332.20000  1.13208e-08      181585.
       332.30000  1.13208e-08      181359.
       332.40000  1.13208e-08      181019.
       332.50000  1.04668e-08      167050.
       332.60000  1.04668e-08      166004.
       332.70000  1.04668e-08      165062.
       332.80000  1.04668e-08      164224.
       332.90000  1.04668e-08      163492.
       333.00000  1.04668e-08      162864.
       333.10000  1.04668e-08      162445.
       333.20000  1.04668e-08      162026.
       333.30000  1.04668e-08      161817.
       333.40000  1.04668e-08      161712.
       333.50000  8.62943e-09      133325.
       333.60000  8.62943e-09      133497.
       333.70000  8.62943e-09      133670.
       333.80000  8.61846e-09      133845.
       333.90000  8.61846e-09      134276.
       334.00000  8.61846e-09      134793.
       334.10000  8.61846e-09      135482.
       334.20000  8.61846e-09      136172.
       334.30000  8.61846e-09      137033.
       334.40000  8.61846e-09      137981.
       334.50000  8.50635e-10      13720.7
       334.60000  8.50635e-10      13780.3
       334.70000  8.50635e-10      13814.3
       334.80000  8.50635e-10      13839.8
       334.90000  8.50635e-10      13848.3
       335.00000  8.50635e-10      13839.8
       335.10000  8.50635e-10      13814.3
       335.20000  8.50635e-10      13771.8
       335.30000  8.50635e-10      13712.2
       335.40000  8.50635e-10      13635.7
       335.50000  1.60369e-08      255147.
       335.60000  1.60369e-08      249695.
       335.70000  1.60369e-08      244563.
       335.80000  1.60369e-08      239752.
       335.90000  1.60369e-08      235582.
       336.00000  1.60369e-08      231733.
       336.10000  1.60369e-08      228526.
       336.20000  1.60369e-08      225639.
       336.30000  1.60603e-08      223560.
       336.40000  1.60603e-08      221472.
       336.50000  8.44103e-09      115642.
       336.60000  8.44103e-09      115051.
       336.70000  8.44103e-09      114714.
       336.80000  8.44103e-09      114629.
       336.90000  8.44103e-09      114714.
       337.00000  8.44103e-09      115136.
       337.10000  8.44103e-09      115727.
       337.20000  8.44103e-09      116571.
       337.30000  8.44103e-09      117668.
       337.40000  8.44103e-09      119019.
       337.50000  1.08864e-08      155566.
       337.60000  1.08864e-08      157417.
       337.70000  1.08864e-08      159159.
       337.80000  1.08864e-08      160901.
       337.90000  1.08864e-08      162534.
       338.00000  1.08864e-08      164058.
       338.10000  1.08864e-08      165582.
       338.20000  1.08864e-08      166997.
       338.30000  1.08864e-08      168304.
       338.40000  1.08864e-08      169610.
       338.50000  3.36514e-09      52765.4
       338.60000  3.36514e-09      52967.3
       338.70000  3.36514e-09      53169.2
       338.80000  3.36757e-09      53409.6
       338.90000  3.36757e-09      53645.4
       339.00000  3.36757e-09      53847.4
       339.10000  3.36757e-09      54083.2
       339.20000  3.36757e-09      54318.9
       339.30000  3.36757e-09      54554.6
       339.40000  3.36757e-09      54824.0
       339.50000  1.37436e-08      224708.
       339.60000  1.37436e-08      225808.
       339.70000  1.37436e-08      226907.
       339.80000  1.37436e-08      228144.
       339.90000  1.37436e-08      229243.
       340.00000  1.37436e-08      230480.
       340.10000  1.37436e-08      231717.
       340.20000  1.37436e-08      232954.
       340.30000  1.37436e-08      234329.
       340.40000  1.37436e-08      235565.
       340.50000  1.51585e-08      261333.
       340.60000  1.51585e-08      257392.
       340.70000  1.51585e-08      254057.
       340.80000  1.51585e-08      250874.
       340.90000  1.51585e-08      248145.
       341.00000  1.51585e-08      245872.
       341.10000  1.51585e-08      244053.
       341.20000  1.51585e-08      242537.
       341.30000  1.51890e-08      241961.
       341.40000  1.51890e-08      241202.
       341.50000  1.92926e-08      305980.
       341.60000  1.92926e-08      310032.
       341.70000  1.92926e-08      313697.
       341.80000  1.92926e-08      317170.
       341.90000  1.92926e-08      320064.
       342.00000  1.92926e-08      322572.
       342.10000  1.92926e-08      324887.
       342.20000  1.92926e-08      326624.
       342.30000  1.92926e-08      328167.
       342.40000  1.92926e-08      329132.
       342.50000  5.52311e-09      94445.1
       342.60000  5.52311e-09      94555.6
       342.70000  5.52311e-09      94555.6
       342.80000  5.52311e-09      94445.1
       342.90000  5.52311e-09      94224.2
       343.00000  5.52311e-09      93892.8
       343.10000  5.52311e-09      93450.9
       343.20000  5.52311e-09      92898.6
       343.30000  5.52311e-09      92291.1
       343.40000  5.52311e-09      91517.9
       343.50000  1.31402e-08      215762.
       343.60000  1.31402e-08      209192.
       343.70000  1.31402e-08      203410.
       343.80000  1.31546e-08      198371.
       343.90000  1.31546e-08      193899.
       344.00000  1.31546e-08      190084.
       344.10000  1.31546e-08      187058.
       344.20000  1.31546e-08      184559.
       344.30000  1.31546e-08      182849.
       344.40000  1.31546e-08      181665.
       344.50000  1.03236e-08      142260.
       344.60000  1.03236e-08      146183.
       344.70000  1.03236e-08      149796.
       344.80000  1.03236e-08      153100.
       344.90000  1.03236e-08      156093.
       345.00000  1.03236e-08      158881.
       345.10000  1.03236e-08      161359.
       345.20000  1.03236e-08      163526.
       345.30000  1.03236e-08      165488.
       345.40000  1.03236e-08      167037.
       345.50000  1.85248e-08      302324.
       345.60000  1.85248e-08      304176.
       345.70000  1.85248e-08      305658.
       345.80000  1.85248e-08      306585.
       345.90000  1.85248e-08      306955.
       346.00000  1.85248e-08      306955.
       346.10000  1.85248e-08      306214.
       346.20000  1.85248e-08      305288.
       346.30000  1.85377e-08      303832.
       346.40000  1.85377e-08      301793.
       346.50000  3.38114e-08      545716.
       346.60000  3.38114e-08      543687.
       346.70000  3.38114e-08      541997.
       346.80000  3.38114e-08      540644.
       346.90000  3.38114e-08      538954.
       347.00000  3.38114e-08      537601.
       347.10000  3.38114e-08      536587.
       347.20000  3.38114e-08      535234.
       347.30000  3.38114e-08      534220.
       347.40000  3.38114e-08      533544.
       347.50000  1.26510e-08      199253.
       347.60000  1.26510e-08      199253.
       347.70000  1.26510e-08      199253.
       347.80000  1.26510e-08      199253.
       347.90000  1.26510e-08      199253.
       348.00000  1.26510e-08      199126.
       348.10000  1.26510e-08      199126.
       348.20000  1.26510e-08      199126.
       348.30000  1.26510e-08      199000.
       348.40000  1.26510e-08      199000.
       348.50000  3.23742e-08      508922.
       348.60000  3.23742e-08      504389.
       348.70000  3.23742e-08      500828.
       348.80000  3.23670e-08      498127.
       348.90000  3.23670e-08      496185.
       349.00000  3.23670e-08      495538.
       349.10000  3.23670e-08      495862.
       349.20000  3.23670e-08      496833.
       349.30000  3.23670e-08      499098.
       349.40000  3.23670e-08      502012.
       349.50000  3.30239e-08      516494.
       349.60000  3.30239e-08      532015.
       349.70000  3.30239e-08      545885.
       349.80000  3.30239e-08      558765.
       349.90000  3.30239e-08      570323.
       350.00000  3.30239e-08      580560.
       350.10000  3.30239e-08      589147.
       350.20000  3.30239e-08      596742.
       350.30000  3.30239e-08      603017.
       350.40000  3.30239e-08      607640.
       350.50000  2.69309e-08      498222.
       350.60000  2.69309e-08      500107.
       350.70000  2.69309e-08      500646.
       350.80000  2.69309e-08      500107.
       350.90000  2.69309e-08      498491.
       351.00000  2.69309e-08      496067.
       351.10000  2.69309e-08      492297.
       351.20000  2.69309e-08      487449.
       351.30000  2.69678e-08      481915.
       351.40000  2.69678e-08      474904.
       351.50000  3.23798e-08      560495.
       351.60000  3.23798e-08      551429.
       351.70000  3.23798e-08      543658.
       351.80000  3.23798e-08      536858.
       351.90000  3.23798e-08      531030.
       352.00000  3.23798e-08      526496.
       352.10000  3.23798e-08      523258.
       352.20000  3.23798e-08      520992.
       352.30000  3.23798e-08      520020.
       352.40000  3.23798e-08      520020.
       352.50000  2.63951e-08      424697.
       352.60000  2.63951e-08      431823.
       352.70000  2.63951e-08      438422.
       352.80000  2.63951e-08      445021.
       352.90000  2.63951e-08      451356.
       353.00000  2.63951e-08      457426.
       353.10000  2.63951e-08      463233.
       353.20000  2.63951e-08      469040.
       353.30000  2.63951e-08      474319.
       353.40000  2.63951e-08      479598.
       353.50000  4.18539e-08      768438.
       353.60000  4.18539e-08      775972.
       353.70000  4.18539e-08      783087.
       353.80000  4.19033e-08      791134.
       353.90000  4.19033e-08      797839.
       354.00000  4.19033e-08      803705.
       354.10000  4.19033e-08      809572.
       354.20000  4.19033e-08      815438.
       354.30000  4.19033e-08      820467.
       354.40000  4.19033e-08      825495.
       354.50000  4.37317e-08      865887.
       354.60000  4.37317e-08      863264.
       354.70000  4.37317e-08      860202.
       354.80000  4.37317e-08      856704.
       354.90000  4.37317e-08      852768.
       355.00000  4.37317e-08      847957.
       355.10000  4.37317e-08      842710.
       355.20000  4.37317e-08      837024.
       355.30000  4.37317e-08      830902.
       355.40000  4.37317e-08      824342.
       355.50000  4.87863e-09      91132.9
       355.60000  4.87863e-09      89913.2
       355.70000  4.87863e-09      88742.3
       355.80000  4.87863e-09      87571.5
       355.90000  4.87863e-09      86400.6
       356.00000  4.87863e-09      85278.5
       356.10000  4.87863e-09      84156.4
       356.20000  4.87863e-09      83034.3
       356.30000  4.89436e-09      82176.2
       356.40000  4.89436e-09      81099.5
       356.50000  4.82436e-08      788782.
       356.60000  4.82436e-08      778169.
       356.70000  4.82436e-08      768038.
       356.80000  4.82436e-08      757907.
       356.90000  4.82436e-08      747775.
       357.00000  4.82436e-08      737644.
       357.10000  4.82436e-08      727996.
       357.20000  4.82436e-08      718347.
       357.30000  4.82436e-08      708698.
       357.40000  4.82436e-08      699532.
       357.50000  1.98710e-08      284354.
       357.60000  1.98710e-08      274219.
       357.70000  1.98710e-08      265675.
       357.80000  1.98710e-08      258521.
       357.90000  1.98710e-08      252759.
       358.00000  1.98710e-08      248387.
       358.10000  1.98710e-08      245605.
       358.20000  1.98710e-08      244214.
       358.30000  1.98710e-08      244214.
       358.40000  1.98710e-08      245605.
       358.50000  5.03327e-09      62915.9
       358.60000  5.03327e-09      66942.5
       358.70000  5.03327e-09      70667.1
       358.80000  5.03728e-09      74199.2
       358.90000  5.03728e-09      77322.3
       359.00000  5.03728e-09      80193.5
       359.10000  5.03728e-09      82812.9
       359.20000  5.03728e-09      85079.7
       359.30000  5.03728e-09      87094.6
       359.40000  5.03728e-09      88807.3
       359.50000  2.66483e-08      477272.
       359.60000  2.66483e-08      478071.
       359.70000  2.66483e-08      478604.
       359.80000  2.66483e-08      478604.
       359.90000  2.66483e-08      478071.
       360.00000  2.66483e-08      477538.
       360.10000  2.66483e-08      476472.
       360.20000  2.66483e-08      475140.
       360.30000  2.66483e-08      473541.
       360.40000  2.66483e-08      471409.
       360.50000  2.88439e-08      507652.
       360.60000  2.88439e-08      497845.
       360.70000  2.88439e-08      489192.
       360.80000  2.88439e-08      481692.
       360.90000  2.88439e-08      475347.
       361.00000  2.88439e-08      470155.
       361.10000  2.88439e-08      465828.
       361.20000  2.88439e-08      462944.
       361.30000  2.89153e-08      462066.
       361.40000  2.89153e-08      461199.
       361.50000  1.10312e-08      176058.
       361.60000  1.10312e-08      176610.
       361.70000  1.10312e-08      177602.
       361.80000  1.10312e-08      178926.
       361.90000  1.10312e-08      180801.
       362.00000  1.10312e-08      183008.
       362.10000  1.10312e-08      185655.
       362.20000  1.10312e-08      188744.
       362.30000  1.10312e-08      192274.
       362.40000  1.10312e-08      196245.
       362.50000  4.04784e-09      73630.2
       362.60000  4.04784e-09      73589.7
       362.70000  4.04784e-09      73549.2
       362.80000  4.04784e-09      73508.7
       362.90000  4.04784e-09      73508.7
       363.00000  4.04784e-09      73508.7
       363.10000  4.04784e-09      73549.2
       363.20000  4.04784e-09      73589.7
       363.30000  4.04784e-09      73630.2
       363.40000  4.04784e-09      73670.6
       363.50000  2.06990e-08      377136.
       363.60000  2.06990e-08      375687.
       363.70000  2.06990e-08      374859.
       363.80000  2.06974e-08      374416.
       363.90000  2.06974e-08      374416.
       364.00000  2.06974e-08      374829.
       364.10000  2.06974e-08      375864.
       364.20000  2.06974e-08      377106.
       364.30000  2.06974e-08      379176.
       364.40000  2.06974e-08      381453.
       364.50000  4.02446e-08      747342.
       364.60000  4.02446e-08      753378.
       364.70000  4.02446e-08      761025.
       364.80000  4.02446e-08      769074.
       364.90000  4.02446e-08      778330.
       365.00000  4.02446e-08      788391.
       365.10000  4.02446e-08      799257.
       365.20000  4.02446e-08      810928.
       365.30000  4.02446e-08      823806.
       365.40000  4.02446e-08      837489.
       365.50000  1.88431e-08      398908.
       365.60000  1.88431e-08      403996.
       365.70000  1.88431e-08      408518.
       365.80000  1.88431e-08      412475.
       365.90000  1.88431e-08      416244.
       366.00000  1.88431e-08      419259.
       366.10000  1.88431e-08      422085.
       366.20000  1.88431e-08      424158.
       366.30000  1.89006e-08      427343.
       366.40000  1.89006e-08      428666.
       366.50000  1.00031e-09      22726.9
       366.60000  1.00031e-09      22656.9
       366.70000  1.00031e-09      22586.9
       366.80000  1.00031e-09      22506.9
       366.90000  1.00031e-09      22416.8
       367.00000  1.00031e-09      22326.8
       367.10000  1.00031e-09      22236.8
       367.20000  1.00031e-09      22136.8
       367.30000  1.00031e-09      22036.7
       367.40000  1.00031e-09      21926.7
       367.50000  7.69576e-08  1.67768e+06
       367.60000  7.69576e-08  1.66844e+06
       367.70000  7.69576e-08  1.65921e+06
       367.80000  7.69576e-08  1.64920e+06
       367.90000  7.69576e-08  1.63920e+06
       368.00000  7.69576e-08  1.62842e+06
       368.10000  7.69576e-08  1.61765e+06
       368.20000  7.69576e-08  1.60610e+06
       368.30000  7.69576e-08  1.59456e+06
       368.40000  7.69576e-08  1.58225e+06
       368.50000  1.33306e-08      271943.
       368.60000  1.33306e-08      277409.
       368.70000  1.33306e-08      282474.
       368.80000  1.33598e-08      287636.
       368.90000  1.33598e-08      291510.
       369.00000  1.33598e-08      294984.
       369.10000  1.33598e-08      297923.
       369.20000  1.33598e-08      300328.
       369.30000  1.33598e-08      302198.
       369.40000  1.33598e-08      303534.
       369.50000  2.06577e-08      470583.
       369.60000  2.06577e-08      465212.
       369.70000  2.06577e-08      460254.
       369.80000  2.06577e-08      455916.
       369.90000  2.06577e-08      451991.
       370.00000  2.06577e-08      448479.
       370.10000  2.06577e-08      445587.
       370.20000  2.06577e-08      443108.
       370.30000  2.06577e-08      441042.
       370.40000  2.06577e-08      439390.
       370.50000  1.28550e-08      272783.
       370.60000  1.28550e-08      275354.
       370.70000  1.28550e-08      277668.
       370.80000  1.28550e-08      279468.
       370.90000  1.28550e-08      281010.
       371.00000  1.28550e-08      282167.
       371.10000  1.28550e-08      282939.
       371.20000  1.28550e-08      283324.
       371.30000  1.28764e-08      283796.
       371.40000  1.28764e-08      283410.
       371.50000  7.39007e-08  1.62212e+06
       371.60000  7.39007e-08  1.60660e+06
       371.70000  7.39007e-08  1.59108e+06
       371.80000  7.39007e-08  1.57482e+06
       371.90000  7.39007e-08  1.55857e+06
       372.00000  7.39007e-08  1.54305e+06
       372.10000  7.39007e-08  1.52605e+06
       372.20000  7.39007e-08  1.50979e+06
       372.30000  7.39007e-08  1.49279e+06
       372.40000  7.39007e-08  1.47580e+06
       372.50000  1.72422e-08      340361.
       372.60000  1.72422e-08      336396.
       372.70000  1.72422e-08      332257.
       372.80000  1.72422e-08      328119.
       372.90000  1.72422e-08      323981.
       373.00000  1.72422e-08      319671.
       373.10000  1.72422e-08      315360.
       373.20000  1.72422e-08      311222.
       373.30000  1.72422e-08      306739.
       373.40000  1.72422e-08      302428.
       373.50000  6.62475e-09      114476.
       373.60000  6.62475e-09      113217.
       373.70000  6.62475e-09      112223.
       373.80000  6.63205e-09      111551.
       373.90000  6.63205e-09      111020.
       374.00000  6.63205e-09      110689.
       374.10000  6.63205e-09      110556.
       374.20000  6.63205e-09      110689.
       374.30000  6.63205e-09      111087.
       374.40000  6.63205e-09      111617.
       374.50000  2.33611e-08      395971.
       374.60000  2.33611e-08      406017.
       374.70000  2.33611e-08      415361.
       374.80000  2.33611e-08      424238.
       374.90000  2.33611e-08      432415.
       375.00000  2.33611e-08      439890.
       375.10000  2.33611e-08      446665.
       375.20000  2.33611e-08      452972.
       375.30000  2.33611e-08      458813.
       375.40000  2.33611e-08      463952.
       375.50000  4.06588e-08      815209.
       375.60000  4.06588e-08      822121.
       375.70000  4.06588e-08      827814.
       375.80000  4.06588e-08      832286.
       375.90000  4.06588e-08      835945.
       376.00000  4.06588e-08      838385.
       376.10000  4.06588e-08      840011.
       376.20000  4.06588e-08      840418.
       376.30000  4.06497e-08      839416.
       376.40000  4.06497e-08      837790.
       376.50000  5.52003e-09      113381.
       376.60000  5.52003e-09      116197.
       376.70000  5.52003e-09      118846.
       376.80000  5.52003e-09      121330.
       376.90000  5.52003e-09      123649.
       377.00000  5.52003e-09      125857.
       377.10000  5.52003e-09      127844.
       377.20000  5.52003e-09      129721.
       377.30000  5.52003e-09      131377.
       377.40000  5.52003e-09      132922.
       377.50000  1.72990e-13      4.20884
       377.60000  1.72990e-13      4.27112
       377.70000  1.72990e-13      4.32129
       377.80000  1.72990e-13      4.36280
       377.90000  1.72990e-13      4.39394
       378.00000  1.72990e-13      4.41470
       378.10000  1.72990e-13      4.42681
       378.20000  1.72990e-13      4.42681
       378.30000  1.72990e-13      4.41816
       378.40000  1.72990e-13      4.39740
       378.50000  4.51167e-09      113920.
       378.60000  4.51167e-09      112927.
       378.70000  4.51167e-09      111619.
       378.80000  4.50465e-09      109868.
       378.90000  4.50465e-09      108066.
       379.00000  4.50465e-09      105994.
       379.10000  4.50465e-09      103652.
       379.20000  4.50465e-09      101039.
       379.30000  4.50465e-09      98156.2
       379.40000  4.50465e-09      95003.0
       379.50000  3.88359e-08      789921.
       379.60000  3.88359e-08      808951.
       379.70000  3.88359e-08      825650.
       379.80000  3.88359e-08      840796.
       379.90000  3.88359e-08      854000.
       380.00000  3.88359e-08      865263.
       380.10000  3.88359e-08      874584.
       380.20000  3.88359e-08      881962.
       380.30000  3.88359e-08      887788.
       380.40000  3.88359e-08      891283.
       380.50000  3.89415e-09      89565.5
       380.60000  3.89415e-09      89253.9
       380.70000  3.89415e-09      88825.6
       380.80000  3.89415e-09      88280.4
       380.90000  3.89415e-09      87579.5
       381.00000  3.89415e-09      86800.6
       381.10000  3.89415e-09      85866.0
       381.20000  3.89415e-09      84775.7
       381.30000  3.89611e-09      83649.5
       381.40000  3.89611e-09      82324.9
       381.50000  2.04721e-08      424796.
       381.60000  2.04721e-08      416607.
       381.70000  2.04721e-08      407599.
       381.80000  2.04721e-08      397977.
       381.90000  2.04721e-08      387536.
       382.00000  2.04721e-08      376686.
       382.10000  2.04721e-08      365017.
       382.20000  2.04721e-08      352529.
       382.30000  2.04721e-08      339632.
       382.40000  2.04721e-08      325915.
       382.50000  3.50646e-08      533683.
       382.60000  3.50646e-08      514748.
       382.70000  3.50646e-08      498618.
       382.80000  3.50646e-08      484943.
       382.90000  3.50646e-08      474073.
       383.00000  3.50646e-08      465657.
       383.10000  3.50646e-08      460047.
       383.20000  3.50646e-08      456541.
       383.30000  3.50646e-08      456190.
       383.40000  3.50646e-08      457943.
       383.50000  1.95062e-09      25728.7
       383.60000  1.95062e-09      27152.7
       383.70000  1.95062e-09      28498.6
       383.80000  1.95208e-09      29788.7
       383.90000  1.95208e-09      30959.9
       384.00000  1.95208e-09      32053.1
       384.10000  1.95208e-09      33048.7
       384.20000  1.95208e-09      33966.1
       384.30000  1.95208e-09      34805.5
       384.40000  1.95208e-09      35547.3
       384.50000  9.75252e-10      18090.9
       384.60000  9.75252e-10      18383.5
       384.70000  9.75252e-10      18627.3
       384.80000  9.75252e-10      18832.1
       384.90000  9.75252e-10      18988.2
       385.00000  9.75252e-10      19105.2
       385.10000  9.75252e-10      19183.2
       385.20000  9.75252e-10      19212.5
       385.30000  9.75252e-10      19202.7
       385.40000  9.75252e-10      19154.0
       385.50000  2.53403e-08      495150.
       385.60000  2.53403e-08      495150.
       385.70000  2.53403e-08      495403.
       385.80000  2.53403e-08      495403.
       385.90000  2.53403e-08      495656.
       386.00000  2.53403e-08      495656.
       386.10000  2.53403e-08      495656.
       386.20000  2.53403e-08      495656.
       386.30000  2.53788e-08      496664.
       386.40000  2.53788e-08      496664.
       386.50000  3.63139e-08      710663.
       386.60000  3.63139e-08      711026.
       386.70000  3.63139e-08      711389.
       386.80000  3.63139e-08      711752.
       386.90000  3.63139e-08      711752.
       387.00000  3.63139e-08      712115.
       387.10000  3.63139e-08      711752.
       387.20000  3.63139e-08      711752.
       387.30000  3.63139e-08      711389.
       387.40000  3.63139e-08      711026.
       387.50000  5.88791e-09      115168.
       387.60000  5.88791e-09      115050.
       387.70000  5.88791e-09      114932.
       387.80000  5.88791e-09      114814.
       387.90000  5.88791e-09      114638.
       388.00000  5.88791e-09      114402.
       388.10000  5.88791e-09      114226.
       388.20000  5.88791e-09      113990.
       388.30000  5.88791e-09      113754.
       388.40000  5.88791e-09      113519.
       388.50000  1.66865e-08      320881.
       388.60000  1.66865e-08      328890.
       388.70000  1.66865e-08      336399.
       388.80000  1.67304e-08      344480.
       388.90000  1.67304e-08      351507.
       389.00000  1.67304e-08      357864.
       389.10000  1.67304e-08      364055.
       389.20000  1.67304e-08      369743.
       389.30000  1.67304e-08      375097.
       389.40000  1.67304e-08      380116.
       389.50000  9.86303e-10      22675.1
       389.60000  9.86303e-10      22803.3
       389.70000  9.86303e-10      22931.6
       389.80000  9.86303e-10      23069.6
       389.90000  9.86303e-10      23217.6
       390.00000  9.86303e-10      23355.7
       390.10000  9.86303e-10      23503.6
       390.20000  9.86303e-10      23661.4
       390.30000  9.86303e-10      23819.2
       390.40000  9.86303e-10      23977.0
       390.50000  3.06327e-08      749888.
       390.60000  3.06327e-08      755402.
       390.70000  3.06327e-08      760916.
       390.80000  3.06327e-08      766430.
       390.90000  3.06327e-08      771944.
       391.00000  3.06327e-08      778070.
       391.10000  3.06327e-08      783890.
       391.20000  3.06327e-08      790017.
       391.30000  3.07133e-08      798240.
       391.40000  3.07133e-08      804690.
       391.50000  2.17838e-08      575527.
       391.60000  2.17838e-08      563982.
       391.70000  2.17838e-08      552001.
       391.80000  2.17838e-08      539366.
       391.90000  2.17838e-08      526514.
       392.00000  2.17838e-08      513008.
       392.10000  2.17838e-08      499066.
       392.20000  2.17838e-08      484471.
       392.30000  2.17838e-08      469440.
       392.40000  2.17838e-08      453974.
       392.50000  1.98635e-09      39945.5
       392.60000  1.98635e-09      36687.9
       392.70000  1.98635e-09      33768.0
       392.80000  1.98635e-09      31185.7
       392.90000  1.98635e-09      28961.0
       393.00000  1.98635e-09      27093.8
       393.10000  1.98635e-09      25564.3
       393.20000  1.98635e-09      24372.5
       393.30000  1.98635e-09      23538.3
       393.40000  1.98635e-09      23041.7
       393.50000  1.09390e-08      126018.
       393.60000  1.09390e-08      137175.
       393.70000  1.09390e-08      148005.
       393.80000  1.09574e-08      158772.
       393.90000  1.09574e-08      168962.
       394.00000  1.09574e-08      178824.
       394.10000  1.09574e-08      188357.
       394.20000  1.09574e-08      197452.
       394.30000  1.09574e-08      206327.
       394.40000  1.09574e-08      214874.
       394.50000  3.18414e-08      647972.
       394.60000  3.18414e-08      687774.
       394.70000  3.18414e-08      722800.
       394.80000  3.18414e-08      753049.
       394.90000  3.18414e-08      778522.
       395.00000  3.18414e-08      799219.
       395.10000  3.18414e-08      815140.
       395.20000  3.18414e-08      826603.
       395.30000  3.18414e-08      832971.
       395.40000  3.18414e-08      834881.
       395.50000  1.98911e-08      519755.
       395.60000  1.98911e-08      514981.
       395.70000  1.98911e-08      507224.
       395.80000  1.98911e-08      496483.
       395.90000  1.98911e-08      482957.
       396.00000  1.98911e-08      466248.
       396.10000  1.98911e-08      446755.
       396.20000  1.98911e-08      424079.
       396.30000  1.99304e-08      399404.
       396.40000  1.99304e-08      370904.
       396.50000  1.39699e-08      238046.
       396.60000  1.39699e-08      233576.
       396.70000  1.39699e-08      230642.
       396.80000  1.39699e-08      229106.
       396.90000  1.39699e-08      229106.
       397.00000  1.39699e-08      230503.
       397.10000  1.39699e-08      233297.
       397.20000  1.39699e-08      237627.
       397.30000  1.39699e-08      243495.
       397.40000  1.39699e-08      250619.
       397.50000  1.09463e-08      203164.
       397.60000  1.09463e-08      220678.
       397.70000  1.09463e-08      237207.
       397.80000  1.09463e-08      252750.
       397.90000  1.09463e-08      267309.
       398.00000  1.09463e-08      280882.
       398.10000  1.09463e-08      293361.
       398.20000  1.09463e-08      304964.
       398.30000  1.09463e-08      315582.
       398.40000  1.09463e-08      325215.
       398.50000  2.38517e-08      727238.
       398.60000  2.38517e-08      743934.
       398.70000  2.38517e-08      758484.
       398.80000  2.38645e-08      771300.
       398.90000  2.38645e-08      781323.
       399.00000  2.38645e-08      789437.
       399.10000  2.38645e-08      795164.
       399.20000  2.38645e-08      798983.
       399.30000  2.38645e-08      800415.
       399.40000  2.38645e-08      799937.
       399.50000  1.58949e-08      530889.
       399.60000  1.58949e-08      531048.
       399.70000  1.58949e-08      531207.
       399.80000  1.58949e-08      531684.
       399.90000  1.58949e-08      532161.
       400.00000  1.58949e-08      532797.
       400.10000  1.58949e-08      533591.
       400.20000  1.58949e-08      534545.
       400.30000  1.58949e-08      535658.
       400.40000  1.58949e-08      536929.
       400.50000  1.98316e-08      671697.
       400.60000  1.98316e-08      675266.
       400.70000  1.98316e-08      678836.
       400.80000  1.98316e-08      682009.
       400.90000  1.98316e-08      684984.
       401.00000  1.98316e-08      687959.
       401.10000  1.98316e-08      690537.
       401.20000  1.98316e-08      692916.
       401.30000  1.98488e-08      695701.
       401.40000  1.98488e-08      697885.
       401.50000  1.09019e-08      384293.
       401.60000  1.09019e-08      385165.
       401.70000  1.09019e-08      385928.
       401.80000  1.09019e-08      386582.
       401.90000  1.09019e-08      387127.
       402.00000  1.09019e-08      387563.
       402.10000  1.09019e-08      387890.
       402.20000  1.09019e-08      388108.
       402.30000  1.09019e-08      388217.
       402.40000  1.09019e-08      388217.
       402.50000  1.67483e-08      596239.
       402.60000  1.67483e-08      592722.
       402.70000  1.67483e-08      589707.
       402.80000  1.67483e-08      586692.
       402.90000  1.67483e-08      584013.
       403.00000  1.67483e-08      581500.
       403.10000  1.67483e-08      579156.
       403.20000  1.67483e-08      577146.
       403.30000  1.67483e-08      575304.
       403.40000  1.67483e-08      573629.
       403.50000  9.88003e-10      33750.2
       403.60000  9.88003e-10      33740.3
       403.70000  9.88003e-10      33730.4
       403.80000  9.88516e-10      33728.2
       403.90000  9.88516e-10      33718.3
       404.00000  9.88516e-10      33708.4
       404.10000  9.88516e-10      33698.5
       404.20000  9.88516e-10      33688.6
       404.30000  9.88516e-10      33668.9
       404.40000  9.88516e-10      33668.9
       404.50000  1.47384e-08      501842.
       404.60000  1.47384e-08      501694.
       404.70000  1.47384e-08      501547.
       404.80000  1.47384e-08      501399.
       404.90000  1.47384e-08      501399.
       405.00000  1.47384e-08      501252.
       405.10000  1.47384e-08      501105.
       405.20000  1.47384e-08      501105.
       405.30000  1.47384e-08      500957.
       405.40000  1.47384e-08      500957.
       405.50000  1.37458e-08      467218.
       405.60000  1.37458e-08      463644.
       405.70000  1.37458e-08      460345.
       405.80000  1.37458e-08      457459.
       405.90000  1.37458e-08      454984.
       406.00000  1.37458e-08      452648.
       406.10000  1.37458e-08      450723.
       406.20000  1.37458e-08      449211.
       406.30000  1.37626e-08      448524.
       406.40000  1.37626e-08      447560.
       406.50000  1.47150e-08      477944.
       406.60000  1.47150e-08      478239.
       406.70000  1.47150e-08      478827.
       406.80000  1.47150e-08      479563.
       406.90000  1.47150e-08      480593.
       407.00000  1.47150e-08      481770.
       407.10000  1.47150e-08      483242.
       407.20000  1.47150e-08      484860.
       407.30000  1.47150e-08      486626.
       407.40000  1.47150e-08      488686.
       407.50000  1.81650e-13      6.05986
       407.60000  1.81650e-13      6.08892
       407.70000  1.81650e-13      6.12162
       407.80000  1.81650e-13      6.15613
       407.90000  1.81650e-13      6.19428
       408.00000  1.81650e-13      6.23424
       408.10000  1.81650e-13      6.27784
       408.20000  1.81650e-13      6.32143
       408.30000  1.81650e-13      6.37048
       408.40000  1.81650e-13      6.41952
       408.50000  4.85853e-09      173109.
       408.60000  4.85853e-09      173692.
       408.70000  4.85853e-09      174130.
       408.80000  4.85880e-09      174382.
       408.90000  4.85880e-09      174480.
       409.00000  4.85880e-09      174382.
       409.10000  4.85880e-09      174140.
       409.20000  4.85880e-09      173751.
       409.30000  4.85880e-09      173216.
       409.40000  4.85880e-09      172439.
       409.50000  5.51843e-08  1.94856e+06
       409.60000  5.51843e-08  1.90441e+06
       409.70000  5.51843e-08  1.86523e+06
       409.80000  5.51843e-08  1.83157e+06
       409.90000  5.51843e-08  1.80287e+06
       410.00000  5.51843e-08  1.78025e+06
       410.10000  5.51843e-08  1.76259e+06
       410.20000  5.51843e-08  1.74990e+06
       410.30000  5.51843e-08  1.74327e+06
       410.40000  5.51843e-08  1.74107e+06
       410.50000  8.68234e-09      274536.
       410.60000  8.68234e-09      275925.
       410.70000  8.68234e-09      278182.
       410.80000  8.68234e-09      281308.
       410.90000  8.68234e-09      285215.
       411.00000  8.68234e-09      289990.
       411.10000  8.68234e-09      295547.
       411.20000  8.68234e-09      302059.
       411.30000  8.67955e-09      309252.
       411.40000  8.67955e-09      317324.
       411.50000  1.63895e-08      616082.
       411.60000  1.63895e-08      615427.
       411.70000  1.63895e-08      614607.
       411.80000  1.63895e-08      613952.
       411.90000  1.63895e-08      613132.
       412.00000  1.63895e-08      612313.
       412.10000  1.63895e-08      611493.
       412.20000  1.63895e-08      610674.
       412.30000  1.63895e-08      609854.
       412.40000  1.63895e-08      609035.
       412.50000  3.83030e-09      142104.
       412.60000  3.83030e-09      141836.
       412.70000  3.83030e-09      141568.
       412.80000  3.83030e-09      141300.
       412.90000  3.83030e-09      141070.
       413.00000  3.83030e-09      140840.
       413.10000  3.83030e-09      140610.
       413.20000  3.83030e-09      140419.
       413.30000  3.83030e-09      140189.
       413.40000  3.83030e-09      139997.
       413.50000  4.00815e-08  1.46338e+06
       413.60000  4.00815e-08  1.46137e+06
       413.70000  4.00815e-08  1.45977e+06
       413.80000  4.00971e-08  1.45913e+06
       413.90000  4.00971e-08  1.45753e+06
       414.00000  4.00971e-08  1.45633e+06
       414.10000  4.00971e-08  1.45512e+06
       414.20000  4.00971e-08  1.45392e+06
       414.30000  4.00971e-08  1.45312e+06
       414.40000  4.00971e-08  1.45232e+06
       414.50000  4.74626e-09      171815.
       414.60000  4.74626e-09      171340.
       414.70000  4.74626e-09      170960.
       414.80000  4.74626e-09      170676.
       414.90000  4.74626e-09      170533.
       415.00000  4.74626e-09      170486.
       415.10000  4.74626e-09      170581.
       415.20000  4.74626e-09      170723.
       415.30000  4.74626e-09      171008.
       415.40000  4.74626e-09      171435.
       415.50000  1.39369e-08      504793.
       415.60000  1.39369e-08      511901.
       415.70000  1.39369e-08      518033.
       415.80000  1.39369e-08      523468.
       415.90000  1.39369e-08      527928.
       416.00000  1.39369e-08      531691.
       416.10000  1.39369e-08      534478.
       416.20000  1.39369e-08      536569.
       416.30000  1.39336e-08      537558.
       416.40000  1.39336e-08      537976.
       416.50000  2.03526e-08      784999.
       416.60000  2.03526e-08      774009.
       416.70000  2.03526e-08      763629.
       416.80000  2.03526e-08      754267.
       416.90000  2.03526e-08      745515.
       417.00000  2.03526e-08      737781.
       417.10000  2.03526e-08      730861.
       417.20000  2.03526e-08      724756.
       417.30000  2.03526e-08      719464.
       417.40000  2.03526e-08      714986.
       417.50000  4.14463e-08  1.44855e+06
       417.60000  4.14463e-08  1.45062e+06
       417.70000  4.14463e-08  1.45269e+06
       417.80000  4.14463e-08  1.45476e+06
       417.90000  4.14463e-08  1.45684e+06
       418.00000  4.14463e-08  1.45891e+06
       418.10000  4.14463e-08  1.46098e+06
       418.20000  4.14463e-08  1.46264e+06
       418.30000  4.14463e-08  1.46471e+06
       418.40000  4.14463e-08  1.46678e+06
       418.50000  1.21122e-08      429135.
       418.60000  1.21122e-08      429741.
       418.70000  1.21122e-08      430347.
       418.80000  1.21780e-08      433172.
       418.90000  1.21780e-08      433781.
       419.00000  1.21780e-08      434268.
       419.10000  1.21780e-08      434877.
       419.20000  1.21780e-08      435364.
       419.30000  1.21780e-08      435851.
       419.40000  1.21780e-08      436460.
       419.50000  1.41076e-08      506182.
       419.60000  1.41076e-08      508157.
       419.70000  1.41076e-08      510132.
       419.80000  1.41076e-08      511966.
       419.90000  1.41076e-08      513941.
       420.00000  1.41076e-08      515634.
       420.10000  1.41076e-08      517468.
       420.20000  1.41076e-08      519161.
       420.30000  1.41076e-08      520854.
       420.40000  1.41076e-08      522547.
       420.50000  6.09952e-08  2.26597e+06
       420.60000  6.09952e-08  2.28610e+06
       420.70000  6.09952e-08  2.30379e+06
       420.80000  6.09952e-08  2.31782e+06
       420.90000  6.09952e-08  2.32819e+06
       421.00000  6.09952e-08  2.33551e+06
       421.10000  6.09952e-08  2.33978e+06
       421.20000  6.09952e-08  2.34039e+06
       421.30000  6.13113e-08  2.35006e+06
       421.40000  6.13113e-08  2.34393e+06
       421.50000  2.20076e-08      838050.
       421.60000  2.20076e-08      833648.
       421.70000  2.20076e-08      827926.
       421.80000  2.20076e-08      821104.
       421.90000  2.20076e-08      812961.
       422.00000  2.20076e-08      803718.
       422.10000  2.20076e-08      793374.
       422.20000  2.20076e-08      781710.
       422.30000  2.20076e-08      768726.
       422.40000  2.20076e-08      754861.
       422.50000  1.98441e-08      666961.
       422.60000  1.98441e-08      673906.
       422.70000  1.98441e-08      680653.
       422.80000  1.98441e-08      687003.
       422.90000  1.98441e-08      692956.
       423.00000  1.98441e-08      698711.
       423.10000  1.98441e-08      704268.
       423.20000  1.98441e-08      709427.
       423.30000  1.98441e-08      714190.
       423.40000  1.98441e-08      718754.
       423.50000  1.86960e-08      681095.
       423.60000  1.86960e-08      685769.
       423.70000  1.86960e-08      690069.
       423.80000  1.88091e-08      697817.
       423.90000  1.88091e-08      701014.
       424.00000  1.88091e-08      703835.
       424.10000  1.88091e-08      705904.
       424.20000  1.88091e-08      707597.
       424.30000  1.88091e-08      708726.
       424.40000  1.88091e-08      709290.
       424.50000  4.22271e-08  1.59238e+06
       424.60000  4.22271e-08  1.59154e+06
       424.70000  4.22271e-08  1.58943e+06
       424.80000  4.22271e-08  1.58647e+06
       424.90000  4.22271e-08  1.58183e+06
       425.00000  4.22271e-08  1.57634e+06
       425.10000  4.22271e-08  1.56958e+06
       425.20000  4.22271e-08  1.56156e+06
       425.30000  4.22271e-08  1.55269e+06
       425.40000  4.22271e-08  1.54256e+06
       425.50000  3.10833e-08  1.12708e+06
       425.60000  3.10833e-08  1.13143e+06
       425.70000  3.10833e-08  1.13516e+06
       425.80000  3.10833e-08  1.13765e+06
       425.90000  3.10833e-08  1.13952e+06
       426.00000  3.10833e-08  1.14045e+06
       426.10000  3.10833e-08  1.14045e+06
       426.20000  3.10833e-08  1.13952e+06
       426.30000  3.11779e-08  1.14142e+06
       426.40000  3.11779e-08  1.13862e+06
       426.50000  1.68238e-08      612556.
       426.60000  1.68238e-08      605658.
       426.70000  1.68238e-08      599265.
       426.80000  1.68238e-08      593377.
       426.90000  1.68238e-08      588162.
       427.00000  1.68238e-08      583283.
       427.10000  1.68238e-08      579077.
       427.20000  1.68238e-08      575376.
       427.30000  1.68238e-08      572179.
       427.40000  1.68238e-08      569487.
       427.50000  5.53029e-08  1.86481e+06
       427.60000  5.53029e-08  1.85984e+06
       427.70000  5.53029e-08  1.85597e+06
       427.80000  5.53029e-08  1.85431e+06
       427.90000  5.53029e-08  1.85431e+06
       428.00000  5.53029e-08  1.85597e+06
       428.10000  5.53029e-08  1.85984e+06
       428.20000  5.53029e-08  1.86481e+06
       428.30000  5.53029e-08  1.87200e+06
       428.40000  5.53029e-08  1.88030e+06
       428.50000  3.19867e-08  1.09362e+06
       428.60000  3.19867e-08  1.09330e+06
       428.70000  3.19867e-08  1.09138e+06
       428.80000  3.20408e-08  1.08971e+06
       428.90000  3.20408e-08  1.08458e+06
       429.00000  3.20408e-08  1.07785e+06
       429.10000  3.20408e-08  1.06952e+06
       429.20000  3.20408e-08  1.05959e+06
       429.30000  3.20408e-08  1.04838e+06
       429.40000  3.20408e-08  1.03524e+06
       429.50000  4.08644e-08  1.30153e+06
       429.60000  4.08644e-08  1.23656e+06
       429.70000  4.08644e-08  1.17894e+06
       429.80000  4.08644e-08  1.12949e+06
       429.90000  4.08644e-08  1.08781e+06
       430.00000  4.08644e-08  1.05430e+06
       430.10000  4.08644e-08  1.02856e+06
       430.20000  4.08644e-08  1.01058e+06
       430.30000  4.08644e-08  1.00036e+06
       430.40000  4.08644e-08      998317.
       430.50000  5.03805e-09      123785.
       430.60000  5.03805e-09      125447.
       430.70000  5.03805e-09      128118.
       430.80000  5.03805e-09      131695.
       430.90000  5.03805e-09      136330.
       431.00000  5.03805e-09      141871.
       431.10000  5.03805e-09      148421.
       431.20000  5.03805e-09      155928.
       431.30000  5.04839e-09      164729.
       431.40000  5.04839e-09      174220.
       431.50000  5.57053e-08  2.03770e+06
       431.60000  5.57053e-08  2.02656e+06
       431.70000  5.57053e-08  2.01653e+06
       431.80000  5.57053e-08  2.00873e+06
       431.90000  5.57053e-08  2.00205e+06
       432.00000  5.57053e-08  1.99704e+06
       432.10000  5.57053e-08  1.99314e+06
       432.20000  5.57053e-08  1.99091e+06
       432.30000  5.57053e-08  1.99035e+06
       432.40000  5.57053e-08  1.99147e+06
       432.50000  3.19734e-08  1.14433e+06
       432.60000  3.19734e-08  1.15520e+06
       432.70000  3.19734e-08  1.16479e+06
       432.80000  3.19734e-08  1.17374e+06
       432.90000  3.19734e-08  1.18142e+06
       433.00000  3.19734e-08  1.18813e+06
       433.10000  3.19734e-08  1.19389e+06
       433.20000  3.19734e-08  1.19836e+06
       433.30000  3.19734e-08  1.20220e+06
       433.40000  3.19734e-08  1.20476e+06
       433.50000  2.61579e-08      986939.
       433.60000  2.61579e-08      987462.
       433.70000  2.61579e-08      986939.
       433.80000  2.61701e-08      986350.
       433.90000  2.61701e-08      984256.
       434.00000  2.61701e-08      981378.
       434.10000  2.61701e-08      977714.
       434.20000  2.61701e-08      973265.
       434.30000  2.61701e-08      968031.
       434.40000  2.61701e-08      961750.
       434.50000  3.29228e-08  1.20102e+06
       434.60000  3.29228e-08  1.20037e+06
       434.70000  3.29228e-08  1.20037e+06
       434.80000  3.29228e-08  1.20168e+06
       434.90000  3.29228e-08  1.20432e+06
       435.00000  3.29228e-08  1.20794e+06
       435.10000  3.29228e-08  1.21255e+06
       435.20000  3.29228e-08  1.21814e+06
       435.30000  3.29228e-08  1.22506e+06
       435.40000  3.29228e-08  1.23296e+06
       435.50000  4.96734e-08  1.87418e+06
       435.60000  4.96734e-08  1.91292e+06
       435.70000  4.96734e-08  1.94869e+06
       435.80000  4.96734e-08  1.98048e+06
       435.90000  4.96734e-08  2.00879e+06
       436.00000  4.96734e-08  2.03313e+06
       436.10000  4.96734e-08  2.05449e+06
       436.20000  4.96734e-08  2.07188e+06
       436.30000  4.96595e-08  2.08520e+06
       436.40000  4.96595e-08  2.09563e+06
       436.50000  3.04124e-08  1.28736e+06
       436.60000  3.04124e-08  1.28949e+06
       436.70000  3.04124e-08  1.28918e+06
       436.80000  3.04124e-08  1.28675e+06
       436.90000  3.04124e-08  1.28219e+06
       437.00000  3.04124e-08  1.27519e+06
       437.10000  3.04124e-08  1.26637e+06
       437.20000  3.04124e-08  1.25512e+06
       437.30000  3.04124e-08  1.24174e+06
       437.40000  3.04124e-08  1.22592e+06
       437.50000  1.92347e-08      764193.
       437.60000  1.92347e-08      744766.
       437.70000  1.92347e-08      727263.
       437.80000  1.92347e-08      712068.
       437.90000  1.92347e-08      698988.
       438.00000  1.92347e-08      688024.
       438.10000  1.92347e-08      678984.
       438.20000  1.92347e-08      672252.
       438.30000  1.92347e-08      667635.
       438.40000  1.92347e-08      664943.
       438.50000  4.59767e-08  1.58849e+06
       438.60000  4.59767e-08  1.63171e+06
       438.70000  4.59767e-08  1.67171e+06
       438.80000  4.59835e-08  1.70783e+06
       438.90000  4.59835e-08  1.74001e+06
       439.00000  4.59835e-08  1.76852e+06
       439.10000  4.59835e-08  1.79336e+06
       439.20000  4.59835e-08  1.81405e+06
       439.30000  4.59835e-08  1.83152e+06
       439.40000  4.59835e-08  1.84486e+06
       439.50000  2.04996e-09      82674.9
       439.60000  2.04996e-09      81506.4
       439.70000  2.04996e-09      80501.9
       439.80000  2.04996e-09      79620.5
       439.90000  2.04996e-09      78903.0
       440.00000  2.04996e-09      78349.5
       440.10000  2.04996e-09      77939.5
       440.20000  2.04996e-09      77673.0
       440.30000  2.04996e-09      77550.0
       440.40000  2.04996e-09      77591.0
       440.50000  1.09307e-08      414712.
       440.60000  1.09307e-08      421927.
       440.70000  1.09307e-08      428704.
       440.80000  1.09307e-08      435153.
       440.90000  1.09307e-08      441165.
       441.00000  1.09307e-08      446739.
       441.10000  1.09307e-08      451877.
       441.20000  1.09307e-08      456686.
       441.30000  1.09241e-08      460781.
       441.40000  1.09241e-08      464713.
       441.50000  3.33385e-08  1.42889e+06
       441.60000  3.33385e-08  1.43856e+06
       441.70000  3.33385e-08  1.44689e+06
       441.80000  3.33385e-08  1.45389e+06
       441.90000  3.33385e-08  1.45989e+06
       442.00000  3.33385e-08  1.46456e+06
       442.10000  3.33385e-08  1.46789e+06
       442.20000  3.33385e-08  1.46989e+06
       442.30000  3.33385e-08  1.47056e+06
       442.40000  3.33385e-08  1.47023e+06
       442.50000  3.79347e-08  1.67102e+06
       442.60000  3.79347e-08  1.66040e+06
       442.70000  3.79347e-08  1.65054e+06
       442.80000  3.79347e-08  1.64219e+06
       442.90000  3.79347e-08  1.63499e+06
       443.00000  3.79347e-08  1.62854e+06
       443.10000  3.79347e-08  1.62360e+06
       443.20000  3.79347e-08  1.61981e+06
       443.30000  3.79347e-08  1.61678e+06
       443.40000  3.79347e-08  1.61526e+06
       443.50000  6.22143e-09      264846.
       443.60000  6.22143e-09      267148.
       443.70000  6.22143e-09      269139.
       443.80000  6.21687e-09      270620.
       443.90000  6.21687e-09      272050.
       444.00000  6.21687e-09      273169.
       444.10000  6.21687e-09      273915.
       444.20000  6.21687e-09      274413.
       444.30000  6.21687e-09      274661.
       444.40000  6.21687e-09      274537.
       444.50000  4.43787e-08  1.95666e+06
       444.60000  4.43787e-08  1.95177e+06
       444.70000  4.43787e-08  1.94467e+06
       444.80000  4.43787e-08  1.93535e+06
       444.90000  4.43787e-08  1.92382e+06
       445.00000  4.43787e-08  1.91050e+06
       445.10000  4.43787e-08  1.89453e+06
       445.20000  4.43787e-08  1.87677e+06
       445.30000  4.43787e-08  1.85680e+06
       445.40000  4.43787e-08  1.83461e+06
       445.50000  3.15294e-08  1.28609e+06
       445.60000  3.15294e-08  1.28766e+06
       445.70000  3.15294e-08  1.28987e+06
       445.80000  3.15294e-08  1.29302e+06
       445.90000  3.15294e-08  1.29712e+06
       446.00000  3.15294e-08  1.30185e+06
       446.10000  3.15294e-08  1.30753e+06
       446.20000  3.15294e-08  1.31415e+06
       446.30000  3.14928e-08  1.31986e+06
       446.40000  3.14928e-08  1.32805e+06
       446.50000  7.47793e-09      317438.
       446.60000  7.47793e-09      322822.
       446.70000  7.47793e-09      327758.
       446.80000  7.47793e-09      332170.
       446.90000  7.47793e-09      336133.
       447.00000  7.47793e-09      339573.
       447.10000  7.47793e-09      342489.
       447.20000  7.47793e-09      344957.
       447.30000  7.47793e-09      346976.
       447.40000  7.47793e-09      348472.
       447.50000  2.00136e-08      935236.
       447.60000  2.00136e-08      936637.
       447.70000  2.00136e-08      936837.
       447.80000  2.00136e-08      935436.
       447.90000  2.00136e-08      933035.
       448.00000  2.00136e-08      929232.
       448.10000  2.00136e-08      924029.
       448.20000  2.00136e-08      917624.
       448.30000  2.00136e-08      909819.
       448.40000  2.00136e-08      900813.
       448.50000  4.15442e-08  1.84830e+06
       448.60000  4.15442e-08  1.85121e+06
       448.70000  4.15442e-08  1.85453e+06
       448.80000  4.15454e-08  1.85874e+06
       448.90000  4.15454e-08  1.86331e+06
       449.00000  4.15454e-08  1.86830e+06
       449.10000  4.15454e-08  1.87411e+06
       449.20000  4.15454e-08  1.88034e+06
       449.30000  4.15454e-08  1.88741e+06
       449.40000  4.15454e-08  1.89488e+06
       449.50000  2.79051e-08  1.27833e+06
       449.60000  2.79051e-08  1.29033e+06
       449.70000  2.79051e-08  1.30149e+06
       449.80000  2.79051e-08  1.31154e+06
       449.90000  2.79051e-08  1.32047e+06
       450.00000  2.79051e-08  1.32884e+06
       450.10000  2.79051e-08  1.33582e+06
       450.20000  2.79051e-08  1.34224e+06
       450.30000  2.79051e-08  1.34754e+06
       450.40000  2.79051e-08  1.35172e+06
       450.50000  2.83538e-08  1.37686e+06
       450.60000  2.83538e-08  1.37885e+06
       450.70000  2.83538e-08  1.37998e+06
       450.80000  2.83538e-08  1.37998e+06
       450.90000  2.83538e-08  1.37941e+06
       451.00000  2.83538e-08  1.37800e+06
       451.10000  2.83538e-08  1.37544e+06
       451.20000  2.83538e-08  1.37233e+06
       451.30000  2.83347e-08  1.36743e+06
       451.40000  2.83347e-08  1.36233e+06
       451.50000  1.61118e-08      771434.
       451.60000  1.61118e-08      762089.
       451.70000  1.61118e-08      753550.
       451.80000  1.61118e-08      745816.
       451.90000  1.61118e-08      738727.
       452.00000  1.61118e-08      732444.
       452.10000  1.61118e-08      726804.
       452.20000  1.61118e-08      721810.
       452.30000  1.61118e-08      717782.
       452.40000  1.61118e-08      714237.
       452.50000  5.30530e-08  2.34282e+06
       452.60000  5.30530e-08  2.33592e+06
       452.70000  5.30530e-08  2.33168e+06
       452.80000  5.30530e-08  2.33009e+06
       452.90000  5.30530e-08  2.33062e+06
       453.00000  5.30530e-08  2.33327e+06
       453.10000  5.30530e-08  2.33858e+06
       453.20000  5.30530e-08  2.34600e+06
       453.30000  5.30530e-08  2.35608e+06
       453.40000  5.30530e-08  2.36829e+06
       453.50000  7.35478e-09      330377.
       453.60000  7.35478e-09      330230.
       453.70000  7.35478e-09      330230.
       453.80000  7.35294e-09      330147.
       453.90000  7.35294e-09      330221.
       454.00000  7.35294e-09      330441.
       454.10000  7.35294e-09      330735.
       454.20000  7.35294e-09      331029.
       454.30000  7.35294e-09      331471.
       454.40000  7.35294e-09      331985.
       454.50000  1.35380e-08      612189.
       454.60000  1.35380e-08      614220.
       454.70000  1.35380e-08      616250.
       454.80000  1.35380e-08      618146.
       454.90000  1.35380e-08      620041.
       455.00000  1.35380e-08      621936.
       455.10000  1.35380e-08      623696.
       455.20000  1.35380e-08      625456.
       455.30000  1.35380e-08      627216.
       455.40000  1.35380e-08      628976.
       455.50000  5.54541e-08  2.58305e+06
       455.60000  5.54541e-08  2.58970e+06
       455.70000  5.54541e-08  2.59636e+06
       455.80000  5.54541e-08  2.60301e+06
       455.90000  5.54541e-08  2.60911e+06
       456.00000  5.54541e-08  2.61521e+06
       456.10000  5.54541e-08  2.62131e+06
       456.20000  5.54541e-08  2.62686e+06
       456.30000  5.54527e-08  2.63290e+06
       456.40000  5.54527e-08  2.63844e+06
       456.50000  1.32543e-08      631834.
       456.60000  1.32543e-08      634750.
       456.70000  1.32543e-08      637268.
       456.80000  1.32543e-08      639256.
       456.90000  1.32543e-08      640847.
       457.00000  1.32543e-08      641907.
       457.10000  1.32543e-08      642437.
       457.20000  1.32543e-08      642570.
       457.30000  1.32543e-08      642305.
       457.40000  1.32543e-08      641509.
       457.50000  2.01796e-08      974876.
       457.60000  2.01796e-08      965594.
       457.70000  2.01796e-08      956916.
       457.80000  2.01796e-08      949248.
       457.90000  2.01796e-08      942387.
       458.00000  2.01796e-08      936131.
       458.10000  2.01796e-08      930683.
       458.20000  2.01796e-08      926042.
       458.30000  2.01796e-08      922207.
       458.40000  2.01796e-08      919180.
       458.50000  2.29577e-08  1.04320e+06
       458.60000  2.29577e-08  1.04136e+06
       458.70000  2.29577e-08  1.04044e+06
       458.80000  2.29888e-08  1.04208e+06
       458.90000  2.29888e-08  1.04300e+06
       459.00000  2.29888e-08  1.04461e+06
       459.10000  2.29888e-08  1.04737e+06
       459.20000  2.29888e-08  1.05105e+06
       459.30000  2.29888e-08  1.05542e+06
       459.40000  2.29888e-08  1.06070e+06
       459.50000  6.99662e-09      324713.
       459.60000  6.99662e-09      325413.
       459.70000  6.99662e-09      326113.
       459.80000  6.99662e-09      326742.
       459.90000  6.99662e-09      327372.
       460.00000  6.99662e-09      327932.
       460.10000  6.99662e-09      328491.
       460.20000  6.99662e-09      329051.
       460.30000  6.99662e-09      329541.
       460.40000  6.99662e-09      330031.
       460.50000  1.48976e-08      703614.
       460.60000  1.48976e-08      703763.
       460.70000  1.48976e-08      704060.
       460.80000  1.48976e-08      704507.
       460.90000  1.48976e-08      704954.
       461.00000  1.48976e-08      705550.
       461.10000  1.48976e-08      706295.
       461.20000  1.48976e-08      707189.
       461.30000  1.49186e-08      709081.
       461.40000  1.49186e-08      710125.
       461.50000  2.77249e-08  1.32192e+06
       461.60000  2.77249e-08  1.32885e+06
       461.70000  2.77249e-08  1.33467e+06
       461.80000  2.77249e-08  1.33994e+06
       461.90000  2.77249e-08  1.34466e+06
       462.00000  2.77249e-08  1.34826e+06
       462.10000  2.77249e-08  1.35131e+06
       462.20000  2.77249e-08  1.35380e+06
       462.30000  2.77249e-08  1.35547e+06
       462.40000  2.77249e-08  1.35630e+06
       462.50000  3.54883e-08  1.73644e+06
       462.60000  3.54883e-08  1.73148e+06
       462.70000  3.54883e-08  1.72651e+06
       462.80000  3.54883e-08  1.72154e+06
       462.90000  3.54883e-08  1.71657e+06
       463.00000  3.54883e-08  1.71160e+06
       463.10000  3.54883e-08  1.70699e+06
       463.20000  3.54883e-08  1.70202e+06
       463.30000  3.54883e-08  1.69705e+06
       463.40000  3.54883e-08  1.69208e+06
       463.50000  2.95066e-09      140274.
       463.60000  2.95066e-09      139861.
       463.70000  2.95066e-09      139448.
       463.80000  2.95346e-09      139167.
       463.90000  2.95346e-09      138783.
       464.00000  2.95346e-09      138370.
       464.10000  2.95346e-09      137956.
       464.20000  2.95346e-09      137543.
       464.30000  2.95346e-09      137129.
       464.40000  2.95346e-09      136716.
       464.50000  1.57300e-08      725940.
       464.60000  1.57300e-08      731603.
       464.70000  1.57300e-08      736637.
       464.80000  1.57300e-08      740884.
       464.90000  1.57300e-08      744502.
       465.00000  1.57300e-08      747490.
       465.10000  1.57300e-08      749693.
       465.20000  1.57300e-08      751266.
       465.30000  1.57300e-08      752052.
       465.40000  1.57300e-08      752367.
       465.50000  5.32393e-08  2.54431e+06
       465.60000  5.32393e-08  2.51769e+06
       465.70000  5.32393e-08  2.49373e+06
       465.80000  5.32393e-08  2.47244e+06
       465.90000  5.32393e-08  2.45380e+06
       466.00000  5.32393e-08  2.43783e+06
       466.10000  5.32393e-08  2.42505e+06
       466.20000  5.32393e-08  2.41440e+06
       466.30000  5.32128e-08  2.40522e+06
       466.40000  5.32128e-08  2.39990e+06
       466.50000  3.64738e-08  1.64351e+06
       466.60000  3.64738e-08  1.64351e+06
       466.70000  3.64738e-08  1.64534e+06
       466.80000  3.64738e-08  1.64935e+06
       466.90000  3.64738e-08  1.65482e+06
       467.00000  3.64738e-08  1.66248e+06
       467.10000  3.64738e-08  1.67196e+06
       467.20000  3.64738e-08  1.68290e+06
       467.30000  3.64738e-08  1.69603e+06
       467.40000  3.64738e-08  1.71099e+06
       467.50000  1.97573e-08      935705.
       467.60000  1.97573e-08      934717.
       467.70000  1.97573e-08      933532.
       467.80000  1.97573e-08      932544.
       467.90000  1.97573e-08      931754.
       468.00000  1.97573e-08      930963.
       468.10000  1.97573e-08      930173.
       468.20000  1.97573e-08      929580.
       468.30000  1.97573e-08      928988.
       468.40000  1.97573e-08      928395.
       468.50000  5.06545e-08  2.37924e+06
       468.60000  5.06545e-08  2.38532e+06
       468.70000  5.06545e-08  2.38988e+06
       468.80000  5.06331e-08  2.39191e+06
       468.90000  5.06331e-08  2.39393e+06
       469.00000  5.06331e-08  2.39495e+06
       469.10000  5.06331e-08  2.39393e+06
       469.20000  5.06331e-08  2.39191e+06
       469.30000  5.06331e-08  2.38887e+06
       469.40000  5.06331e-08  2.38431e+06
       469.50000  2.10070e-08      986909.
       469.60000  2.10070e-08      983758.
       469.70000  2.10070e-08      980397.
       469.80000  2.10070e-08      976195.
       469.90000  2.10070e-08      971784.
       470.00000  2.10070e-08      966532.
       470.10000  2.10070e-08      960860.
       470.20000  2.10070e-08      954768.
       470.30000  2.10070e-08      947836.
       470.40000  2.10070e-08      940693.
       470.50000  4.06735e-09      180590.
       470.60000  4.06735e-09      182502.
       470.70000  4.06735e-09      184292.
       470.80000  4.06735e-09      186000.
       470.90000  4.06735e-09      187546.
       471.00000  4.06735e-09      189010.
       471.10000  4.06735e-09      190352.
       471.20000  4.06735e-09      191572.
       471.30000  4.05535e-09      192142.
       471.40000  4.05535e-09      193116.
       471.50000  8.18031e-09      391346.
       471.60000  8.18031e-09      392491.
       471.70000  8.18031e-09      393555.
       471.80000  8.18031e-09      394455.
       471.90000  8.18031e-09      395191.
       472.00000  8.18031e-09      395763.
       472.10000  8.18031e-09      396254.
       472.20000  8.18031e-09      396581.
       472.30000  8.18031e-09      396745.
       472.40000  8.18031e-09      396745.
       472.50000  2.07506e-08  1.00619e+06
       472.60000  2.07506e-08  1.00557e+06
       472.70000  2.07506e-08  1.00453e+06
       472.80000  2.07506e-08  1.00308e+06
       472.90000  2.07506e-08  1.00142e+06
       473.00000  2.07506e-08      999347.
       473.10000  2.07506e-08      996857.
       473.20000  2.07506e-08      994160.
       473.30000  2.07506e-08      991047.
       473.40000  2.07506e-08      987519.
       473.50000  1.89879e-08      900026.
       473.60000  1.89879e-08      904773.
       473.70000  1.89879e-08      909330.
       473.80000  1.89714e-08      912522.
       473.90000  1.89714e-08      915937.
       474.00000  1.89714e-08      919162.
       474.10000  1.89714e-08      921818.
       474.20000  1.89714e-08      924095.
       474.30000  1.89714e-08      925992.
       474.40000  1.89714e-08      927320.
       474.50000  1.07519e-08      526089.
       474.60000  1.07519e-08      525551.
       474.70000  1.07519e-08      525014.
       474.80000  1.07519e-08      524369.
       474.90000  1.07519e-08      523724.
       475.00000  1.07519e-08      522971.
       475.10000  1.07519e-08      522111.
       475.20000  1.07519e-08      521251.
       475.30000  1.07519e-08      520283.
       475.40000  1.07519e-08      519315.
       475.50000  1.64819e-08      794430.
       475.60000  1.64819e-08      792617.
       475.70000  1.64819e-08      790804.
       475.80000  1.64819e-08      788826.
       475.90000  1.64819e-08      786848.
       476.00000  1.64819e-08      784705.
       476.10000  1.64819e-08      782398.
       476.20000  1.64819e-08      780090.
       476.30000  1.64592e-08      776544.
       476.40000  1.64592e-08      773911.
       476.50000  6.73428e-09      315568.
       476.60000  6.73428e-09      318935.
       476.70000  6.73428e-09      321966.
       476.80000  6.73428e-09      324660.
       476.90000  6.73428e-09      327151.
       477.00000  6.73428e-09      329239.
       477.10000  6.73428e-09      331125.
       477.20000  6.73428e-09      332673.
       477.30000  6.73428e-09      333886.
       477.40000  6.73428e-09      334828.
       477.50000  3.11052e-08  1.54966e+06
       477.60000  3.11052e-08  1.54033e+06
       477.70000  3.11052e-08  1.53224e+06
       477.80000  3.11052e-08  1.52540e+06
       477.90000  3.11052e-08  1.51918e+06
       478.00000  3.11052e-08  1.51420e+06
       478.10000  3.11052e-08  1.50984e+06
       478.20000  3.11052e-08  1.50673e+06
       478.30000  3.11052e-08  1.50456e+06
       478.40000  3.11052e-08  1.50362e+06
       478.50000  2.39919e-08  1.15953e+06
       478.60000  2.39919e-08  1.16025e+06
       478.70000  2.39919e-08  1.16169e+06
       478.80000  2.40274e-08  1.16557e+06
       478.90000  2.40274e-08  1.16869e+06
       479.00000  2.40274e-08  1.17230e+06
       479.10000  2.40274e-08  1.17686e+06
       479.20000  2.40274e-08  1.18215e+06
       479.30000  2.40274e-08  1.18815e+06
       479.40000  2.40274e-08  1.19488e+06
       479.50000  3.41406e-08  1.70873e+06
       479.60000  3.41406e-08  1.70225e+06
       479.70000  3.41406e-08  1.69644e+06
       479.80000  3.41406e-08  1.69132e+06
       479.90000  3.41406e-08  1.68723e+06
       480.00000  3.41406e-08  1.68381e+06
       480.10000  3.41406e-08  1.68108e+06
       480.20000  3.41406e-08  1.67937e+06
       480.30000  3.41406e-08  1.67835e+06
       480.40000  3.41406e-08  1.67801e+06
       480.50000  1.08800e-08      534861.
       480.60000  1.08800e-08      537908.
       480.70000  1.08800e-08      540628.
       480.80000  1.08800e-08      542913.
       480.90000  1.08800e-08      544980.
       481.00000  1.08800e-08      546721.
       481.10000  1.08800e-08      548135.
       481.20000  1.08800e-08      549223.
       481.30000  1.09132e-08      551664.
       481.40000  1.09132e-08      552101.
       481.50000  2.55931e-08  1.29501e+06
       481.60000  2.55931e-08  1.29450e+06
       481.70000  2.55931e-08  1.29322e+06
       481.80000  2.55931e-08  1.29117e+06
       481.90000  2.55931e-08  1.28836e+06
       482.00000  2.55931e-08  1.28503e+06
       482.10000  2.55931e-08  1.28068e+06
       482.20000  2.55931e-08  1.27556e+06
       482.30000  2.55931e-08  1.26993e+06
       482.40000  2.55931e-08  1.26327e+06
       482.50000  1.60043e-08      785493.
       482.60000  1.60043e-08      786293.
       482.70000  1.60043e-08      786933.
       482.80000  1.60043e-08      787413.
       482.90000  1.60043e-08      787573.
       483.00000  1.60043e-08      787733.
       483.10000  1.60043e-08      787573.
       483.20000  1.60043e-08      787413.
       483.30000  1.60043e-08      786933.
       483.40000  1.60043e-08      786293.
       483.50000  1.75627e-08      861975.
       483.60000  1.75627e-08      861799.
       483.70000  1.75627e-08      861097.
       483.80000  1.75931e-08      861711.
       483.90000  1.75931e-08      860304.
       484.00000  1.75931e-08      858544.
       484.10000  1.75931e-08      856257.
       484.20000  1.75931e-08      853794.
       484.30000  1.75931e-08      850803.
       484.40000  1.75931e-08      847460.
       484.50000  1.08598e-08      520838.
       484.60000  1.08598e-08      518123.
       484.70000  1.08598e-08      515191.
       484.80000  1.08598e-08      512042.
       484.90000  1.08598e-08      508675.
       485.00000  1.08598e-08      505200.
       485.10000  1.08598e-08      501507.
       485.20000  1.08598e-08      497706.
       485.30000  1.08598e-08      493688.
       485.40000  1.08598e-08      489453.
       485.50000  2.46863e-09      110274.
       485.60000  2.46863e-09      107953.
       485.70000  2.46863e-09      105855.
       485.80000  2.46863e-09      104028.
       485.90000  2.46863e-09      102448.
       486.00000  2.46863e-09      101115.
       486.10000  2.46863e-09      100004.
       486.20000  2.46863e-09      99165.0
       486.30000  2.46809e-09      98551.0
       486.40000  2.46809e-09      98205.4
       486.50000  3.79959e-09      151034.
       486.60000  3.79959e-09      151262.
       486.70000  3.79959e-09      151870.
       486.80000  3.79959e-09      152858.
       486.90000  3.79959e-09      154226.
       487.00000  3.79959e-09      155973.
       487.10000  3.79959e-09      158101.
       487.20000  3.79959e-09      160609.
       487.30000  3.79959e-09      163497.
       487.40000  3.79959e-09      166764.
       487.50000  2.85623e-08  1.28130e+06
       487.60000  2.85623e-08  1.28845e+06
       487.70000  2.85623e-08  1.29559e+06
       487.80000  2.85623e-08  1.30244e+06
       487.90000  2.85623e-08  1.30901e+06
       488.00000  2.85623e-08  1.31529e+06
       488.10000  2.85623e-08  1.32129e+06
       488.20000  2.85623e-08  1.32700e+06
       488.30000  2.85623e-08  1.33243e+06
       488.40000  2.85623e-08  1.33786e+06
       488.50000  3.98801e-08  1.87476e+06
       488.60000  3.98801e-08  1.87955e+06
       488.70000  3.98801e-08  1.88433e+06
       488.80000  3.98527e-08  1.88822e+06
       488.90000  3.98527e-08  1.89300e+06
       489.00000  3.98527e-08  1.89779e+06
       489.10000  3.98527e-08  1.90257e+06
       489.20000  3.98527e-08  1.90775e+06
       489.30000  3.98527e-08  1.91253e+06
       489.40000  3.98527e-08  1.91731e+06
       489.50000  9.54388e-09      460397.
       489.60000  9.54388e-09      461542.
       489.70000  9.54388e-09      462783.
       489.80000  9.54388e-09      463928.
       489.90000  9.54388e-09      465169.
       490.00000  9.54388e-09      466314.
       490.10000  9.54388e-09      467555.
       490.20000  9.54388e-09      468795.
       490.30000  9.54388e-09      469941.
       490.40000  9.54388e-09      471181.
       490.50000  7.83482e-08  3.87823e+06
       490.60000  7.83482e-08  3.84768e+06
       490.70000  7.83482e-08  3.81947e+06
       490.80000  7.83482e-08  3.79362e+06
       490.90000  7.83482e-08  3.76933e+06
       491.00000  7.83482e-08  3.74739e+06
       491.10000  7.83482e-08  3.72781e+06
       491.20000  7.83482e-08  3.71057e+06
       491.30000  7.84015e-08  3.69742e+06
       491.40000  7.84015e-08  3.68409e+06
       491.50000  1.35232e-09      63356.4
       491.60000  1.35232e-09      63383.4
       491.70000  1.35232e-09      63410.5
       491.80000  1.35232e-09      63424.0
       491.90000  1.35232e-09      63451.1
       492.00000  1.35232e-09      63464.6
       492.10000  1.35232e-09      63478.1
       492.20000  1.35232e-09      63478.1
       492.30000  1.35232e-09      63491.6
       492.40000  1.35232e-09      63491.6
       492.50000  3.36843e-08  1.58148e+06
       492.60000  3.36843e-08  1.58148e+06
       492.70000  3.36843e-08  1.58148e+06
       492.80000  3.36843e-08  1.58114e+06
       492.90000  3.36843e-08  1.58081e+06
       493.00000  3.36843e-08  1.58047e+06
       493.10000  3.36843e-08  1.58013e+06
       493.20000  3.36843e-08  1.57980e+06
       493.30000  3.36843e-08  1.57912e+06
       493.40000  3.36843e-08  1.57878e+06
       493.50000  2.47636e-08  1.16017e+06
       493.60000  2.47636e-08  1.17924e+06
       493.70000  2.47636e-08  1.19633e+06
       493.80000  2.48020e-08  1.21356e+06
       493.90000  2.48020e-08  1.22720e+06
       494.00000  2.48020e-08  1.23886e+06
       494.10000  2.48020e-08  1.24853e+06
       494.20000  2.48020e-08  1.25647e+06
       494.30000  2.48020e-08  1.26242e+06
       494.40000  2.48020e-08  1.26664e+06
       494.50000  4.09146e-08  2.09360e+06
       494.60000  4.09146e-08  2.07028e+06
       494.70000  4.09146e-08  2.04941e+06
       494.80000  4.09146e-08  2.03059e+06
       494.90000  4.09146e-08  2.01423e+06
       495.00000  4.09146e-08  1.99991e+06
       495.10000  4.09146e-08  1.98804e+06
       495.20000  4.09146e-08  1.97863e+06
       495.30000  4.09146e-08  1.97127e+06
       495.40000  4.09146e-08  1.96595e+06
       495.50000  1.86970e-08      897082.
       495.60000  1.86970e-08      903439.
       495.70000  1.86970e-08      909422.
       495.80000  1.86970e-08      914844.
       495.90000  1.86970e-08      919893.
       496.00000  1.86970e-08      924567.
       496.10000  1.86970e-08      928680.
       496.20000  1.86970e-08      932607.
       496.30000  1.87088e-08      936565.
       496.40000  1.87088e-08      939558.
       496.50000  1.47212e-09      74121.4
       496.60000  1.47212e-09      74401.1
       496.70000  1.47212e-09      74607.2
       496.80000  1.47212e-09      74769.2
       496.90000  1.47212e-09      74872.2
       497.00000  1.47212e-09      74916.4
       497.10000  1.47212e-09      74916.4
       497.20000  1.47212e-09      74842.8
       497.30000  1.47212e-09      74725.0
       497.40000  1.47212e-09      74548.4
       497.50000  2.71246e-08  1.36925e+06
       497.60000  2.71246e-08  1.36382e+06
       497.70000  2.71246e-08  1.35731e+06
       497.80000  2.71246e-08  1.34999e+06
       497.90000  2.71246e-08  1.34131e+06
       498.00000  2.71246e-08  1.33182e+06
       498.10000  2.71246e-08  1.32124e+06
       498.20000  2.71246e-08  1.30984e+06
       498.30000  2.71246e-08  1.29710e+06
       498.40000  2.71246e-08  1.28326e+06
       498.50000  1.22744e-08      574072.
       498.60000  1.22744e-08      580455.
       498.70000  1.22744e-08      586101.
       498.80000  1.22833e-08      591439.
       498.90000  1.22833e-08      595861.
       499.00000  1.22833e-08      599424.
       499.10000  1.22833e-08      602494.
       499.20000  1.22833e-08      604828.
       499.30000  1.22833e-08      606425.
       499.40000  1.22833e-08      607408.
       499.50000  9.38893e-09      464470.
       499.60000  9.38893e-09      461184.
       499.70000  9.38893e-09      458086.
       499.80000  9.38893e-09      455081.
       499.90000  9.38893e-09      452265.
       500.00000  9.38893e-09      449636.
       500.10000  9.38893e-09      447101.
       500.20000  9.38893e-09      444848.
       500.30000  9.38893e-09      442594.
       500.40000  9.38893e-09      440622.
       500.50000  2.38128e-08  1.11277e+06
       500.60000  2.38128e-08  1.10849e+06
       500.70000  2.38128e-08  1.10468e+06
       500.80000  2.38128e-08  1.10111e+06
       500.90000  2.38128e-08  1.09801e+06
       501.00000  2.38128e-08  1.09539e+06
       501.10000  2.38128e-08  1.09301e+06
       501.20000  2.38128e-08  1.09110e+06
       501.30000  2.38540e-08  1.09156e+06
       501.40000  2.38540e-08  1.09061e+06
       501.50000  3.40559e-08  1.55601e+06
       501.60000  3.40559e-08  1.56487e+06
       501.70000  3.40559e-08  1.57372e+06
       501.80000  3.40559e-08  1.58190e+06
       501.90000  3.40559e-08  1.58973e+06
       502.00000  3.40559e-08  1.59722e+06
       502.10000  3.40559e-08  1.60437e+06
       502.20000  3.40559e-08  1.61119e+06
       502.30000  3.40559e-08  1.61766e+06
       502.40000  3.40559e-08  1.62379e+06
       502.50000  9.90006e-09      473718.
       502.60000  9.90006e-09      475995.
       502.70000  9.90006e-09      478074.
       502.80000  9.90006e-09      479757.
       502.90000  9.90006e-09      481242.
       503.00000  9.90006e-09      482529.
       503.10000  9.90006e-09      483519.
       503.20000  9.90006e-09      484212.
       503.30000  9.90006e-09      484608.
       503.40000  9.90006e-09      484806.
       503.50000  2.34879e-08  1.14997e+06
       503.60000  2.34879e-08  1.14903e+06
       503.70000  2.34879e-08  1.14762e+06
       503.80000  2.35200e-08  1.14707e+06
       503.90000  2.35200e-08  1.14448e+06
       504.00000  2.35200e-08  1.14119e+06
       504.10000  2.35200e-08  1.13719e+06
       504.20000  2.35200e-08  1.13249e+06
       504.30000  2.35200e-08  1.12731e+06
       504.40000  2.35200e-08  1.12143e+06
       504.50000  4.10037e-08  1.94399e+06
       504.60000  4.10037e-08  1.96449e+06
       504.70000  4.10037e-08  1.98335e+06
       504.80000  4.10037e-08  2.00098e+06
       504.90000  4.10037e-08  2.01656e+06
       505.00000  4.10037e-08  2.03091e+06
       505.10000  4.10037e-08  2.04322e+06
       505.20000  4.10037e-08  2.05429e+06
       505.30000  4.10037e-08  2.06331e+06
       505.40000  4.10037e-08  2.07110e+06
       505.50000  2.07842e-08  1.05272e+06
       505.60000  2.07842e-08  1.05189e+06
       505.70000  2.07842e-08  1.05085e+06
       505.80000  2.07842e-08  1.04960e+06
       505.90000  2.07842e-08  1.04836e+06
       506.00000  2.07842e-08  1.04690e+06
       506.10000  2.07842e-08  1.04545e+06
       506.20000  2.07842e-08  1.04378e+06
       506.30000  2.08137e-08  1.04339e+06
       506.40000  2.08137e-08  1.04152e+06
       506.50000  9.27987e-08  4.63437e+06
       506.60000  9.27987e-08  4.61488e+06
       506.70000  9.27987e-08  4.59725e+06
       506.80000  9.27987e-08  4.58147e+06
       506.90000  9.27987e-08  4.56662e+06
       507.00000  9.27987e-08  4.55363e+06
       507.10000  9.27987e-08  4.54249e+06
       507.20000  9.27987e-08  4.53229e+06
       507.30000  9.27987e-08  4.52486e+06
       507.40000  9.27987e-08  4.51837e+06
       507.50000  1.81558e-08      882916.
       507.60000  1.81558e-08      884187.
       507.70000  1.81558e-08      885094.
       507.80000  1.81558e-08      886184.
       507.90000  1.81558e-08      887092.
       508.00000  1.81558e-08      887818.
       508.10000  1.81558e-08      888544.
       508.20000  1.81558e-08      889270.
       508.30000  1.81558e-08      889815.
       508.40000  1.81558e-08      890360.
       508.50000  3.02000e-08  1.48161e+06
       508.60000  3.02000e-08  1.48222e+06
       508.70000  3.02000e-08  1.48282e+06
       508.80000  3.02152e-08  1.48387e+06
       508.90000  3.02152e-08  1.48417e+06
       509.00000  3.02152e-08  1.48417e+06
       509.10000  3.02152e-08  1.48417e+06
       509.20000  3.02152e-08  1.48417e+06
       509.30000  3.02152e-08  1.48387e+06
       509.40000  3.02152e-08  1.48357e+06
       509.50000  1.19258e-08      585316.
       509.60000  1.19258e-08      586151.
       509.70000  1.19258e-08      586986.
       509.80000  1.19258e-08      587940.
       509.90000  1.19258e-08      588894.
       510.00000  1.19258e-08      589968.
       510.10000  1.19258e-08      591041.
       510.20000  1.19258e-08      592114.
       510.30000  1.19258e-08      593426.
       510.40000  1.19258e-08      594619.
       510.50000  3.11668e-08  1.55740e+06
       510.60000  3.11668e-08  1.56831e+06
       510.70000  3.11668e-08  1.57766e+06
       510.80000  3.11668e-08  1.58577e+06
       510.90000  3.11668e-08  1.59200e+06
       511.00000  3.11668e-08  1.59730e+06
       511.10000  3.11668e-08  1.60073e+06
       511.20000  3.11668e-08  1.60291e+06
       511.30000  3.11763e-08  1.60402e+06
       511.40000  3.11763e-08  1.60340e+06
       511.50000  2.10995e-08  1.08367e+06
       511.60000  2.10995e-08  1.08114e+06
       511.70000  2.10995e-08  1.07776e+06
       511.80000  2.10995e-08  1.07333e+06
       511.90000  2.10995e-08  1.06785e+06
       512.00000  2.10995e-08  1.06152e+06
       512.10000  2.10995e-08  1.05413e+06
       512.20000  2.10995e-08  1.04590e+06
       512.30000  2.10995e-08  1.03662e+06
       512.40000  2.10995e-08  1.02628e+06
       512.50000  1.79044e-09      86138.0
       512.60000  1.79044e-09      86084.3
       512.70000  1.79044e-09      86048.5
       512.80000  1.79044e-09      86012.7
       512.90000  1.79044e-09      85994.8
       513.00000  1.79044e-09      85976.9
       513.10000  1.79044e-09      85959.0
       513.20000  1.79044e-09      85959.0
       513.30000  1.79044e-09      85976.9
       513.40000  1.79044e-09      85994.8
       513.50000  4.17256e-08  2.00491e+06
       513.60000  4.17256e-08  2.00617e+06
       513.70000  4.17256e-08  2.00742e+06
       513.80000  4.16840e-08  2.00667e+06
       513.90000  4.16840e-08  2.00834e+06
       514.00000  4.16840e-08  2.01000e+06
       514.10000  4.16840e-08  2.01209e+06
       514.20000  4.16840e-08  2.01376e+06
       514.30000  4.16840e-08  2.01584e+06
       514.40000  4.16840e-08  2.01834e+06
       514.50000  2.38761e-08  1.15751e+06
       514.60000  2.38761e-08  1.15895e+06
       514.70000  2.38761e-08  1.16038e+06
       514.80000  2.38761e-08  1.16205e+06
       514.90000  2.38761e-08  1.16372e+06
       515.00000  2.38761e-08  1.16563e+06
       515.10000  2.38761e-08  1.16754e+06
       515.20000  2.38761e-08  1.16945e+06
       515.30000  2.38761e-08  1.17160e+06
       515.40000  2.38761e-08  1.17351e+06
       515.50000  2.98891e-08  1.47204e+06
       515.60000  2.98891e-08  1.44424e+06
       515.70000  2.98891e-08  1.41883e+06
       515.80000  2.98891e-08  1.39552e+06
       515.90000  2.98891e-08  1.37460e+06
       516.00000  2.98891e-08  1.35577e+06
       516.10000  2.98891e-08  1.33933e+06
       516.20000  2.98891e-08  1.32498e+06
       516.30000  2.98859e-08  1.31289e+06
       516.40000  2.98859e-08  1.30302e+06
       516.50000  5.49875e-08  2.38316e+06
       516.60000  5.49875e-08  2.40020e+06
       516.70000  5.49875e-08  2.41505e+06
       516.80000  5.49875e-08  2.42825e+06
       516.90000  5.49875e-08  2.43979e+06
       517.00000  5.49875e-08  2.44969e+06
       517.10000  5.49875e-08  2.45739e+06
       517.20000  5.49875e-08  2.46289e+06
       517.30000  5.49875e-08  2.46674e+06
       517.40000  5.49875e-08  2.46894e+06
       517.50000  6.16703e-08  2.76961e+06
       517.60000  6.16703e-08  2.76776e+06
       517.70000  6.16703e-08  2.76406e+06
       517.80000  6.16703e-08  2.75789e+06
       517.90000  6.16703e-08  2.75049e+06
       518.00000  6.16703e-08  2.74001e+06
       518.10000  6.16703e-08  2.72829e+06
       518.20000  6.16703e-08  2.71411e+06
       518.30000  6.16703e-08  2.69807e+06
       518.40000  6.16703e-08  2.67957e+06
       518.50000  2.93401e-08  1.26514e+06
       518.60000  2.93401e-08  1.28451e+06
       518.70000  2.93401e-08  1.30270e+06
       518.80000  2.92501e-08  1.31567e+06
       518.90000  2.92501e-08  1.33117e+06
       519.00000  2.92501e-08  1.34521e+06
       519.10000  2.92501e-08  1.35808e+06
       519.20000  2.92501e-08  1.36978e+06
       519.30000  2.92501e-08  1.38002e+06
       519.40000  2.92501e-08  1.38879e+06
       519.50000  3.80865e-13      18.1863
       519.60000  3.80865e-13      18.1596
       519.70000  3.80865e-13      18.1406
       519.80000  3.80865e-13      18.1292
       519.90000  3.80865e-13      18.1253
       520.00000  3.80865e-13      18.1292
       520.10000  3.80865e-13      18.1368
       520.20000  3.80865e-13      18.1558
       520.30000  3.80865e-13      18.1787
       520.40000  3.80865e-13      18.2129
       520.50000  7.04803e-08  3.37742e+06
       520.60000  7.04803e-08  3.38587e+06
       520.70000  7.04803e-08  3.39574e+06
       520.80000  7.04803e-08  3.40702e+06
       520.90000  7.04803e-08  3.41900e+06
       521.00000  7.04803e-08  3.43310e+06
       521.10000  7.04803e-08  3.44860e+06
       521.20000  7.04803e-08  3.46481e+06
       521.30000  7.04260e-08  3.47975e+06
       521.40000  7.04260e-08  3.49947e+06
       521.50000  7.55939e-08  3.77818e+06
       521.60000  7.55939e-08  3.74870e+06
       521.70000  7.55939e-08  3.72224e+06
       521.80000  7.55939e-08  3.69881e+06
       521.90000  7.55939e-08  3.67840e+06
       522.00000  7.55939e-08  3.66101e+06
       522.10000  7.55939e-08  3.64665e+06
       522.20000  7.55939e-08  3.63531e+06
       522.30000  7.55939e-08  3.62775e+06
       522.40000  7.55939e-08  3.62246e+06
       522.50000  2.28892e-08  1.09616e+06
       522.60000  2.28892e-08  1.10097e+06
       522.70000  2.28892e-08  1.10555e+06
       522.80000  2.28892e-08  1.11012e+06
       522.90000  2.28892e-08  1.11470e+06
       523.00000  2.28892e-08  1.11905e+06
       523.10000  2.28892e-08  1.12363e+06
       523.20000  2.28892e-08  1.12798e+06
       523.30000  2.28892e-08  1.13233e+06
       523.40000  2.28892e-08  1.13668e+06
       523.50000  1.13343e-07  5.65012e+06
       523.60000  1.13343e-07  5.67166e+06
       523.70000  1.13343e-07  5.69206e+06
       523.80000  1.13223e-07  5.70758e+06
       523.90000  1.13223e-07  5.72796e+06
       524.00000  1.13223e-07  5.74834e+06
       524.10000  1.13223e-07  5.76759e+06
       524.20000  1.13223e-07  5.78797e+06
       524.30000  1.13223e-07  5.80722e+06
       524.40000  1.13223e-07  5.82647e+06
       524.50000  9.81070e-09      506526.
       524.60000  9.81070e-09      508587.
       524.70000  9.81070e-09      510058.
       524.80000  9.81070e-09      510941.
       524.90000  9.81070e-09      511137.
       525.00000  9.81070e-09      510843.
       525.10000  9.81070e-09      509960.
       525.20000  9.81070e-09      508390.
       525.30000  9.81070e-09      506330.
       525.40000  9.81070e-09      503583.
       525.50000  7.96764e-09      406270.
       525.60000  7.96764e-09      397107.
       525.70000  7.96764e-09      388741.
       525.80000  7.96764e-09      381252.
       525.90000  7.96764e-09      374639.
       526.00000  7.96764e-09      368902.
       526.10000  7.96764e-09      363962.
       526.20000  7.96764e-09      359978.
       526.30000  7.97122e-09      356951.
       526.40000  7.97122e-09      354640.
       526.50000  6.68082e-08  2.96027e+06
       526.60000  6.68082e-08  2.95559e+06
       526.70000  6.68082e-08  2.95827e+06
       526.80000  6.68082e-08  2.96829e+06
       526.90000  6.68082e-08  2.98499e+06
       527.00000  6.68082e-08  3.00904e+06
       527.10000  6.68082e-08  3.04044e+06
       527.20000  6.68082e-08  3.07919e+06
       527.30000  6.68082e-08  3.12529e+06
       527.40000  6.68082e-08  3.17873e+06
       527.50000  2.06166e-09      99949.3
       527.60000  2.06166e-09      100465.
       527.70000  2.06166e-09      100959.
       527.80000  2.06166e-09      101413.
       527.90000  2.06166e-09      101867.
       528.00000  2.06166e-09      102258.
       528.10000  2.06166e-09      102650.
       528.20000  2.06166e-09      103001.
       528.30000  2.06166e-09      103330.
       528.40000  2.06166e-09      103640.
       528.50000  8.34081e-09      420460.
       528.60000  8.34081e-09      420877.
       528.70000  8.34081e-09      421294.
       528.80000  8.35399e-09      422461.
       528.90000  8.35399e-09      422962.
       529.00000  8.35399e-09      423464.
       529.10000  8.35399e-09      424048.
       529.20000  8.35399e-09      424633.
       529.30000  8.35399e-09      425218.
       529.40000  8.35399e-09      425886.
       529.50000  7.19420e-08  3.67336e+06
       529.60000  7.19420e-08  3.68271e+06
       529.70000  7.19420e-08  3.69134e+06
       529.80000  7.19420e-08  3.69997e+06
       529.90000  7.19420e-08  3.70789e+06
       530.00000  7.19420e-08  3.71508e+06
       530.10000  7.19420e-08  3.72228e+06
       530.20000  7.19420e-08  3.72875e+06
       530.30000  7.19420e-08  3.73451e+06
       530.40000  7.19420e-08  3.74026e+06
       530.50000  4.72848e-08  2.46212e+06
       530.60000  4.72848e-08  2.47536e+06
       530.70000  4.72848e-08  2.48623e+06
       530.80000  4.72848e-08  2.49474e+06
       530.90000  4.72848e-08  2.50042e+06
       531.00000  4.72848e-08  2.50326e+06
       531.10000  4.72848e-08  2.50420e+06
       531.20000  4.72848e-08  2.50184e+06
       531.30000  4.72964e-08  2.49820e+06
       531.40000  4.72964e-08  2.49063e+06
       531.50000  1.09017e-08      571903.
       531.60000  1.09017e-08      569068.
       531.70000  1.09017e-08      565580.
       531.80000  1.09017e-08      561546.
       531.90000  1.09017e-08      556968.
       532.00000  1.09017e-08      551735.
       532.10000  1.09017e-08      545848.
       532.20000  1.09017e-08      539416.
       532.30000  1.09017e-08      532439.
       532.40000  1.09017e-08      524808.
       532.50000  2.20877e-08  1.04673e+06
       532.60000  2.20877e-08  1.06175e+06
       532.70000  2.20877e-08  1.07567e+06
       532.80000  2.20877e-08  1.08804e+06
       532.90000  2.20877e-08  1.09930e+06
       533.00000  2.20877e-08  1.10924e+06
       533.10000  2.20877e-08  1.11786e+06
       533.20000  2.20877e-08  1.12515e+06
       533.30000  2.20877e-08  1.13111e+06
       533.40000  2.20877e-08  1.13597e+06
       533.50000  5.36800e-08  2.76881e+06
       533.60000  5.36800e-08  2.74734e+06
       533.70000  5.36800e-08  2.72855e+06
       533.80000  5.36655e-08  2.71172e+06
       533.90000  5.36655e-08  2.69884e+06
       534.00000  5.36655e-08  2.68810e+06
       534.10000  5.36655e-08  2.68113e+06
       534.20000  5.36655e-08  2.67630e+06
       534.30000  5.36655e-08  2.67469e+06
       534.40000  5.36655e-08  2.67576e+06
       534.50000  1.58784e-08      792811.
       534.60000  1.58784e-08      794875.
       534.70000  1.58784e-08      797733.
       534.80000  1.58784e-08      801385.
       534.90000  1.58784e-08      805990.
       535.00000  1.58784e-08      811230.
       535.10000  1.58784e-08      817581.
       535.20000  1.58784e-08      824568.
       535.30000  1.58784e-08      832507.
       535.40000  1.58784e-08      841240.
       535.50000  8.73747e-09      468154.
       535.60000  8.73747e-09      464047.
       535.70000  8.73747e-09      460290.
       535.80000  8.73747e-09      456795.
       535.90000  8.73747e-09      453650.
       536.00000  8.73747e-09      450766.
       536.10000  8.73747e-09      448145.
       536.20000  8.73747e-09      445961.
       536.30000  8.73997e-09      444078.
       536.40000  8.73997e-09      442417.
       536.50000  4.10221e-08  2.07038e+06
       536.60000  4.10221e-08  2.07161e+06
       536.70000  4.10221e-08  2.07244e+06
       536.80000  4.10221e-08  2.07408e+06
       536.90000  4.10221e-08  2.07531e+06
       537.00000  4.10221e-08  2.07695e+06
       537.10000  4.10221e-08  2.07859e+06
       537.20000  4.10221e-08  2.08023e+06
       537.30000  4.10221e-08  2.08228e+06
       537.40000  4.10221e-08  2.08433e+06
       537.50000  2.85101e-08  1.45002e+06
       537.60000  2.85101e-08  1.45173e+06
       537.70000  2.85101e-08  1.45344e+06
       537.80000  2.85101e-08  1.45515e+06
       537.90000  2.85101e-08  1.45687e+06
       538.00000  2.85101e-08  1.45886e+06
       538.10000  2.85101e-08  1.46086e+06
       538.20000  2.85101e-08  1.46285e+06
       538.30000  2.85101e-08  1.46513e+06
       538.40000  2.85101e-08  1.46741e+06
       538.50000  8.68094e-08  4.47502e+06
       538.60000  8.68094e-08  4.45766e+06
       538.70000  8.68094e-08  4.44117e+06
       538.80000  8.67496e-08  4.42163e+06
       538.90000  8.67496e-08  4.40514e+06
       539.00000  8.67496e-08  4.38866e+06
       539.10000  8.67496e-08  4.37305e+06
       539.20000  8.67496e-08  4.35743e+06
       539.30000  8.67496e-08  4.34182e+06
       539.40000  8.67496e-08  4.32620e+06
       539.50000  2.25477e-07  1.12040e+07
       539.60000  2.25477e-07  1.11205e+07
       539.70000  2.25477e-07  1.10461e+07
       539.80000  2.25477e-07  1.09830e+07
       539.90000  2.25477e-07  1.09311e+07
       540.00000  2.25477e-07  1.08883e+07
       540.10000  2.25477e-07  1.08567e+07
       540.20000  2.25477e-07  1.08364e+07
       540.30000  2.25477e-07  1.08274e+07
       540.40000  2.25477e-07  1.08274e+07
       540.50000  2.38263e-07  1.14533e+07
       540.60000  2.38263e-07  1.15772e+07
       540.70000  2.38263e-07  1.16916e+07
       540.80000  2.38263e-07  1.17940e+07
       540.90000  2.38263e-07  1.18846e+07
       541.00000  2.38263e-07  1.19632e+07
       541.10000  2.38263e-07  1.20347e+07
       541.20000  2.38263e-07  1.20919e+07
       541.30000  2.38258e-07  1.21392e+07
       541.40000  2.38258e-07  1.21750e+07
       541.50000  1.91427e-07  9.80298e+06
       541.60000  1.91427e-07  9.74938e+06
       541.70000  1.91427e-07  9.70344e+06
       541.80000  1.91427e-07  9.66133e+06
       541.90000  1.91427e-07  9.62495e+06
       542.00000  1.91427e-07  9.59433e+06
       542.10000  1.91427e-07  9.56944e+06
       542.20000  1.91427e-07  9.55030e+06
       542.30000  1.91427e-07  9.53881e+06
       542.40000  1.91427e-07  9.53116e+06
       542.50000  1.63363e-07  8.13222e+06
       542.60000  1.63363e-07  8.13549e+06
       542.70000  1.63363e-07  8.14366e+06
       542.80000  1.63363e-07  8.15673e+06
       542.90000  1.63363e-07  8.17633e+06
       543.00000  1.63363e-07  8.19920e+06
       543.10000  1.63363e-07  8.22697e+06
       543.20000  1.63363e-07  8.25964e+06
       543.30000  1.63363e-07  8.29722e+06
       543.40000  1.63363e-07  8.34133e+06
       543.50000  2.42893e-07  1.24725e+07
       543.60000  2.42893e-07  1.24677e+07
       543.70000  2.42893e-07  1.24652e+07
       543.80000  2.42957e-07  1.24661e+07
       543.90000  2.42957e-07  1.24661e+07
       544.00000  2.42957e-07  1.24686e+07
       544.10000  2.42957e-07  1.24710e+07
       544.20000  2.42957e-07  1.24759e+07
       544.30000  2.42957e-07  1.24807e+07
       544.40000  2.42957e-07  1.24880e+07
       544.50000  1.23516e-07  6.35365e+06
       544.60000  1.23516e-07  6.36970e+06
       544.70000  1.23516e-07  6.38329e+06
       544.80000  1.23516e-07  6.39564e+06
       544.90000  1.23516e-07  6.40676e+06
       545.00000  1.23516e-07  6.41541e+06
       545.10000  1.23516e-07  6.42282e+06
       545.20000  1.23516e-07  6.43023e+06
       545.30000  1.23516e-07  6.43517e+06
       545.40000  1.23516e-07  6.43764e+06
       545.50000  4.56674e-13      23.8110
       545.60000  4.56674e-13      23.8110
       545.70000  4.56674e-13      23.8064
       545.80000  4.56674e-13      23.7973
       545.90000  4.56674e-13      23.7836
       546.00000  4.56674e-13      23.7653
       546.10000  4.56674e-13      23.7379
       546.20000  4.56674e-13      23.7060
       546.30000  4.56125e-13      23.6409
       546.40000  4.56125e-13      23.5999
       546.50000  4.62919e-08  2.39005e+06
       546.60000  4.62919e-08  2.38033e+06
       546.70000  4.62919e-08  2.37153e+06
       546.80000  4.62919e-08  2.36366e+06
       546.90000  4.62919e-08  2.35672e+06
       547.00000  4.62919e-08  2.35070e+06
       547.10000  4.62919e-08  2.34607e+06
       547.20000  4.62919e-08  2.34191e+06
       547.30000  4.62919e-08  2.33913e+06
       547.40000  4.62919e-08  2.33681e+06
       547.50000  6.32603e-08  3.19211e+06
       547.60000  6.32603e-08  3.19781e+06
       547.70000  6.32603e-08  3.20350e+06
       547.80000  6.32603e-08  3.20919e+06
       547.90000  6.32603e-08  3.21489e+06
       548.00000  6.32603e-08  3.22058e+06
       548.10000  6.32603e-08  3.22627e+06
       548.20000  6.32603e-08  3.23260e+06
       548.30000  6.32603e-08  3.23829e+06
       548.40000  6.32603e-08  3.24399e+06
       548.50000  5.93216e-08  3.04794e+06
       548.60000  5.93216e-08  3.05328e+06
       548.70000  5.93216e-08  3.05922e+06
       548.80000  5.92204e-08  3.05992e+06
       548.90000  5.92204e-08  3.06525e+06
       549.00000  5.92204e-08  3.07117e+06
       549.10000  5.92204e-08  3.07709e+06
       549.20000  5.92204e-08  3.08301e+06
       549.30000  5.92204e-08  3.08894e+06
       549.40000  5.92204e-08  3.09486e+06
       549.50000  7.42325e-08  3.88681e+06
       549.60000  7.42325e-08  3.87642e+06
       549.70000  7.42325e-08  3.86751e+06
       549.80000  7.42325e-08  3.85935e+06
       549.90000  7.42325e-08  3.85192e+06
       550.00000  7.42325e-08  3.84524e+06
       550.10000  7.42325e-08  3.84005e+06
       550.20000  7.42325e-08  3.83485e+06
       550.30000  7.42325e-08  3.83114e+06
       550.40000  7.42325e-08  3.82817e+06
       550.50000  9.47660e-08  4.88424e+06
       550.60000  9.47660e-08  4.89087e+06
       550.70000  9.47660e-08  4.89751e+06
       550.80000  9.47660e-08  4.90319e+06
       550.90000  9.47660e-08  4.90793e+06
       551.00000  9.47660e-08  4.91172e+06
       551.10000  9.47660e-08  4.91457e+06
       551.20000  9.47660e-08  4.91646e+06
       551.30000  9.47092e-08  4.91446e+06
       551.40000  9.47092e-08  4.91446e+06
       551.50000  5.37528e-08  2.78869e+06
       551.60000  5.37528e-08  2.78117e+06
       551.70000  5.37528e-08  2.77526e+06
       551.80000  5.37528e-08  2.76934e+06
       551.90000  5.37528e-08  2.76504e+06
       552.00000  5.37528e-08  2.76128e+06
       552.10000  5.37528e-08  2.75859e+06
       552.20000  5.37528e-08  2.75644e+06
       552.30000  5.37528e-08  2.75537e+06
       552.40000  5.37528e-08  2.75537e+06
       552.50000  1.11287e-07  5.70682e+06
       552.60000  1.11287e-07  5.72128e+06
       552.70000  1.11287e-07  5.73575e+06
       552.80000  1.11287e-07  5.75022e+06
       552.90000  1.11287e-07  5.76246e+06
       553.00000  1.11287e-07  5.77581e+06
       553.10000  1.11287e-07  5.78694e+06
       553.20000  1.11287e-07  5.79807e+06
       553.30000  1.11287e-07  5.80920e+06
       553.40000  1.11287e-07  5.81922e+06
       553.50000  1.22056e-07  6.39209e+06
       553.60000  1.22056e-07  6.40186e+06
       553.70000  1.22056e-07  6.41162e+06
       553.80000  1.22039e-07  6.41927e+06
       553.90000  1.22039e-07  6.42660e+06
       554.00000  1.22039e-07  6.43270e+06
       554.10000  1.22039e-07  6.44002e+06
       554.20000  1.22039e-07  6.44490e+06
       554.30000  1.22039e-07  6.44978e+06
       554.40000  1.22039e-07  6.45467e+06
       554.50000  2.51372e-09      133026.
       554.60000  2.51372e-09      133277.
       554.70000  2.51372e-09      133478.
       554.80000  2.51372e-09      133629.
       554.90000  2.51372e-09      133705.
       555.00000  2.51372e-09      133755.
       555.10000  2.51372e-09      133755.
       555.20000  2.51372e-09      133680.
       555.30000  2.51372e-09      133579.
       555.40000  2.51372e-09      133403.
       555.50000  1.66962e-07  8.84563e+06
       555.60000  1.66962e-07  8.79053e+06
       555.70000  1.66962e-07  8.74044e+06
       555.80000  1.66962e-07  8.69536e+06
       555.90000  1.66962e-07  8.65362e+06
       556.00000  1.66962e-07  8.61689e+06
       556.10000  1.66962e-07  8.58684e+06
       556.20000  1.66962e-07  8.55845e+06
       556.30000  1.67055e-07  8.54151e+06
       556.40000  1.67055e-07  8.52480e+06
       556.50000  1.31081e-07  6.67857e+06
       556.60000  1.31081e-07  6.67201e+06
       556.70000  1.31081e-07  6.66939e+06
       556.80000  1.31081e-07  6.67070e+06
       556.90000  1.31081e-07  6.67594e+06
       557.00000  1.31081e-07  6.68512e+06
       557.10000  1.31081e-07  6.69692e+06
       557.20000  1.31081e-07  6.71265e+06
       557.30000  1.31081e-07  6.73231e+06
       557.40000  1.31081e-07  6.75590e+06
       557.50000  9.17838e-08  4.74889e+06
       557.60000  9.17838e-08  4.72595e+06
       557.70000  9.17838e-08  4.70392e+06
       557.80000  9.17838e-08  4.68464e+06
       557.90000  9.17838e-08  4.66720e+06
       558.00000  9.17838e-08  4.65160e+06
       558.10000  9.17838e-08  4.63875e+06
       558.20000  9.17838e-08  4.62682e+06
       558.30000  9.17838e-08  4.61764e+06
       558.40000  9.17838e-08  4.61122e+06
       558.50000  2.28802e-07  1.14813e+07
       558.60000  2.28802e-07  1.14927e+07
       558.70000  2.28802e-07  1.15042e+07
       558.80000  2.28603e-07  1.15079e+07
       558.90000  2.28603e-07  1.15216e+07
       559.00000  2.28603e-07  1.15376e+07
       559.10000  2.28603e-07  1.15536e+07
       559.20000  2.28603e-07  1.15719e+07
       559.30000  2.28603e-07  1.15879e+07
       559.40000  2.28603e-07  1.16085e+07
       559.50000  2.35290e-07  1.19668e+07
       559.60000  2.35290e-07  1.19880e+07
       559.70000  2.35290e-07  1.20092e+07
       559.80000  2.35290e-07  1.20327e+07
       559.90000  2.35290e-07  1.20563e+07
       560.00000  2.35290e-07  1.20821e+07
       560.10000  2.35290e-07  1.21080e+07
       560.20000  2.35290e-07  1.21339e+07
       560.30000  2.35290e-07  1.21621e+07
       560.40000  2.35290e-07  1.21904e+07
       560.50000  1.88839e-07  9.80832e+06
       560.60000  1.88839e-07  9.78944e+06
       560.70000  1.88839e-07  9.77244e+06
       560.80000  1.88839e-07  9.75734e+06
       560.90000  1.88839e-07  9.74600e+06
       561.00000  1.88839e-07  9.73656e+06
       561.10000  1.88839e-07  9.72901e+06
       561.20000  1.88839e-07  9.72334e+06
       561.30000  1.88950e-07  9.72712e+06
       561.40000  1.88950e-07  9.72712e+06
       561.50000  3.93879e-07  2.02848e+07
       561.60000  3.93879e-07  2.03242e+07
       561.70000  3.93879e-07  2.03596e+07
       561.80000  3.93879e-07  2.03990e+07
       561.90000  3.93879e-07  2.04345e+07
       562.00000  3.93879e-07  2.04660e+07
       562.10000  3.93879e-07  2.04975e+07
       562.20000  3.93879e-07  2.05290e+07
       562.30000  3.93879e-07  2.05566e+07
       562.40000  3.93879e-07  2.05841e+07
       562.50000  3.45101e-07  1.80557e+07
       562.60000  3.45101e-07  1.80764e+07
       562.70000  3.45101e-07  1.80971e+07
       562.80000  3.45101e-07  1.81144e+07
       562.90000  3.45101e-07  1.81282e+07
       563.00000  3.45101e-07  1.81454e+07
       563.10000  3.45101e-07  1.81592e+07
       563.20000  3.45101e-07  1.81696e+07
       563.30000  3.45101e-07  1.81799e+07
       563.40000  3.45101e-07  1.81868e+07
       563.50000  3.82749e-07  2.01824e+07
       563.60000  3.82749e-07  2.02015e+07
       563.70000  3.82749e-07  2.02168e+07
       563.80000  3.82448e-07  2.02085e+07
       563.90000  3.82448e-07  2.02124e+07
       564.00000  3.82448e-07  2.02124e+07
       564.10000  3.82448e-07  2.02047e+07
       564.20000  3.82448e-07  2.01932e+07
       564.30000  3.82448e-07  2.01741e+07
       564.40000  3.82448e-07  2.01512e+07
       564.50000  5.05790e-07  2.66147e+07
       564.60000  5.05790e-07  2.64832e+07
       564.70000  5.05790e-07  2.63618e+07
       564.80000  5.05790e-07  2.62556e+07
       564.90000  5.05790e-07  2.61595e+07
       565.00000  5.05790e-07  2.60786e+07
       565.10000  5.05790e-07  2.60077e+07
       565.20000  5.05790e-07  2.59521e+07
       565.30000  5.05790e-07  2.59066e+07
       565.40000  5.05790e-07  2.58762e+07
       565.50000  6.56077e-07  3.35387e+07
       565.60000  6.56077e-07  3.35321e+07
       565.70000  6.56077e-07  3.35387e+07
       565.80000  6.56077e-07  3.35583e+07
       565.90000  6.56077e-07  3.35977e+07
       566.00000  6.56077e-07  3.36568e+07
       566.10000  6.56077e-07  3.37289e+07
       566.20000  6.56077e-07  3.38142e+07
       566.30000  6.55291e-07  3.38785e+07
       566.40000  6.55291e-07  3.40030e+07
       566.50000  6.07268e-07  3.16387e+07
       566.60000  6.07268e-07  3.18451e+07
       566.70000  6.07268e-07  3.20334e+07
       566.80000  6.07268e-07  3.21973e+07
       566.90000  6.07268e-07  3.23431e+07
       567.00000  6.07268e-07  3.24585e+07
       567.10000  6.07268e-07  3.25556e+07
       567.20000  6.07268e-07  3.26224e+07
       567.30000  6.07268e-07  3.26710e+07
       567.40000  6.07268e-07  3.26953e+07
       567.50000  8.77993e-07  4.72711e+07
       567.60000  8.77993e-07  4.69463e+07
       567.70000  8.77993e-07  4.66478e+07
       567.80000  8.77993e-07  4.63844e+07
       567.90000  8.77993e-07  4.61473e+07
       568.00000  8.77993e-07  4.59541e+07
       568.10000  8.77993e-07  4.57786e+07
       568.20000  8.77993e-07  4.56469e+07
       568.30000  8.77993e-07  4.55415e+07
       568.40000  8.77993e-07  4.54625e+07
       568.50000  9.54800e-07  4.94013e+07
       568.60000  9.54800e-07  4.93822e+07
       568.70000  9.54800e-07  4.94109e+07
       568.80000  9.53969e-07  4.94251e+07
       568.90000  9.53969e-07  4.95205e+07
       569.00000  9.53969e-07  4.96445e+07
       569.10000  9.53969e-07  4.98067e+07
       569.20000  9.53969e-07  5.00070e+07
       569.30000  9.53969e-07  5.02360e+07
       569.40000  9.53969e-07  5.05031e+07
       569.50000  1.07557e-06  5.72847e+07
       569.60000  1.07557e-06  5.68114e+07
       569.70000  1.07557e-06  5.63812e+07
       569.80000  1.07557e-06  5.60048e+07
       569.90000  1.07557e-06  5.56606e+07
       570.00000  1.07557e-06  5.53702e+07
       570.10000  1.07557e-06  5.51228e+07
       570.20000  1.07557e-06  5.49184e+07
       570.30000  1.07557e-06  5.47571e+07
       570.40000  1.07557e-06  5.46495e+07
       570.50000  1.29757e-06  6.58385e+07
       570.60000  1.29757e-06  6.60331e+07
       570.70000  1.29757e-06  6.62277e+07
       570.80000  1.29757e-06  6.64224e+07
       570.90000  1.29757e-06  6.66300e+07
       571.00000  1.29757e-06  6.68376e+07
       571.10000  1.29757e-06  6.70452e+07
       571.20000  1.29757e-06  6.72658e+07
       571.30000  1.29767e-06  6.75046e+07
       571.40000  1.29767e-06  6.77382e+07
       571.50000  1.36576e-06  7.15384e+07
       571.60000  1.36576e-06  7.17979e+07
       571.70000  1.36576e-06  7.20574e+07
       571.80000  1.36576e-06  7.23305e+07
       571.90000  1.36576e-06  7.26037e+07
       572.00000  1.36576e-06  7.28905e+07
       572.10000  1.36576e-06  7.31773e+07
       572.20000  1.36576e-06  7.34641e+07
       572.30000  1.36576e-06  7.37645e+07
       572.40000  1.36576e-06  7.40650e+07
       572.50000  1.37371e-06  7.48123e+07
       572.60000  1.37371e-06  7.47573e+07
       572.70000  1.37371e-06  7.46886e+07
       572.80000  1.37371e-06  7.46337e+07
       572.90000  1.37371e-06  7.45787e+07
       573.00000  1.37371e-06  7.45238e+07
       573.10000  1.37371e-06  7.44826e+07
       573.20000  1.37371e-06  7.44276e+07
       573.30000  1.37371e-06  7.43864e+07
       573.40000  1.37371e-06  7.43452e+07
       573.50000  2.74972e-06  1.48733e+08
       573.60000  2.74972e-06  1.48788e+08
       573.70000  2.74972e-06  1.48843e+08
       573.80000  2.75279e-06  1.49009e+08
       573.90000  2.75279e-06  1.49009e+08
       574.00000  2.75279e-06  1.48954e+08
       574.10000  2.75279e-06  1.48899e+08
       574.20000  2.75279e-06  1.48816e+08
       574.30000  2.75279e-06  1.48733e+08
       574.40000  2.75279e-06  1.48596e+08
       574.50000  2.76415e-06  1.49071e+08
       574.60000  2.76415e-06  1.48601e+08
       574.70000  2.76415e-06  1.48186e+08
       574.80000  2.76415e-06  1.47799e+08
       574.90000  2.76415e-06  1.47468e+08
       575.00000  2.76415e-06  1.47191e+08
       575.10000  2.76415e-06  1.46942e+08
       575.20000  2.76415e-06  1.46721e+08
       575.30000  2.76415e-06  1.46555e+08
       575.40000  2.76415e-06  1.46445e+08
       575.50000  4.17023e-06  2.20814e+08
       575.60000  4.17023e-06  2.21064e+08
       575.70000  4.17023e-06  2.21314e+08
       575.80000  4.17023e-06  2.21564e+08
       575.90000  4.17023e-06  2.21815e+08
       576.00000  4.17023e-06  2.22065e+08
       576.10000  4.17023e-06  2.22273e+08
       576.20000  4.17023e-06  2.22523e+08
       576.30000  4.16901e-06  2.22667e+08
       576.40000  4.16901e-06  2.22875e+08
       576.50000  5.56952e-06  2.98025e+08
       576.60000  5.56952e-06  2.98304e+08
       576.70000  5.56952e-06  2.98527e+08
       576.80000  5.56952e-06  2.98805e+08
       576.90000  5.56952e-06  2.99028e+08
       577.00000  5.56952e-06  2.99251e+08
       577.10000  5.56952e-06  2.99473e+08
       577.20000  5.56952e-06  2.99696e+08
       577.30000  5.56952e-06  2.99919e+08
       577.40000  5.56952e-06  3.00142e+08
       577.50000  5.58700e-06  3.01251e+08
       577.60000  5.58700e-06  2.99240e+08
       577.70000  5.58700e-06  2.97396e+08
       577.80000  5.58700e-06  2.95776e+08
       577.90000  5.58700e-06  2.94323e+08
       578.00000  5.58700e-06  2.93094e+08
       578.10000  5.58700e-06  2.92032e+08
       578.20000  5.58700e-06  2.91194e+08
       578.30000  5.58700e-06  2.90524e+08
       578.40000  5.58700e-06  2.90021e+08
       578.50000  8.39301e-06  4.35262e+08
       578.60000  8.39301e-06  4.36856e+08
       578.70000  8.39301e-06  4.38283e+08
       578.80000  8.38239e-06  4.39153e+08
       578.90000  8.38239e-06  4.40411e+08
       579.00000  8.38239e-06  4.41668e+08
       579.10000  8.38239e-06  4.42758e+08
       579.20000  8.38239e-06  4.43848e+08
       579.30000  8.38239e-06  4.44770e+08
       579.40000  8.38239e-06  4.45692e+08
       579.50000  1.26337e-05  6.72873e+08
       579.60000  1.26337e-05  6.74010e+08
       579.70000  1.26337e-05  6.74895e+08
       579.80000  1.26337e-05  6.75653e+08
       579.90000  1.26337e-05  6.76411e+08
       580.00000  1.26337e-05  6.76916e+08
       580.10000  1.26337e-05  6.77295e+08
       580.20000  1.26337e-05  6.77674e+08
       580.30000  1.26337e-05  6.77800e+08
       580.40000  1.26337e-05  6.77800e+08
       580.50000  1.40813e-05  7.55463e+08
       580.60000  1.40813e-05  7.56026e+08
       580.70000  1.40813e-05  7.56730e+08
       580.80000  1.40813e-05  7.57434e+08
       580.90000  1.40813e-05  7.58139e+08
       581.00000  1.40813e-05  7.58843e+08
       581.10000  1.40813e-05  7.59688e+08
       581.20000  1.40813e-05  7.60392e+08
       581.30000  1.40642e-05  7.60311e+08
       581.40000  1.40642e-05  7.61155e+08
       581.50000  2.11418e-05  1.14546e+09
       581.60000  2.11418e-05  1.14779e+09
       581.70000  2.11418e-05  1.15011e+09
       581.80000  2.11418e-05  1.15202e+09
       581.90000  2.11418e-05  1.15371e+09
       582.00000  2.11418e-05  1.15540e+09
       582.10000  2.11418e-05  1.15667e+09
       582.20000  2.11418e-05  1.15772e+09
       582.30000  2.11418e-05  1.15857e+09
       582.40000  2.11418e-05  1.15920e+09
       582.50000  2.81856e-05  1.54598e+09
       582.60000  2.81856e-05  1.54626e+09
       582.70000  2.81856e-05  1.54626e+09
       582.80000  2.81856e-05  1.54598e+09
       582.90000  2.81856e-05  1.54542e+09
       583.00000  2.81856e-05  1.54457e+09
       583.10000  2.81856e-05  1.54344e+09
       583.20000  2.81856e-05  1.54175e+09
       583.30000  2.81856e-05  1.54006e+09
       583.40000  2.81856e-05  1.53781e+09
       583.50000  3.95867e-05  2.15668e+09
       583.60000  3.95867e-05  2.16143e+09
       583.70000  3.95867e-05  2.16539e+09
       583.80000  3.95012e-05  2.16388e+09
       583.90000  3.95012e-05  2.16625e+09
       584.00000  3.95012e-05  2.16743e+09
       584.10000  3.95012e-05  2.16743e+09
       584.20000  3.95012e-05  2.16664e+09
       584.30000  3.95012e-05  2.16506e+09
       584.40000  3.95012e-05  2.16269e+09
       584.50000  5.51048e-05  3.01203e+09
       584.60000  5.51048e-05  2.99109e+09
       584.70000  5.51048e-05  2.97235e+09
       584.80000  5.51048e-05  2.95527e+09
       584.90000  5.51048e-05  2.94039e+09
       585.00000  5.51048e-05  2.92717e+09
       585.10000  5.51048e-05  2.91614e+09
       585.20000  5.51048e-05  2.90733e+09
       585.30000  5.51048e-05  2.90016e+09
       585.40000  5.51048e-05  2.89520e+09
       585.50000  8.34913e-05  4.38246e+09
       585.60000  8.34913e-05  4.38079e+09
       585.70000  8.34913e-05  4.38246e+09
       585.80000  8.34913e-05  4.38747e+09
       585.90000  8.34913e-05  4.39498e+09
       586.00000  8.34913e-05  4.40584e+09
       586.10000  8.34913e-05  4.42003e+09
       586.20000  8.34913e-05  4.43673e+09
       586.30000  8.34035e-05  4.45208e+09
       586.40000  8.34035e-05  4.47460e+09
       586.50000  0.000126201  6.80980e+09
       586.60000  0.000126201  6.83757e+09
       586.70000  0.000126201  6.86028e+09
       586.80000  0.000126201  6.87921e+09
       586.90000  0.000126201  6.89436e+09
       587.00000  0.000126201  6.90319e+09
       587.10000  0.000126201  6.90950e+09
       587.20000  0.000126201  6.91076e+09
       587.30000  0.000126201  6.90824e+09
       587.40000  0.000126201  6.90067e+09
       587.50000  0.000195624  1.06791e+10
       587.60000  0.000195624  1.06341e+10
       587.70000  0.000195624  1.05872e+10
       587.80000  0.000195624  1.05382e+10
       587.90000  0.000195624  1.04874e+10
       588.00000  0.000195624  1.04326e+10
       588.10000  0.000195624  1.03778e+10
       588.20000  0.000195624  1.03191e+10
       588.30000  0.000195624  1.02585e+10
       588.40000  0.000195624  1.01959e+10
       588.50000  0.000315653  1.63445e+10
       588.60000  0.000315653  1.62340e+10
       588.70000  0.000315653  1.61235e+10
       588.80000  0.000315079  1.59776e+10
       588.90000  0.000315079  1.58548e+10
       589.00000  0.000315079  1.57319e+10
       589.10000  0.000315079  1.56027e+10
       589.20000  0.000315079  1.54735e+10
       589.30000  0.000315079  1.53349e+10
       589.40000  0.000315079  1.51962e+10
       589.50000  0.000523880  2.50310e+10
       589.60000  0.000523880  2.55077e+10
       589.70000  0.000523880  2.59478e+10
       589.80000  0.000523880  2.63512e+10
       589.90000  0.000523880  2.67231e+10
       590.00000  0.000523880  2.70532e+10
       590.10000  0.000523880  2.73570e+10
       590.20000  0.000523880  2.76190e+10
       590.30000  0.000523880  2.78495e+10
       590.40000  0.000523880  2.80433e+10
       590.50000  0.000908064  4.88811e+10
       590.60000  0.000908064  4.87631e+10
       590.70000  0.000908064  4.86541e+10
       590.80000  0.000908064  4.85633e+10
       590.90000  0.000908064  4.84816e+10
       591.00000  0.000908064  4.84089e+10
       591.10000  0.000908064  4.83544e+10
       591.20000  0.000908064  4.83090e+10
       591.30000  0.000907958  4.82761e+10
       591.40000  0.000907958  4.82579e+10
       591.50000   0.00163017  8.66273e+10
       591.60000   0.00163017  8.66436e+10
       591.70000   0.00163017  8.66925e+10
       591.80000   0.00163017  8.67414e+10
       591.90000   0.00163017  8.68229e+10
       592.00000   0.00163017  8.69370e+10
       592.10000   0.00163017  8.70674e+10
       592.20000   0.00163017  8.72141e+10
       592.30000   0.00163017  8.73935e+10
       592.40000   0.00163017  8.75891e+10
       592.50000   0.00299574  1.61351e+11
       592.60000   0.00299574  1.61321e+11
       592.70000   0.00299574  1.61261e+11
       592.80000   0.00299574  1.61231e+11
       592.90000   0.00299574  1.61141e+11
       593.00000   0.00299574  1.61081e+11
       593.10000   0.00299574  1.60991e+11
       593.20000   0.00299574  1.60901e+11
       593.30000   0.00299574  1.60781e+11
       593.40000   0.00299574  1.60691e+11
       593.50000   0.00566775  3.03735e+11
       593.60000   0.00566775  3.03168e+11
       593.70000   0.00566775  3.02658e+11
       593.80000   0.00566631  3.02071e+11
       593.90000   0.00566631  3.01674e+11
       594.00000   0.00566631  3.01334e+11
       594.10000   0.00566631  3.00994e+11
       594.20000   0.00566631  3.00711e+11
       594.30000   0.00566631  3.00541e+11
       594.40000   0.00566631  3.00371e+11
       594.50000    0.0111128  5.88980e+11
       594.60000    0.0111128  5.88868e+11
       594.70000    0.0111128  5.88868e+11
       594.80000    0.0111128  5.88980e+11
       594.90000    0.0111128  5.89202e+11
       595.00000    0.0111128  5.89646e+11
       595.10000    0.0111128  5.90091e+11
       595.20000    0.0111128  5.90646e+11
       595.30000    0.0111128  5.91313e+11
       595.40000    0.0111128  5.92091e+11
       595.50000    0.0211041  1.12590e+12
       595.60000    0.0211041  1.12907e+12
       595.70000    0.0211041  1.13181e+12
       595.80000    0.0211041  1.13413e+12
       595.90000    0.0211041  1.13624e+12
       596.00000    0.0211041  1.13793e+12
       596.10000    0.0211041  1.13962e+12
       596.20000    0.0211041  1.14068e+12
       596.30000    0.0211347  1.14318e+12
       596.40000    0.0211347  1.14381e+12
       596.50000    0.0373618  2.02239e+12
       596.60000    0.0373618  2.02015e+12
       596.70000    0.0373618  2.01753e+12
       596.80000    0.0373618  2.01492e+12
       596.90000    0.0373618  2.01230e+12
       597.00000    0.0373618  2.01006e+12
       597.10000    0.0373618  2.00745e+12
       597.20000    0.0373618  2.00521e+12
       597.30000    0.0373618  2.00259e+12
       597.40000    0.0373618  2.00035e+12
       597.50000    0.0595002  3.18148e+12
       597.60000    0.0595002  3.17493e+12
       597.70000    0.0595002  3.16898e+12
       597.80000    0.0595002  3.16363e+12
       597.90000    0.0595002  3.15887e+12
       598.00000    0.0595002  3.15470e+12
       598.10000    0.0595002  3.15173e+12
       598.20000    0.0595002  3.14935e+12
       598.30000    0.0595002  3.14756e+12
       598.40000    0.0595002  3.14637e+12
       598.50000    0.0834125  4.41002e+12
       598.60000    0.0834125  4.42003e+12
       598.70000    0.0834125  4.42920e+12
       598.80000    0.0834955  4.44113e+12
       598.90000    0.0834955  4.44781e+12
       599.00000    0.0834955  4.45365e+12
       599.10000    0.0834955  4.45782e+12
       599.20000    0.0834955  4.46117e+12
       599.30000    0.0834955  4.46367e+12
       599.40000    0.0834955  4.46450e+12
       599.50000     0.102789  5.49610e+12
       599.60000     0.102789  5.49507e+12
       599.70000     0.102789  5.49199e+12
       599.80000     0.102789  5.48788e+12
       599.90000     0.102789  5.48171e+12
       600.00000     0.102789  5.47452e+12
       600.10000     0.102789  5.46629e+12
       600.20000     0.102789  5.45704e+12
       600.30000     0.102789  5.44573e+12
       600.40000     0.102789  5.43237e+12
       600.50000     0.114668  6.04530e+12
       600.60000     0.114668  6.05333e+12
       600.70000     0.114668  6.06021e+12
       600.80000     0.114668  6.06709e+12
       600.90000     0.114668  6.07167e+12
       601.00000     0.114668  6.07511e+12
       601.10000     0.114668  6.07626e+12
       601.20000     0.114668  6.07741e+12
       601.30000     0.114653  6.07661e+12
       601.40000     0.114653  6.07432e+12
       601.50000     0.119953  6.35272e+12
       601.60000     0.119953  6.32513e+12
       601.70000     0.119953  6.30234e+12
       601.80000     0.119953  6.28195e+12
       601.90000     0.119953  6.26635e+12
       602.00000     0.119953  6.25436e+12
       602.10000     0.119953  6.24476e+12
       602.20000     0.119953  6.23996e+12
       602.30000     0.119953  6.23876e+12
       602.40000     0.119953  6.24116e+12
       602.50000     0.123026  6.40598e+12
       602.60000     0.123026  6.41582e+12
       602.70000     0.123026  6.42936e+12
       602.80000     0.123026  6.44658e+12
       602.90000     0.123026  6.46750e+12
       603.00000     0.123026  6.49210e+12
       603.10000     0.123026  6.52040e+12
       603.20000     0.123026  6.55238e+12
       603.30000     0.123026  6.58806e+12
       603.40000     0.123026  6.62743e+12
       603.50000     0.124218  6.73509e+12
       603.60000     0.124218  6.73261e+12
       603.70000     0.124218  6.73012e+12
       603.80000     0.124165  6.72478e+12
       603.90000     0.124165  6.72105e+12
       604.00000     0.124165  6.71857e+12
       604.10000     0.124165  6.71485e+12
       604.20000     0.124165  6.71236e+12
       604.30000     0.124165  6.70864e+12
       604.40000     0.124165  6.70615e+12
       604.50000     0.123461  6.66443e+12
       604.60000     0.123461  6.65949e+12
       604.70000     0.123461  6.65455e+12
       604.80000     0.123461  6.64961e+12
       604.90000     0.123461  6.64467e+12
       605.00000     0.123461  6.64097e+12
       605.10000     0.123461  6.63727e+12
       605.20000     0.123461  6.63480e+12
       605.30000     0.123461  6.63109e+12
       605.40000     0.123461  6.62862e+12
       605.50000     0.115007  6.17241e+12
       605.60000     0.115007  6.17126e+12
       605.70000     0.115007  6.16896e+12
       605.80000     0.115007  6.16781e+12
       605.90000     0.115007  6.16781e+12
       606.00000     0.115007  6.16666e+12
       606.10000     0.115007  6.16666e+12
       606.20000     0.115007  6.16666e+12
       606.30000     0.115010  6.16683e+12
       606.40000     0.115010  6.16798e+12
       606.50000    0.0942237  5.05416e+12
       606.60000    0.0942237  5.05605e+12
       606.70000    0.0942237  5.05699e+12
       606.80000    0.0942237  5.05887e+12
       606.90000    0.0942237  5.05887e+12
       607.00000    0.0942237  5.05982e+12
       607.10000    0.0942237  5.05982e+12
       607.20000    0.0942237  5.05982e+12
       607.30000    0.0942237  5.05887e+12
       607.40000    0.0942237  5.05793e+12
       607.50000    0.0639829  3.43396e+12
       607.60000    0.0639829  3.43013e+12
       607.70000    0.0639829  3.42693e+12
       607.80000    0.0639829  3.42437e+12
       607.90000    0.0639829  3.42181e+12
       608.00000    0.0639829  3.41925e+12
       608.10000    0.0639829  3.41733e+12
       608.20000    0.0639829  3.41541e+12
       608.30000    0.0639829  3.41413e+12
       608.40000    0.0639829  3.41285e+12
       608.50000    0.0352525  1.88002e+12
       608.60000    0.0352525  1.87966e+12
       608.70000    0.0352525  1.87931e+12
       608.80000    0.0352449  1.87891e+12
       608.90000    0.0352449  1.87926e+12
       609.00000    0.0352449  1.87961e+12
       609.10000    0.0352449  1.87996e+12
       609.20000    0.0352449  1.88067e+12
       609.30000    0.0352449  1.88137e+12
       609.40000    0.0352449  1.88243e+12
       609.50000    0.0159091  8.50339e+11
       609.60000    0.0159091  8.46521e+11
       609.70000    0.0159091  8.43180e+11
       609.80000    0.0159091  8.40316e+11
       609.90000    0.0159091  8.37930e+11
       610.00000    0.0159091  8.35862e+11
       610.10000    0.0159091  8.34112e+11
       610.20000    0.0159091  8.32839e+11
       610.30000    0.0159091  8.32044e+11
       610.40000    0.0159091  8.31726e+11
       610.50000   0.00661646  3.45842e+11
       610.60000   0.00661646  3.47563e+11
       610.70000   0.00661646  3.49084e+11
       610.80000   0.00661646  3.50474e+11
       610.90000   0.00661646  3.51665e+11
       611.00000   0.00661646  3.52657e+11
       611.10000   0.00661646  3.53517e+11
       611.20000   0.00661646  3.54179e+11
       611.30000   0.00661648  3.54709e+11
       611.40000   0.00661648  3.55040e+11
       611.50000   0.00299171  1.60595e+11
       611.60000   0.00299171  1.60595e+11
       611.70000   0.00299171  1.60505e+11
       611.80000   0.00299171  1.60356e+11
       611.90000   0.00299171  1.60116e+11
       612.00000   0.00299171  1.59817e+11
       612.10000   0.00299171  1.59428e+11
       612.20000   0.00299171  1.58950e+11
       612.30000   0.00299171  1.58411e+11
       612.40000   0.00299171  1.57783e+11
       612.50000   0.00154750  8.12591e+10
       612.60000   0.00154750  8.10579e+10
       612.70000   0.00154750  8.08722e+10
       612.80000   0.00154750  8.07175e+10
       612.90000   0.00154750  8.05937e+10
       613.00000   0.00154750  8.04853e+10
       613.10000   0.00154750  8.04080e+10
       613.20000   0.00154750  8.03461e+10
       613.30000   0.00154750  8.03151e+10
       613.40000   0.00154750  8.03151e+10
       613.50000  0.000892276  4.63181e+10
       613.60000  0.000892276  4.64519e+10
       613.70000  0.000892276  4.65679e+10
       613.80000  0.000891301  4.66240e+10
       613.90000  0.000891301  4.67309e+10
       614.00000  0.000891301  4.68290e+10
       614.10000  0.000891301  4.69092e+10
       614.20000  0.000891301  4.69894e+10
       614.30000  0.000891301  4.70607e+10
       614.40000  0.000891301  4.71231e+10
       614.50000  0.000580501  3.07259e+10
       614.60000  0.000580501  3.07550e+10
       614.70000  0.000580501  3.07782e+10
       614.80000  0.000580501  3.07956e+10
       614.90000  0.000580501  3.08072e+10
       615.00000  0.000580501  3.08130e+10
       615.10000  0.000580501  3.08188e+10
       615.20000  0.000580501  3.08130e+10
       615.30000  0.000580501  3.08072e+10
       615.40000  0.000580501  3.07956e+10
       615.50000  0.000429849  2.27863e+10
       615.60000  0.000429849  2.25327e+10
       615.70000  0.000429849  2.23005e+10
       615.80000  0.000429849  2.20985e+10
       615.90000  0.000429849  2.19266e+10
       616.00000  0.000429849  2.17761e+10
       616.10000  0.000429849  2.16558e+10
       616.20000  0.000429849  2.15612e+10
       616.30000  0.000429910  2.14955e+10
       616.40000  0.000429910  2.14568e+10
       616.50000  0.000349355  1.74223e+10
       616.60000  0.000349355  1.75726e+10
       616.70000  0.000349355  1.77123e+10
       616.80000  0.000349355  1.78416e+10
       616.90000  0.000349355  1.79638e+10
       617.00000  0.000349355  1.80791e+10
       617.10000  0.000349355  1.81839e+10
       617.20000  0.000349355  1.82783e+10
       617.30000  0.000349355  1.83656e+10
       617.40000  0.000349355  1.84460e+10
       617.50000  0.000313645  1.66232e+10
       617.60000  0.000313645  1.66765e+10
       617.70000  0.000313645  1.67235e+10
       617.80000  0.000313645  1.67643e+10
       617.90000  0.000313645  1.67925e+10
       618.00000  0.000313645  1.68176e+10
       618.10000  0.000313645  1.68333e+10
       618.20000  0.000313645  1.68396e+10
       618.30000  0.000313645  1.68396e+10
       618.40000  0.000313645  1.68302e+10
       618.50000  0.000313321  1.67972e+10
       618.60000  0.000313321  1.67658e+10
       618.70000  0.000313321  1.67345e+10
       618.80000  0.000313006  1.66957e+10
       618.90000  0.000313006  1.66738e+10
       619.00000  0.000313006  1.66582e+10
