PDS_VERSION_ID         = PDS3
RECORD_TYPE            = STREAM
OBJECT                 = TEXT
  PUBLICATION_DATE     = 2014-04-25
  INTERCHANGE_FORMAT   = ASCII
  NOTE                 = "System transmission vs. wavelength."
END_OBJECT             = TEXT
END
    
The systrans directory contains the non-wavelength-integrated system 
transmission values (QE*optics*filter1*filter2) for each filter combination. 
The naming convention for these files is as follows:

<camera><filter 1><filter 2>_systrans.tab

where <camera> is "issna" or "isswa," and <filter 1> and <filter 2> represent
the filter names. For polarized filter combinations, values are given for the
parallel orientation of the filter (full transmission), with values for the 
perpendicular (blocking) orientation provided in files with subscript 
"_b_systrans.tab". 

Columns in systrans files are as follows:

 1st column: Wavelength (nm)  
 2nd column: Transmitted Flux
 3rd column: Transmitted Flux * Solar Flux (phot per cm^2-s-angstrom at 1 AU)

The solar spectrum used for this calculation is provided in solarflux.tab.

\begindata
       600.00000  7.03738e-08  3.74811e+06
       600.10000  7.03738e-08  3.74248e+06
       600.20000  7.03738e-08  3.73615e+06
       600.30000  7.03738e-08  3.72841e+06
       600.40000  7.03738e-08  3.71926e+06
       600.50000  5.82457e-08  3.07071e+06
       600.60000  5.82457e-08  3.07479e+06
       600.70000  5.82457e-08  3.07828e+06
       600.80000  5.82457e-08  3.08178e+06
       600.90000  5.82457e-08  3.08411e+06
       601.00000  5.82457e-08  3.08586e+06
       601.10000  5.82457e-08  3.08644e+06
       601.20000  5.82457e-08  3.08702e+06
       601.30000  5.82159e-08  3.08544e+06
       601.40000  5.82159e-08  3.08428e+06
       601.50000  4.52929e-08  2.39871e+06
       601.60000  4.52929e-08  2.38830e+06
       601.70000  4.52929e-08  2.37969e+06
       601.80000  4.52929e-08  2.37199e+06
       601.90000  4.52929e-08  2.36610e+06
       602.00000  4.52929e-08  2.36157e+06
       602.10000  4.52929e-08  2.35795e+06
       602.20000  4.52929e-08  2.35614e+06
       602.30000  4.52929e-08  2.35569e+06
       602.40000  4.52929e-08  2.35659e+06
       602.50000  2.28687e-08  1.19077e+06
       602.60000  2.28687e-08  1.19260e+06
       602.70000  2.28687e-08  1.19512e+06
       602.80000  2.28687e-08  1.19832e+06
       602.90000  2.28687e-08  1.20221e+06
       603.00000  2.28687e-08  1.20678e+06
       603.10000  2.28687e-08  1.21204e+06
       603.20000  2.28687e-08  1.21799e+06
       603.30000  2.28687e-08  1.22462e+06
       603.40000  2.28687e-08  1.23194e+06
       603.50000  7.45903e-08  4.04429e+06
       603.60000  7.45903e-08  4.04280e+06
       603.70000  7.45903e-08  4.04130e+06
       603.80000  7.46286e-08  4.04189e+06
       603.90000  7.46286e-08  4.03965e+06
       604.00000  7.46286e-08  4.03815e+06
       604.10000  7.46286e-08  4.03592e+06
       604.20000  7.46286e-08  4.03442e+06
       604.30000  7.46286e-08  4.03218e+06
       604.40000  7.46286e-08  4.03069e+06
       604.50000  7.15149e-08  3.86038e+06
       604.60000  7.15149e-08  3.85752e+06
       604.70000  7.15149e-08  3.85465e+06
       604.80000  7.15149e-08  3.85179e+06
       604.90000  7.15149e-08  3.84893e+06
       605.00000  7.15149e-08  3.84679e+06
       605.10000  7.15149e-08  3.84464e+06
       605.20000  7.15149e-08  3.84321e+06
       605.30000  7.15149e-08  3.84107e+06
       605.40000  7.15149e-08  3.83964e+06
       605.50000  1.20093e-07  6.44541e+06
       605.60000  1.20093e-07  6.44421e+06
       605.70000  1.20093e-07  6.44180e+06
       605.80000  1.20093e-07  6.44060e+06
       605.90000  1.20093e-07  6.44060e+06
       606.00000  1.20093e-07  6.43940e+06
       606.10000  1.20093e-07  6.43940e+06
       606.20000  1.20093e-07  6.43940e+06
       606.30000  1.20224e-07  6.44641e+06
       606.40000  1.20224e-07  6.44761e+06
       606.50000  4.08945e-09      219358.
       606.60000  4.08945e-09      219440.
       606.70000  4.08945e-09      219481.
       606.80000  4.08945e-09      219563.
       606.90000  4.08945e-09      219563.
       607.00000  4.08945e-09      219603.
       607.10000  4.08945e-09      219603.
       607.20000  4.08945e-09      219603.
       607.30000  4.08945e-09      219563.
       607.40000  4.08945e-09      219522.
       607.50000  5.17394e-08  2.77685e+06
       607.60000  5.17394e-08  2.77375e+06
       607.70000  5.17394e-08  2.77116e+06
       607.80000  5.17394e-08  2.76909e+06
       607.90000  5.17394e-08  2.76702e+06
       608.00000  5.17394e-08  2.76495e+06
       608.10000  5.17394e-08  2.76340e+06
       608.20000  5.17394e-08  2.76185e+06
       608.30000  5.17394e-08  2.76082e+06
       608.40000  5.17394e-08  2.75978e+06
       608.50000  9.28803e-08  4.95331e+06
       608.60000  9.28803e-08  4.95238e+06
       608.70000  9.28803e-08  4.95145e+06
       608.80000  9.29212e-08  4.95363e+06
       608.90000  9.29212e-08  4.95456e+06
       609.00000  9.29212e-08  4.95549e+06
       609.10000  9.29212e-08  4.95642e+06
       609.20000  9.29212e-08  4.95827e+06
       609.30000  9.29212e-08  4.96013e+06
       609.40000  9.29212e-08  4.96292e+06
       609.50000  1.19390e-08      638141.
       609.60000  1.19390e-08      635275.
       609.70000  1.19390e-08      632768.
       609.80000  1.19390e-08      630619.
       609.90000  1.19390e-08      628828.
       610.00000  1.19390e-08      627276.
       610.10000  1.19390e-08      625963.
       610.20000  1.19390e-08      625008.
       610.30000  1.19390e-08      624411.
       610.40000  1.19390e-08      624172.
       610.50000  1.70571e-07  8.91575e+06
       610.60000  1.70571e-07  8.96010e+06
       610.70000  1.70571e-07  8.99933e+06
       610.80000  1.70571e-07  9.03515e+06
       610.90000  1.70571e-07  9.06586e+06
       611.00000  1.70571e-07  9.09144e+06
       611.10000  1.70571e-07  9.11362e+06
       611.20000  1.70571e-07  9.13067e+06
       611.30000  1.70638e-07  9.14788e+06
       611.40000  1.70638e-07  9.15642e+06
       611.50000  8.10274e-09      434955.
       611.60000  8.10274e-09      434955.
       611.70000  8.10274e-09      434712.
       611.80000  8.10274e-09      434307.
       611.90000  8.10274e-09      433659.
       612.00000  8.10274e-09      432849.
       612.10000  8.10274e-09      431795.
       612.20000  8.10274e-09      430499.
       612.30000  8.10274e-09      429040.
       612.40000  8.10274e-09      427339.
       612.50000  2.01551e-08  1.05835e+06
       612.60000  2.01551e-08  1.05573e+06
       612.70000  2.01551e-08  1.05331e+06
       612.80000  2.01551e-08  1.05129e+06
       612.90000  2.01551e-08  1.04968e+06
       613.00000  2.01551e-08  1.04827e+06
       613.10000  2.01551e-08  1.04726e+06
       613.20000  2.01551e-08  1.04645e+06
       613.30000  2.01551e-08  1.04605e+06
       613.40000  2.01551e-08  1.04605e+06
       613.50000  1.23843e-07  6.42867e+06
       613.60000  1.23843e-07  6.44725e+06
       613.70000  1.23843e-07  6.46335e+06
       613.80000  1.23817e-07  6.47684e+06
       613.90000  1.23817e-07  6.49170e+06
       614.00000  1.23817e-07  6.50532e+06
       614.10000  1.23817e-07  6.51647e+06
       614.20000  1.23817e-07  6.52761e+06
       614.30000  1.23817e-07  6.53752e+06
       614.40000  1.23817e-07  6.54618e+06
       614.50000  1.77259e-07  9.38234e+06
       614.60000  1.77259e-07  9.39121e+06
       614.70000  1.77259e-07  9.39830e+06
       614.80000  1.77259e-07  9.40362e+06
       614.90000  1.77259e-07  9.40716e+06
       615.00000  1.77259e-07  9.40893e+06
       615.10000  1.77259e-07  9.41070e+06
       615.20000  1.77259e-07  9.40893e+06
       615.30000  1.77259e-07  9.40716e+06
       615.40000  1.77259e-07  9.40362e+06
       615.50000  2.15934e-07  1.14466e+07
       615.60000  2.15934e-07  1.13192e+07
       615.70000  2.15934e-07  1.12026e+07
       615.80000  2.15934e-07  1.11012e+07
       615.90000  2.15934e-07  1.10148e+07
       616.00000  2.15934e-07  1.09392e+07
       616.10000  2.15934e-07  1.08787e+07
       616.20000  2.15934e-07  1.08312e+07
       616.30000  2.16271e-07  1.08135e+07
       616.40000  2.16271e-07  1.07941e+07
       616.50000  1.30412e-07  6.50367e+06
       616.60000  1.30412e-07  6.55975e+06
       616.70000  1.30412e-07  6.61191e+06
       616.80000  1.30412e-07  6.66016e+06
       616.90000  1.30412e-07  6.70581e+06
       617.00000  1.30412e-07  6.74884e+06
       617.10000  1.30412e-07  6.78797e+06
       617.20000  1.30412e-07  6.82318e+06
       617.30000  1.30412e-07  6.85578e+06
       617.40000  1.30412e-07  6.88578e+06
       617.50000  3.27107e-08  1.73367e+06
       617.60000  3.27107e-08  1.73923e+06
       617.70000  3.27107e-08  1.74413e+06
       617.80000  3.27107e-08  1.74839e+06
       617.90000  3.27107e-08  1.75133e+06
       618.00000  3.27107e-08  1.75395e+06
       618.10000  3.27107e-08  1.75558e+06
       618.20000  3.27107e-08  1.75624e+06
       618.30000  3.27107e-08  1.75624e+06
       618.40000  3.27107e-08  1.75526e+06
       618.50000  3.98318e-08  2.13539e+06
       618.60000  3.98318e-08  2.13140e+06
       618.70000  3.98318e-08  2.12742e+06
       618.80000  3.98722e-08  2.12678e+06
       618.90000  3.98722e-08  2.12399e+06
       619.00000  3.98722e-08  2.12200e+06
       619.10000  3.98722e-08  2.12040e+06
       619.20000  3.98722e-08  2.11961e+06
       619.30000  3.98722e-08  2.11921e+06
       619.40000  3.98722e-08  2.11921e+06
       619.50000  2.06236e-08  1.09656e+06
       619.60000  2.06236e-08  1.10048e+06
       619.70000  2.06236e-08  1.10398e+06
       619.80000  2.06236e-08  1.10707e+06
       619.90000  2.06236e-08  1.10976e+06
       620.00000  2.06236e-08  1.11182e+06
       620.10000  2.06236e-08  1.11347e+06
       620.20000  2.06236e-08  1.11471e+06
       620.30000  2.06236e-08  1.11553e+06
       620.40000  2.06236e-08  1.11574e+06
       620.50000  5.41360e-08  2.92876e+06
       620.60000  5.41360e-08  2.91685e+06
       620.70000  5.41360e-08  2.90548e+06
       620.80000  5.41360e-08  2.89574e+06
       620.90000  5.41360e-08  2.88708e+06
       621.00000  5.41360e-08  2.87950e+06
       621.10000  5.41360e-08  2.87300e+06
       621.20000  5.41360e-08  2.86813e+06
       621.30000  5.41549e-08  2.86479e+06
       621.40000  5.41549e-08  2.86154e+06
       621.50000  1.71837e-07  9.07472e+06
       621.60000  1.71837e-07  9.10565e+06
       621.70000  1.71837e-07  9.13315e+06
       621.80000  1.71837e-07  9.15548e+06
       621.90000  1.71837e-07  9.17611e+06
       622.00000  1.71837e-07  9.19157e+06
       622.10000  1.71837e-07  9.20360e+06
       622.20000  1.71837e-07  9.21047e+06
       622.30000  1.71837e-07  9.21563e+06
       622.40000  1.71837e-07  9.21563e+06
       622.50000  1.12913e-07  6.05326e+06
       622.60000  1.12913e-07  6.04874e+06
       622.70000  1.12913e-07  6.04197e+06
       622.80000  1.12913e-07  6.03293e+06
       622.90000  1.12913e-07  6.02051e+06
       623.00000  1.12913e-07  6.00696e+06
       623.10000  1.12913e-07  5.99003e+06
       623.20000  1.12913e-07  5.96970e+06
       623.30000  1.12913e-07  5.94825e+06
       623.40000  1.12913e-07  5.92341e+06
       623.50000  1.31835e-07  6.88576e+06
       623.60000  1.31835e-07  6.88444e+06
       623.70000  1.31835e-07  6.88444e+06
       623.80000  1.31773e-07  6.87853e+06
       623.90000  1.31773e-07  6.87722e+06
       624.00000  1.31773e-07  6.87458e+06
       624.10000  1.31773e-07  6.87063e+06
       624.20000  1.31773e-07  6.86667e+06
       624.30000  1.31773e-07  6.86272e+06
       624.40000  1.31773e-07  6.85745e+06
       624.50000  9.51638e-08  4.94852e+06
       624.60000  9.51638e-08  4.92949e+06
       624.70000  9.51638e-08  4.91426e+06
       624.80000  9.51638e-08  4.90094e+06
       624.90000  9.51638e-08  4.89047e+06
       625.00000  9.51638e-08  4.88286e+06
       625.10000  9.51638e-08  4.87810e+06
       625.20000  9.51638e-08  4.87524e+06
       625.30000  9.51638e-08  4.87619e+06
       625.40000  9.51638e-08  4.87905e+06
       625.50000  8.69556e-08  4.46343e+06
       625.60000  8.69556e-08  4.47039e+06
       625.70000  8.69556e-08  4.48082e+06
       625.80000  8.69556e-08  4.49299e+06
       625.90000  8.69556e-08  4.50778e+06
       626.00000  8.69556e-08  4.52517e+06
       626.10000  8.69556e-08  4.54517e+06
       626.20000  8.69556e-08  4.56691e+06
       626.30000  8.68555e-08  4.58684e+06
       626.40000  8.68555e-08  4.61376e+06
       626.50000  1.30508e-07  6.97563e+06
       626.60000  1.30508e-07  6.97694e+06
       626.70000  1.30508e-07  6.97824e+06
       626.80000  1.30508e-07  6.97955e+06
       626.90000  1.30508e-07  6.98085e+06
       627.00000  1.30508e-07  6.98216e+06
       627.10000  1.30508e-07  6.98346e+06
       627.20000  1.30508e-07  6.98346e+06
       627.30000  1.30508e-07  6.98477e+06
       627.40000  1.30508e-07  6.98607e+06
       627.50000  8.34864e-08  4.46986e+06
       627.60000  8.34864e-08  4.47320e+06
       627.70000  8.34864e-08  4.47571e+06
       627.80000  8.34864e-08  4.47738e+06
       627.90000  8.34864e-08  4.47905e+06
       628.00000  8.34864e-08  4.47988e+06
       628.10000  8.34864e-08  4.48072e+06
       628.20000  8.34864e-08  4.48072e+06
       628.30000  8.34864e-08  4.47988e+06
       628.40000  8.34864e-08  4.47905e+06
       628.50000  6.01589e-08  3.22632e+06
       628.60000  6.01589e-08  3.22452e+06
       628.70000  6.01589e-08  3.22271e+06
       628.80000  6.00241e-08  3.21309e+06
       628.90000  6.00241e-08  3.21009e+06
       629.00000  6.00241e-08  3.20709e+06
       629.10000  6.00241e-08  3.20349e+06
       629.20000  6.00241e-08  3.19988e+06
       629.30000  6.00241e-08  3.19568e+06
       629.40000  6.00241e-08  3.19088e+06
       629.50000  1.01191e-07  5.37124e+06
       629.60000  1.01191e-07  5.36011e+06
       629.70000  1.01191e-07  5.34898e+06
       629.80000  1.01191e-07  5.33886e+06
       629.90000  1.01191e-07  5.32975e+06
       630.00000  1.01191e-07  5.32064e+06
       630.10000  1.01191e-07  5.31154e+06
       630.20000  1.01191e-07  5.30445e+06
       630.30000  1.01191e-07  5.29636e+06
       630.40000  1.01191e-07  5.29029e+06
       630.50000  3.77141e-08  1.96943e+06
       630.60000  3.77141e-08  1.96717e+06
       630.70000  3.77141e-08  1.96528e+06
       630.80000  3.77141e-08  1.96377e+06
       630.90000  3.77141e-08  1.96226e+06
       631.00000  3.77141e-08  1.96113e+06
       631.10000  3.77141e-08  1.96226e+06
       631.20000  3.77141e-08  1.96340e+06
       631.30000  3.76117e-08  1.95957e+06
       631.40000  3.76117e-08  1.96070e+06
       631.50000  5.74128e-08  2.99465e+06
       631.60000  5.74128e-08  2.99638e+06
       631.70000  5.74128e-08  2.99810e+06
       631.80000  5.74128e-08  2.99925e+06
       631.90000  5.74128e-08  3.00097e+06
       632.00000  5.74128e-08  3.00269e+06
       632.10000  5.74128e-08  3.00441e+06
       632.20000  5.74128e-08  3.00556e+06
       632.30000  5.74128e-08  3.00728e+06
       632.40000  5.74128e-08  3.00901e+06
       632.50000  5.45988e-08  2.86261e+06
       632.60000  5.45988e-08  2.86370e+06
       632.70000  5.45988e-08  2.86534e+06
       632.80000  5.45988e-08  2.86643e+06
       632.90000  5.45988e-08  2.86753e+06
       633.00000  5.45988e-08  2.86916e+06
       633.10000  5.45988e-08  2.87026e+06
       633.20000  5.45988e-08  2.87135e+06
       633.30000  5.45988e-08  2.87244e+06
       633.40000  5.45988e-08  2.87353e+06
       633.50000  9.56026e-08  5.03348e+06
       633.60000  9.56026e-08  5.03539e+06
       633.70000  9.56026e-08  5.03730e+06
       633.80000  9.53467e-08  5.02477e+06
       633.90000  9.53467e-08  5.02668e+06
       634.00000  9.53467e-08  5.02859e+06
       634.10000  9.53467e-08  5.02954e+06
       634.20000  9.53467e-08  5.03145e+06
       634.30000  9.53467e-08  5.03240e+06
       634.40000  9.53467e-08  5.03431e+06
       634.50000  6.74940e-08  3.56436e+06
       634.60000  6.74940e-08  3.56503e+06
       634.70000  6.74940e-08  3.56638e+06
       634.80000  6.74940e-08  3.56706e+06
       634.90000  6.74940e-08  3.56773e+06
       635.00000  6.74940e-08  3.56841e+06
       635.10000  6.74940e-08  3.56908e+06
       635.20000  6.74940e-08  3.56908e+06
       635.30000  6.74940e-08  3.56976e+06
       635.40000  6.74940e-08  3.56976e+06
       635.50000  6.12808e-08  3.24175e+06
       635.60000  6.12808e-08  3.24237e+06
       635.70000  6.12808e-08  3.24237e+06
       635.80000  6.12808e-08  3.24298e+06
       635.90000  6.12808e-08  3.24298e+06
       636.00000  6.12808e-08  3.24359e+06
       636.10000  6.12808e-08  3.24359e+06
       636.20000  6.12808e-08  3.24420e+06
       636.30000  6.10598e-08  3.23250e+06
       636.40000  6.10598e-08  3.23312e+06
       636.50000  1.48677e-07  7.87245e+06
       636.60000  1.48677e-07  7.87393e+06
       636.70000  1.48677e-07  7.87393e+06
       636.80000  1.48677e-07  7.87542e+06
       636.90000  1.48677e-07  7.87542e+06
       637.00000  1.48677e-07  7.87542e+06
       637.10000  1.48677e-07  7.87691e+06
       637.20000  1.48677e-07  7.87691e+06
       637.30000  1.48677e-07  7.87839e+06
       637.40000  1.48677e-07  7.87839e+06
       637.50000  1.07941e-07  5.71981e+06
       637.60000  1.07941e-07  5.72089e+06
       637.70000  1.07941e-07  5.72089e+06
       637.80000  1.07941e-07  5.72197e+06
       637.90000  1.07941e-07  5.72197e+06
       638.00000  1.07941e-07  5.72197e+06
       638.10000  1.07941e-07  5.72305e+06
       638.20000  1.07941e-07  5.72305e+06
       638.30000  1.07941e-07  5.72305e+06
       638.40000  1.07941e-07  5.72413e+06
       638.50000  1.55074e-07  8.22358e+06
       638.60000  1.55074e-07  8.22358e+06
       638.70000  1.55074e-07  8.22513e+06
       638.80000  1.54637e-07  8.20196e+06
       638.90000  1.54637e-07  8.20196e+06
       639.00000  1.54637e-07  8.20196e+06
       639.10000  1.54637e-07  8.18958e+06
       639.20000  1.54637e-07  8.17721e+06
       639.30000  1.54637e-07  8.16484e+06
       639.40000  1.54637e-07  8.15402e+06
       639.50000  1.80228e-07  9.48901e+06
       639.60000  1.80228e-07  9.47819e+06
       639.70000  1.80228e-07  9.46558e+06
       639.80000  1.80228e-07  9.45476e+06
       639.90000  1.80228e-07  9.44575e+06
       640.00000  1.80228e-07  9.43494e+06
       640.10000  1.80228e-07  9.42593e+06
       640.20000  1.80228e-07  9.41872e+06
       640.30000  1.80228e-07  9.41151e+06
       640.40000  1.80228e-07  9.40430e+06
       640.50000  1.74680e-07  9.10780e+06
       640.60000  1.74680e-07  9.10256e+06
       640.70000  1.74680e-07  9.09732e+06
       640.80000  1.74680e-07  9.09383e+06
       640.90000  1.74680e-07  9.08859e+06
       641.00000  1.74680e-07  9.08684e+06
       641.10000  1.74680e-07  9.09034e+06
       641.20000  1.74680e-07  9.09383e+06
       641.30000  1.74130e-07  9.06871e+06
       641.40000  1.74130e-07  9.07220e+06
       641.50000  1.14322e-07  5.95845e+06
       641.60000  1.14322e-07  5.96074e+06
       641.70000  1.14322e-07  5.96303e+06
       641.80000  1.14322e-07  5.96531e+06
       641.90000  1.14322e-07  5.96760e+06
       642.00000  1.14322e-07  5.96988e+06
       642.10000  1.14322e-07  5.97103e+06
       642.20000  1.14322e-07  5.97332e+06
       642.30000  1.14322e-07  5.97560e+06
       642.40000  1.14322e-07  5.97789e+06
       642.50000  1.56066e-07  8.16382e+06
       642.60000  1.56066e-07  8.16694e+06
       642.70000  1.56066e-07  8.17006e+06
       642.80000  1.56066e-07  8.17318e+06
       642.90000  1.56066e-07  8.17631e+06
       643.00000  1.56066e-07  8.17943e+06
       643.10000  1.56066e-07  8.18099e+06
       643.20000  1.56066e-07  8.18411e+06
       643.30000  1.56066e-07  8.18723e+06
       643.40000  1.56066e-07  8.19035e+06
       643.50000  1.86581e-07  9.79549e+06
       643.60000  1.86581e-07  9.79923e+06
       643.70000  1.86581e-07  9.80109e+06
       643.80000  1.85883e-07  9.76815e+06
       643.90000  1.85883e-07  9.77187e+06
       644.00000  1.85883e-07  9.77559e+06
       644.10000  1.85883e-07  9.77931e+06
       644.20000  1.85883e-07  9.78117e+06
       644.30000  1.85883e-07  9.78488e+06
       644.40000  1.85883e-07  9.78860e+06
       644.50000  1.96144e-07  1.03328e+07
       644.60000  1.96144e-07  1.03348e+07
       644.70000  1.96144e-07  1.03387e+07
       644.80000  1.96144e-07  1.03427e+07
       644.90000  1.96144e-07  1.03466e+07
       645.00000  1.96144e-07  1.03485e+07
       645.10000  1.96144e-07  1.03466e+07
       645.20000  1.96144e-07  1.03427e+07
       645.30000  1.96144e-07  1.03407e+07
       645.40000  1.96144e-07  1.03368e+07
       645.50000  2.51476e-07  1.32453e+07
       645.60000  2.51476e-07  1.32402e+07
       645.70000  2.51476e-07  1.32352e+07
       645.80000  2.51476e-07  1.32277e+07
       645.90000  2.51476e-07  1.32201e+07
       646.00000  2.51476e-07  1.32126e+07
       646.10000  2.51476e-07  1.32050e+07
       646.20000  2.51476e-07  1.31975e+07
       646.30000  2.50434e-07  1.31327e+07
       646.40000  2.50434e-07  1.31227e+07
       646.50000  1.40681e-07  7.36746e+06
       646.60000  1.40681e-07  7.36043e+06
       646.70000  1.40681e-07  7.35480e+06
       646.80000  1.40681e-07  7.34917e+06
       646.90000  1.40681e-07  7.34214e+06
       647.00000  1.40681e-07  7.33651e+06
       647.10000  1.40681e-07  7.31682e+06
       647.20000  1.40681e-07  7.29853e+06
       647.30000  1.40681e-07  7.28165e+06
       647.40000  1.40681e-07  7.26476e+06
       647.50000  2.37082e-07  1.22168e+07
       647.60000  2.37082e-07  1.21955e+07
       647.70000  2.37082e-07  1.21718e+07
       647.80000  2.37082e-07  1.21528e+07
       647.90000  2.37082e-07  1.21338e+07
       648.00000  2.37082e-07  1.21172e+07
       648.10000  2.37082e-07  1.21030e+07
       648.20000  2.37082e-07  1.20912e+07
       648.30000  2.37082e-07  1.20793e+07
       648.40000  2.37082e-07  1.20698e+07
       648.50000  2.46341e-07  1.25338e+07
       648.60000  2.46341e-07  1.25289e+07
       648.70000  2.46341e-07  1.25240e+07
       648.80000  2.45329e-07  1.24701e+07
       648.90000  2.45329e-07  1.24701e+07
       649.00000  2.45329e-07  1.24726e+07
       649.10000  2.45329e-07  1.24750e+07
       649.20000  2.45329e-07  1.24824e+07
       649.30000  2.45329e-07  1.24873e+07
       649.40000  2.45329e-07  1.24971e+07
       649.50000  1.74677e-07  8.90678e+06
       649.60000  1.74677e-07  8.91552e+06
       649.70000  1.74677e-07  8.92600e+06
       649.80000  1.74677e-07  8.93823e+06
       649.90000  1.74677e-07  8.95045e+06
       650.00000  1.74677e-07  8.96443e+06
       650.10000  1.74677e-07  8.98015e+06
       650.20000  1.74677e-07  8.99762e+06
       650.30000  1.74677e-07  9.01683e+06
       650.40000  1.74677e-07  9.03604e+06
       650.50000  2.65793e-07  1.37814e+07
       650.60000  2.65793e-07  1.38159e+07
       650.70000  2.65793e-07  1.38505e+07
       650.80000  2.65793e-07  1.38903e+07
       650.90000  2.65793e-07  1.39302e+07
       651.00000  2.65793e-07  1.39727e+07
       651.10000  2.65793e-07  1.39834e+07
       651.20000  2.65793e-07  1.39940e+07
       651.30000  2.64617e-07  1.39400e+07
       651.40000  2.64617e-07  1.39480e+07
       651.50000  2.11889e-07  1.11750e+07
       651.60000  2.11889e-07  1.11772e+07
       651.70000  2.11889e-07  1.11814e+07
       651.80000  2.11889e-07  1.11835e+07
       651.90000  2.11889e-07  1.11835e+07
       652.00000  2.11889e-07  1.11835e+07
       652.10000  2.11889e-07  1.11814e+07
       652.20000  2.11889e-07  1.11793e+07
       652.30000  2.11889e-07  1.11772e+07
       652.40000  2.11889e-07  1.11729e+07
       652.50000  8.17746e-08  4.30952e+06
       652.60000  8.17746e-08  4.30707e+06
       652.70000  8.17746e-08  4.30462e+06
       652.80000  8.17746e-08  4.30053e+06
       652.90000  8.17746e-08  4.29726e+06
       653.00000  8.17746e-08  4.29317e+06
       653.10000  8.17746e-08  4.28990e+06
       653.20000  8.17746e-08  4.28662e+06
       653.30000  8.17746e-08  4.28172e+06
       653.40000  8.17746e-08  4.27681e+06
       653.50000  3.29320e-07  1.72037e+07
       653.60000  3.29320e-07  1.71806e+07
       653.70000  3.29320e-07  1.71543e+07
       653.80000  3.28552e-07  1.70847e+07
       653.90000  3.28552e-07  1.70551e+07
       654.00000  3.28552e-07  1.70223e+07
       654.10000  3.28552e-07  1.69894e+07
       654.20000  3.28552e-07  1.69500e+07
       654.30000  3.28552e-07  1.69106e+07
       654.40000  3.28552e-07  1.68712e+07
       654.50000  2.24491e-07  1.14984e+07
       654.60000  2.24491e-07  1.14670e+07
       654.70000  2.24491e-07  1.14333e+07
       654.80000  2.24491e-07  1.13996e+07
       654.90000  2.24491e-07  1.13637e+07
       655.00000  2.24491e-07  1.13256e+07
       655.10000  2.24491e-07  1.12178e+07
       655.20000  2.24491e-07  1.11145e+07
       655.30000  2.24491e-07  1.10180e+07
       655.40000  2.24491e-07  1.09282e+07
       655.50000  2.05847e-07  9.94240e+06
       655.60000  2.05847e-07  9.87035e+06
       655.70000  2.05847e-07  9.80242e+06
       655.80000  2.05847e-07  9.74067e+06
       655.90000  2.05847e-07  9.68303e+06
       656.00000  2.05847e-07  9.63157e+06
       656.10000  2.05847e-07  9.58628e+06
       656.20000  2.05847e-07  9.54511e+06
       656.30000  2.05584e-07  9.49799e+06
       656.40000  2.05584e-07  9.46715e+06
       656.50000  3.11686e-07  1.43157e+07
       656.60000  3.11686e-07  1.42877e+07
       656.70000  3.11686e-07  1.42658e+07
       656.80000  3.11686e-07  1.42534e+07
       656.90000  3.11686e-07  1.42471e+07
       657.00000  3.11686e-07  1.42503e+07
       657.10000  3.11686e-07  1.43718e+07
       657.20000  3.11686e-07  1.44903e+07
       657.30000  3.11686e-07  1.46056e+07
       657.40000  3.11686e-07  1.47178e+07
       657.50000  1.72734e-07  8.21522e+06
       657.60000  1.72734e-07  8.27395e+06
       657.70000  1.72734e-07  8.32922e+06
       657.80000  1.72734e-07  8.38277e+06
       657.90000  1.72734e-07  8.43286e+06
       658.00000  1.72734e-07  8.48296e+06
       658.10000  1.72734e-07  8.53132e+06
       658.20000  1.72734e-07  8.57623e+06
       658.30000  1.72734e-07  8.61942e+06
       658.40000  1.72734e-07  8.66087e+06
       658.50000  1.89452e-07  9.54080e+06
       658.60000  1.89452e-07  9.58248e+06
       658.70000  1.89452e-07  9.62037e+06
       658.80000  1.88819e-07  9.62597e+06
       658.90000  1.88819e-07  9.65996e+06
       659.00000  1.88819e-07  9.69017e+06
       659.10000  1.88819e-07  9.72038e+06
       659.20000  1.88819e-07  9.74870e+06
       659.30000  1.88819e-07  9.77325e+06
       659.40000  1.88819e-07  9.79591e+06
       659.50000  2.30544e-07  1.19860e+07
       659.60000  2.30544e-07  1.20090e+07
       659.70000  2.30544e-07  1.20275e+07
       659.80000  2.30544e-07  1.20459e+07
       659.90000  2.30544e-07  1.20598e+07
       660.00000  2.30544e-07  1.20713e+07
       660.10000  2.30544e-07  1.20805e+07
       660.20000  2.30544e-07  1.20851e+07
       660.30000  2.30544e-07  1.20897e+07
       660.40000  2.30544e-07  1.20897e+07
       660.50000  1.16179e-07  6.09127e+06
       660.60000  1.16179e-07  6.08895e+06
       660.70000  1.16179e-07  6.08547e+06
       660.80000  1.16179e-07  6.07966e+06
       660.90000  1.16179e-07  6.07385e+06
       661.00000  1.16179e-07  6.06572e+06
       661.10000  1.16179e-07  6.06223e+06
       661.20000  1.16179e-07  6.05758e+06
       661.30000  1.15329e-07  6.00977e+06
       661.40000  1.15329e-07  6.00631e+06
       661.50000  1.14141e-07  5.94105e+06
       661.60000  1.14141e-07  5.93877e+06
       661.70000  1.14141e-07  5.93534e+06
       661.80000  1.14141e-07  5.93306e+06
       661.90000  1.14141e-07  5.93078e+06
       662.00000  1.14141e-07  5.92849e+06
       662.10000  1.14141e-07  5.92621e+06
       662.20000  1.14141e-07  5.92393e+06
       662.30000  1.14141e-07  5.92279e+06
       662.40000  1.14141e-07  5.92165e+06
       662.50000  6.28061e-08  3.25712e+06
       662.60000  6.28061e-08  3.25712e+06
       662.70000  6.28061e-08  3.25649e+06
       662.80000  6.28061e-08  3.25587e+06
       662.90000  6.28061e-08  3.25587e+06
       663.00000  6.28061e-08  3.25587e+06
       663.10000  6.28061e-08  3.25838e+06
       663.20000  6.28061e-08  3.26026e+06
       663.30000  6.28061e-08  3.26277e+06
       663.40000  6.28061e-08  3.26466e+06
       663.50000  1.95127e-07  1.01485e+07
       663.60000  1.95127e-07  1.01544e+07
       663.70000  1.95127e-07  1.01583e+07
       663.80000  1.93522e-07  1.00806e+07
       663.90000  1.93522e-07  1.00844e+07
       664.00000  1.93522e-07  1.00864e+07
       664.10000  1.93522e-07  1.00902e+07
       664.20000  1.93522e-07  1.00922e+07
       664.30000  1.93522e-07  1.00941e+07
       664.40000  1.93522e-07  1.00960e+07
       664.50000  2.73886e-07  1.42886e+07
       664.60000  2.73886e-07  1.42886e+07
       664.70000  2.73886e-07  1.42886e+07
       664.80000  2.73886e-07  1.42886e+07
       664.90000  2.73886e-07  1.42886e+07
       665.00000  2.73886e-07  1.42859e+07
       665.10000  2.73886e-07  1.42832e+07
       665.20000  2.73886e-07  1.42804e+07
       665.30000  2.73886e-07  1.42750e+07
       665.40000  2.73886e-07  1.42695e+07
       665.50000  1.78756e-07  9.30959e+06
       665.60000  1.78756e-07  9.30601e+06
       665.70000  1.78756e-07  9.30065e+06
       665.80000  1.78756e-07  9.29707e+06
       665.90000  1.78756e-07  9.29171e+06
       666.00000  1.78756e-07  9.28456e+06
       666.10000  1.78756e-07  9.27920e+06
       666.20000  1.78756e-07  9.27205e+06
       666.30000  1.77600e-07  9.20501e+06
       666.40000  1.77600e-07  9.19791e+06
       666.50000  3.33439e-07  1.72521e+07
       666.60000  3.33439e-07  1.72355e+07
       666.70000  3.33439e-07  1.72188e+07
       666.80000  3.33439e-07  1.72021e+07
       666.90000  3.33439e-07  1.71854e+07
       667.00000  3.33439e-07  1.71654e+07
       667.10000  3.33439e-07  1.71854e+07
       667.20000  3.33439e-07  1.72021e+07
       667.30000  3.33439e-07  1.72188e+07
       667.40000  3.33439e-07  1.72355e+07
       667.50000  2.52051e-07  1.30411e+07
       667.60000  2.52051e-07  1.30512e+07
       667.70000  2.52051e-07  1.30613e+07
       667.80000  2.52051e-07  1.30688e+07
       667.90000  2.52051e-07  1.30764e+07
       668.00000  2.52051e-07  1.30840e+07
       668.10000  2.52051e-07  1.30915e+07
       668.20000  2.52051e-07  1.30966e+07
       668.30000  2.52051e-07  1.31016e+07
       668.40000  2.52051e-07  1.31041e+07
       668.50000  2.43680e-07  1.26713e+07
       668.60000  2.43680e-07  1.26738e+07
       668.70000  2.43680e-07  1.26738e+07
       668.80000  2.42282e-07  1.26011e+07
       668.90000  2.42282e-07  1.26011e+07
       669.00000  2.42282e-07  1.25986e+07
       669.10000  2.42282e-07  1.25817e+07
       669.20000  2.42282e-07  1.25647e+07
       669.30000  2.42282e-07  1.25502e+07
       669.40000  2.42282e-07  1.25356e+07
       669.50000  2.42342e-07  1.25242e+07
       669.60000  2.42342e-07  1.25097e+07
       669.70000  2.42342e-07  1.24976e+07
       669.80000  2.42342e-07  1.24854e+07
       669.90000  2.42342e-07  1.24733e+07
       670.00000  2.42342e-07  1.24636e+07
       670.10000  2.42342e-07  1.24539e+07
       670.20000  2.42342e-07  1.24442e+07
       670.30000  2.42342e-07  1.24346e+07
       670.40000  2.42342e-07  1.24273e+07
       670.50000  1.79212e-07  9.18461e+06
       670.60000  1.79212e-07  9.17924e+06
       670.70000  1.79212e-07  9.17565e+06
       670.80000  1.79212e-07  9.17207e+06
       670.90000  1.79212e-07  9.16848e+06
       671.00000  1.79212e-07  9.16669e+06
       671.10000  1.79212e-07  9.16311e+06
       671.20000  1.79212e-07  9.16311e+06
       671.30000  1.78197e-07  9.10941e+06
       671.40000  1.78197e-07  9.10941e+06
       671.50000  3.61916e-07  1.85011e+07
       671.60000  3.61916e-07  1.85011e+07
       671.70000  3.61916e-07  1.85011e+07
       671.80000  3.61916e-07  1.85048e+07
       671.90000  3.61916e-07  1.85084e+07
       672.00000  3.61916e-07  1.85156e+07
       672.10000  3.61916e-07  1.85229e+07
       672.20000  3.61916e-07  1.85301e+07
       672.30000  3.61916e-07  1.85373e+07
       672.40000  3.61916e-07  1.85482e+07
       672.50000  2.39723e-07  1.22930e+07
       672.60000  2.39723e-07  1.23002e+07
       672.70000  2.39723e-07  1.23074e+07
       672.80000  2.39723e-07  1.23169e+07
       672.90000  2.39723e-07  1.23265e+07
       673.00000  2.39723e-07  1.23385e+07
       673.10000  2.39723e-07  1.23337e+07
       673.20000  2.39723e-07  1.23289e+07
       673.30000  2.39723e-07  1.23241e+07
       673.40000  2.39723e-07  1.23217e+07
       673.50000  2.94017e-07  1.51066e+07
       673.60000  2.94017e-07  1.51037e+07
       673.70000  2.94017e-07  1.51007e+07
       673.80000  2.92188e-07  1.50009e+07
       673.90000  2.92188e-07  1.49980e+07
       674.00000  2.92188e-07  1.49951e+07
       674.10000  2.92188e-07  1.49922e+07
       674.20000  2.92188e-07  1.49893e+07
       674.30000  2.92188e-07  1.49863e+07
       674.40000  2.92188e-07  1.49834e+07
       674.50000  2.46498e-07  1.26380e+07
       674.60000  2.46498e-07  1.26380e+07
       674.70000  2.46498e-07  1.26355e+07
       674.80000  2.46498e-07  1.26355e+07
       674.90000  2.46498e-07  1.26330e+07
       675.00000  2.46498e-07  1.26330e+07
       675.10000  2.46498e-07  1.26355e+07
       675.20000  2.46498e-07  1.26380e+07
       675.30000  2.46498e-07  1.26404e+07
       675.40000  2.46498e-07  1.26429e+07
       675.50000  3.36352e-07  1.72515e+07
       675.60000  3.36352e-07  1.72548e+07
       675.70000  3.36352e-07  1.72582e+07
       675.80000  3.36352e-07  1.72582e+07
       675.90000  3.36352e-07  1.72616e+07
       676.00000  3.36352e-07  1.72616e+07
       676.10000  3.36352e-07  1.72649e+07
       676.20000  3.36352e-07  1.72649e+07
       676.30000  3.33809e-07  1.71344e+07
       676.40000  3.33809e-07  1.71344e+07
       676.50000  2.20619e-07  1.13266e+07
       676.60000  2.20619e-07  1.13266e+07
       676.70000  2.20619e-07  1.13266e+07
       676.80000  2.20619e-07  1.13244e+07
       676.90000  2.20619e-07  1.13244e+07
       677.00000  2.20619e-07  1.13244e+07
       677.10000  2.20619e-07  1.13244e+07
       677.20000  2.20619e-07  1.13222e+07
       677.30000  2.20619e-07  1.13222e+07
       677.40000  2.20619e-07  1.13200e+07
       677.50000  3.44076e-07  1.76545e+07
       677.60000  3.44076e-07  1.76511e+07
       677.70000  3.44076e-07  1.76511e+07
       677.80000  3.44076e-07  1.76476e+07
       677.90000  3.44076e-07  1.76442e+07
       678.00000  3.44076e-07  1.76408e+07
       678.10000  3.44076e-07  1.76373e+07
       678.20000  3.44076e-07  1.76339e+07
       678.30000  3.44076e-07  1.76304e+07
       678.40000  3.44076e-07  1.76270e+07
       678.50000  3.02908e-07  1.55119e+07
       678.60000  3.02908e-07  1.55089e+07
       678.70000  3.02908e-07  1.55059e+07
       678.80000  3.00625e-07  1.53830e+07
       678.90000  3.00625e-07  1.53800e+07
       679.00000  3.00625e-07  1.53740e+07
       679.10000  3.00625e-07  1.53740e+07
       679.20000  3.00625e-07  1.53770e+07
       679.30000  3.00625e-07  1.53770e+07
       679.40000  3.00625e-07  1.53770e+07
       679.50000  4.76882e-07  2.43925e+07
       679.60000  4.76882e-07  2.43925e+07
       679.70000  4.76882e-07  2.43925e+07
       679.80000  4.76882e-07  2.43925e+07
       679.90000  4.76882e-07  2.43925e+07
       680.00000  4.76882e-07  2.43877e+07
       680.10000  4.76882e-07  2.43877e+07
       680.20000  4.76882e-07  2.43877e+07
       680.30000  4.76882e-07  2.43830e+07
       680.40000  4.76882e-07  2.43830e+07
       680.50000  2.46095e-07  1.25804e+07
       680.60000  2.46095e-07  1.25804e+07
       680.70000  2.46095e-07  1.25779e+07
       680.80000  2.46095e-07  1.25755e+07
       680.90000  2.46095e-07  1.25730e+07
       681.00000  2.46095e-07  1.25730e+07
       681.10000  2.46095e-07  1.25705e+07
       681.20000  2.46095e-07  1.25681e+07
       681.30000  2.44017e-07  1.24620e+07
       681.40000  2.44017e-07  1.24595e+07
       681.50000  3.66626e-07  1.87163e+07
       681.60000  3.66626e-07  1.87126e+07
       681.70000  3.66626e-07  1.87089e+07
       681.80000  3.66626e-07  1.87016e+07
       681.90000  3.66626e-07  1.86979e+07
       682.00000  3.66626e-07  1.86943e+07
       682.10000  3.66626e-07  1.86869e+07
       682.20000  3.66626e-07  1.86796e+07
       682.30000  3.66626e-07  1.86759e+07
       682.40000  3.66626e-07  1.86686e+07
       682.50000  3.56225e-07  1.81318e+07
       682.60000  3.56225e-07  1.81247e+07
       682.70000  3.56225e-07  1.81176e+07
       682.80000  3.56225e-07  1.81105e+07
       682.90000  3.56225e-07  1.80998e+07
       683.00000  3.56225e-07  1.80927e+07
       683.10000  3.56225e-07  1.80855e+07
       683.20000  3.56225e-07  1.80748e+07
       683.30000  3.56225e-07  1.80642e+07
       683.40000  3.56225e-07  1.80535e+07
       683.50000  2.79135e-07  1.41410e+07
       683.60000  2.79135e-07  1.41326e+07
       683.70000  2.79135e-07  1.41242e+07
       683.80000  2.76485e-07  1.39791e+07
       683.90000  2.76485e-07  1.39708e+07
       684.00000  2.76485e-07  1.39625e+07
       684.10000  2.76485e-07  1.39514e+07
       684.20000  2.76485e-07  1.39431e+07
       684.30000  2.76485e-07  1.39321e+07
       684.40000  2.76485e-07  1.39238e+07
       684.50000  2.13522e-07  1.07444e+07
       684.60000  2.13522e-07  1.07359e+07
       684.70000  2.13522e-07  1.07273e+07
       684.80000  2.13522e-07  1.07188e+07
       684.90000  2.13522e-07  1.07081e+07
       685.00000  2.13522e-07  1.06996e+07
       685.10000  2.13522e-07  1.07081e+07
       685.20000  2.13522e-07  1.07188e+07
       685.30000  2.13522e-07  1.07273e+07
       685.40000  2.13522e-07  1.07337e+07
       685.50000  3.54492e-07  1.78345e+07
       685.60000  3.54492e-07  1.78487e+07
       685.70000  3.54492e-07  1.78593e+07
       685.80000  3.54492e-07  1.78699e+07
       685.90000  3.54492e-07  1.78806e+07
       686.00000  3.54492e-07  1.78912e+07
       686.10000  3.54492e-07  1.79018e+07
       686.20000  3.54492e-07  1.79089e+07
       686.30000  3.51144e-07  1.77503e+07
       686.40000  3.51144e-07  1.77574e+07
       686.50000  3.52503e-07  1.78331e+07
       686.60000  3.52503e-07  1.78402e+07
       686.70000  3.52503e-07  1.78472e+07
       686.80000  3.52503e-07  1.78507e+07
       686.90000  3.52503e-07  1.78578e+07
       687.00000  3.52503e-07  1.78613e+07
       687.10000  3.52503e-07  1.78648e+07
       687.20000  3.52503e-07  1.78648e+07
       687.30000  3.52503e-07  1.78648e+07
       687.40000  3.52503e-07  1.78648e+07
       687.50000  2.37242e-07  1.20234e+07
       687.60000  2.37242e-07  1.20234e+07
       687.70000  2.37242e-07  1.20234e+07
       687.80000  2.37242e-07  1.20234e+07
       687.90000  2.37242e-07  1.20234e+07
       688.00000  2.37242e-07  1.20211e+07
       688.10000  2.37242e-07  1.20211e+07
       688.20000  2.37242e-07  1.20211e+07
       688.30000  2.37242e-07  1.20187e+07
       688.40000  2.37242e-07  1.20187e+07
       688.50000  3.14253e-07  1.59169e+07
       688.60000  3.14253e-07  1.59138e+07
       688.70000  3.14253e-07  1.59138e+07
       688.80000  3.11673e-07  1.57800e+07
       688.90000  3.11673e-07  1.57769e+07
       689.00000  3.11673e-07  1.57738e+07
       689.10000  3.11673e-07  1.57706e+07
       689.20000  3.11673e-07  1.57675e+07
       689.30000  3.11673e-07  1.57644e+07
       689.40000  3.11673e-07  1.57613e+07
       689.50000  3.68441e-07  1.86284e+07
       689.60000  3.68441e-07  1.86247e+07
       689.70000  3.68441e-07  1.86173e+07
       689.80000  3.68441e-07  1.86137e+07
       689.90000  3.68441e-07  1.86100e+07
       690.00000  3.68441e-07  1.86026e+07
       690.10000  3.68441e-07  1.85952e+07
       690.20000  3.68441e-07  1.85916e+07
       690.30000  3.68441e-07  1.85842e+07
       690.40000  3.68441e-07  1.85768e+07
       690.50000  3.09601e-07  1.56070e+07
       690.60000  3.09601e-07  1.56008e+07
       690.70000  3.09601e-07  1.55946e+07
       690.80000  3.09601e-07  1.55884e+07
       690.90000  3.09601e-07  1.55822e+07
       691.00000  3.09601e-07  1.55760e+07
       691.10000  3.09601e-07  1.55822e+07
       691.20000  3.09601e-07  1.55853e+07
       691.30000  3.07256e-07  1.54734e+07
       691.40000  3.07256e-07  1.54765e+07
       691.50000  2.88774e-07  1.45484e+07
       691.60000  2.88774e-07  1.45542e+07
       691.70000  2.88774e-07  1.45571e+07
       691.80000  2.88774e-07  1.45600e+07
       691.90000  2.88774e-07  1.45629e+07
       692.00000  2.88774e-07  1.45629e+07
       692.10000  2.88774e-07  1.45658e+07
       692.20000  2.88774e-07  1.45687e+07
       692.30000  2.88774e-07  1.45687e+07
       692.40000  2.88774e-07  1.45687e+07
       692.50000  3.22901e-07  1.62936e+07
       692.60000  3.22901e-07  1.62936e+07
       692.70000  3.22901e-07  1.62936e+07
       692.80000  3.22901e-07  1.62936e+07
       692.90000  3.22901e-07  1.62936e+07
       693.00000  3.22901e-07  1.62904e+07
       693.10000  3.22901e-07  1.62904e+07
       693.20000  3.22901e-07  1.62871e+07
       693.30000  3.22901e-07  1.62839e+07
       693.40000  3.22901e-07  1.62807e+07
       693.50000  3.97378e-07  2.00318e+07
       693.60000  3.97378e-07  2.00278e+07
       693.70000  3.97378e-07  2.00239e+07
       693.80000  3.94637e-07  1.98818e+07
       693.90000  3.94637e-07  1.98739e+07
       694.00000  3.94637e-07  1.98700e+07
       694.10000  3.94637e-07  1.98660e+07
       694.20000  3.94637e-07  1.98581e+07
       694.30000  3.94637e-07  1.98542e+07
       694.40000  3.94637e-07  1.98463e+07
       694.50000  4.70999e-07  2.36771e+07
       694.60000  4.70999e-07  2.36724e+07
       694.70000  4.70999e-07  2.36630e+07
       694.80000  4.70999e-07  2.36536e+07
       694.90000  4.70999e-07  2.36442e+07
       695.00000  4.70999e-07  2.36347e+07
       695.10000  4.70999e-07  2.36253e+07
       695.20000  4.70999e-07  2.36159e+07
       695.30000  4.70999e-07  2.36018e+07
       695.40000  4.70999e-07  2.35923e+07
       695.50000  4.54012e-07  2.27324e+07
       695.60000  4.54012e-07  2.27187e+07
       695.70000  4.54012e-07  2.27097e+07
       695.80000  4.54012e-07  2.26960e+07
       695.90000  4.54012e-07  2.26824e+07
       696.00000  4.54012e-07  2.26733e+07
       696.10000  4.54012e-07  2.26597e+07
       696.20000  4.54012e-07  2.26461e+07
       696.30000  4.51355e-07  2.25000e+07
       696.40000  4.51355e-07  2.24865e+07
       696.50000  4.29089e-07  2.13643e+07
       696.60000  4.29089e-07  2.13515e+07
       696.70000  4.29089e-07  2.13343e+07
       696.80000  4.29089e-07  2.13214e+07
       696.90000  4.29089e-07  2.13086e+07
       697.00000  4.29089e-07  2.12914e+07
       697.10000  4.29089e-07  2.13214e+07
       697.20000  4.29089e-07  2.13429e+07
       697.30000  4.29089e-07  2.13686e+07
       697.40000  4.29089e-07  2.13901e+07
       697.50000  3.65329e-07  1.82299e+07
       697.60000  3.65329e-07  1.82445e+07
       697.70000  3.65329e-07  1.82591e+07
       697.80000  3.65329e-07  1.82701e+07
       697.90000  3.65329e-07  1.82810e+07
       698.00000  3.65329e-07  1.82884e+07
       698.10000  3.65329e-07  1.82957e+07
       698.20000  3.65329e-07  1.83030e+07
       698.30000  3.65329e-07  1.83066e+07
       698.40000  3.65329e-07  1.83103e+07
       698.50000  3.00143e-07  1.50462e+07
       698.60000  3.00143e-07  1.50462e+07
       698.70000  3.00143e-07  1.50432e+07
       698.80000  2.98303e-07  1.49480e+07
       698.90000  2.98303e-07  1.49450e+07
       699.00000  2.98303e-07  1.49390e+07
       699.10000  2.98303e-07  1.49122e+07
       699.20000  2.98303e-07  1.48823e+07
       699.30000  2.98303e-07  1.48585e+07
       699.40000  2.98303e-07  1.48316e+07
       699.50000  4.08235e-07  2.02648e+07
       699.60000  4.08235e-07  2.02321e+07
       699.70000  4.08235e-07  2.02035e+07
       699.80000  4.08235e-07  2.01750e+07
       699.90000  4.08235e-07  2.01464e+07
       700.00000  4.08235e-07  2.01219e+07
       700.10000  4.08235e-07  2.00974e+07
       700.20000  4.08235e-07  2.00729e+07
       700.30000  4.08235e-07  2.00525e+07
       700.40000  4.08235e-07  2.00321e+07
       700.50000  3.57264e-07  1.75131e+07
       700.60000  3.57264e-07  1.74988e+07
       700.70000  3.57264e-07  1.74845e+07
       700.80000  3.57264e-07  1.74738e+07
       700.90000  3.57264e-07  1.74631e+07
       701.00000  3.57264e-07  1.74524e+07
       701.10000  3.57264e-07  1.74488e+07
       701.20000  3.57264e-07  1.74452e+07
       701.30000  3.54617e-07  1.73124e+07
       701.40000  3.54617e-07  1.73124e+07
       701.50000  2.78946e-07  1.36182e+07
       701.60000  2.78946e-07  1.36182e+07
       701.70000  2.78946e-07  1.36182e+07
       701.80000  2.78946e-07  1.36209e+07
       701.90000  2.78946e-07  1.36209e+07
       702.00000  2.78946e-07  1.36237e+07
       702.10000  2.78946e-07  1.36293e+07
       702.20000  2.78946e-07  1.36321e+07
       702.30000  2.78946e-07  1.36377e+07
       702.40000  2.78946e-07  1.36405e+07
       702.50000  2.62954e-07  1.28637e+07
       702.60000  2.62954e-07  1.28716e+07
       702.70000  2.62954e-07  1.28769e+07
       702.80000  2.62954e-07  1.28848e+07
       702.90000  2.62954e-07  1.28926e+07
       703.00000  2.62954e-07  1.29005e+07
       703.10000  2.62954e-07  1.29242e+07
       703.20000  2.62954e-07  1.29479e+07
       703.30000  2.62954e-07  1.29689e+07
       703.40000  2.62954e-07  1.29899e+07
       703.50000  3.53141e-07  1.74699e+07
       703.60000  3.53141e-07  1.74982e+07
       703.70000  3.53141e-07  1.75193e+07
       703.80000  3.49864e-07  1.73812e+07
       703.90000  3.49864e-07  1.74022e+07
       704.00000  3.49864e-07  1.74197e+07
       704.10000  3.49864e-07  1.74407e+07
       704.20000  3.49864e-07  1.74582e+07
       704.30000  3.49864e-07  1.74722e+07
       704.40000  3.49864e-07  1.74862e+07
       704.50000  4.65542e-07  2.32864e+07
       704.60000  4.65542e-07  2.33050e+07
       704.70000  4.65542e-07  2.33190e+07
       704.80000  4.65542e-07  2.33283e+07
       704.90000  4.65542e-07  2.33423e+07
       705.00000  4.65542e-07  2.33516e+07
       705.10000  4.65542e-07  2.33562e+07
       705.20000  4.65542e-07  2.33609e+07
       705.30000  4.65542e-07  2.33656e+07
       705.40000  4.65542e-07  2.33702e+07
       705.50000  4.16183e-07  2.08924e+07
       705.60000  4.16183e-07  2.08924e+07
       705.70000  4.16183e-07  2.08882e+07
       705.80000  4.16183e-07  2.08840e+07
       705.90000  4.16183e-07  2.08799e+07
       706.00000  4.16183e-07  2.08716e+07
       706.10000  4.16183e-07  2.08632e+07
       706.20000  4.16183e-07  2.08508e+07
       706.30000  4.12077e-07  2.06327e+07
       706.40000  4.12077e-07  2.06204e+07
       706.50000  4.42453e-07  2.21226e+07
       706.60000  4.42453e-07  2.21049e+07
       706.70000  4.42453e-07  2.20872e+07
       706.80000  4.42453e-07  2.20651e+07
       706.90000  4.42453e-07  2.20430e+07
       707.00000  4.42453e-07  2.20209e+07
       707.10000  4.42453e-07  2.20032e+07
       707.20000  4.42453e-07  2.19899e+07
       707.30000  4.42453e-07  2.19722e+07
       707.40000  4.42453e-07  2.19589e+07
       707.50000  3.62483e-07  1.79792e+07
       707.60000  3.62483e-07  1.79683e+07
       707.70000  3.62483e-07  1.79610e+07
       707.80000  3.62483e-07  1.79502e+07
       707.90000  3.62483e-07  1.79429e+07
       708.00000  3.62483e-07  1.79357e+07
       708.10000  3.62483e-07  1.79284e+07
       708.20000  3.62483e-07  1.79212e+07
       708.30000  3.62483e-07  1.79139e+07
       708.40000  3.62483e-07  1.79067e+07
       708.50000  4.25628e-07  2.10218e+07
       708.60000  4.25628e-07  2.10133e+07
       708.70000  4.25628e-07  2.10090e+07
       708.80000  4.20753e-07  2.07641e+07
       708.90000  4.20753e-07  2.07599e+07
       709.00000  4.20753e-07  2.07599e+07
       709.10000  4.20753e-07  2.07683e+07
       709.20000  4.20753e-07  2.07768e+07
       709.30000  4.20753e-07  2.07810e+07
       709.40000  4.20753e-07  2.07894e+07
       709.50000  3.59822e-07  1.77824e+07
       709.60000  3.59822e-07  1.77896e+07
       709.70000  3.59822e-07  1.77932e+07
       709.80000  3.59822e-07  1.77968e+07
       709.90000  3.59822e-07  1.78004e+07
       710.00000  3.59822e-07  1.78040e+07
       710.10000  3.59822e-07  1.78076e+07
       710.20000  3.59822e-07  1.78112e+07
       710.30000  3.59822e-07  1.78112e+07
       710.40000  3.59822e-07  1.78148e+07
       710.50000  4.75680e-07  2.35509e+07
       710.60000  4.75680e-07  2.35509e+07
       710.70000  4.75680e-07  2.35509e+07
       710.80000  4.75680e-07  2.35509e+07
       710.90000  4.75680e-07  2.35509e+07
       711.00000  4.75680e-07  2.35509e+07
       711.10000  4.75680e-07  2.35509e+07
       711.20000  4.75680e-07  2.35461e+07
       711.30000  4.68730e-07  2.32022e+07
       711.40000  4.68730e-07  2.31975e+07
       711.50000  4.54081e-07  2.24679e+07
       711.60000  4.54081e-07  2.24634e+07
       711.70000  4.54081e-07  2.24589e+07
       711.80000  4.54081e-07  2.24543e+07
       711.90000  4.54081e-07  2.24498e+07
       712.00000  4.54081e-07  2.24407e+07
       712.10000  4.54081e-07  2.24362e+07
       712.20000  4.54081e-07  2.24271e+07
       712.30000  4.54081e-07  2.24225e+07
       712.40000  4.54081e-07  2.24135e+07
       712.50000  3.98860e-07  1.96798e+07
       712.60000  3.98860e-07  1.96718e+07
       712.70000  3.98860e-07  1.96598e+07
       712.80000  3.98860e-07  1.96518e+07
       712.90000  3.98860e-07  1.96439e+07
       713.00000  3.98860e-07  1.96319e+07
       713.10000  3.98860e-07  1.96319e+07
       713.20000  3.98860e-07  1.96319e+07
       713.30000  3.98860e-07  1.96319e+07
       713.40000  3.98860e-07  1.96279e+07
       713.50000  4.39302e-07  2.16181e+07
       713.60000  4.39302e-07  2.16181e+07
       713.70000  4.39302e-07  2.16137e+07
       713.80000  4.33315e-07  2.13191e+07
       713.90000  4.33315e-07  2.13147e+07
       714.00000  4.33315e-07  2.13147e+07
       714.10000  4.33315e-07  2.13104e+07
       714.20000  4.33315e-07  2.13061e+07
       714.30000  4.33315e-07  2.13061e+07
       714.40000  4.33315e-07  2.13017e+07
       714.50000  4.00678e-07  1.96933e+07
       714.60000  4.00678e-07  1.96893e+07
       714.70000  4.00678e-07  1.96893e+07
       714.80000  4.00678e-07  1.96853e+07
       714.90000  4.00678e-07  1.96813e+07
       715.00000  4.00678e-07  1.96773e+07
       715.10000  4.00678e-07  1.96733e+07
       715.20000  4.00678e-07  1.96733e+07
       715.30000  4.00678e-07  1.96733e+07
       715.40000  4.00678e-07  1.96693e+07
       715.50000  3.07600e-07  1.50970e+07
       715.60000  3.07600e-07  1.50939e+07
       715.70000  3.07600e-07  1.50909e+07
       715.80000  3.07600e-07  1.50878e+07
       715.90000  3.07600e-07  1.50847e+07
       716.00000  3.07600e-07  1.50786e+07
       716.10000  3.07600e-07  1.50755e+07
       716.20000  3.07600e-07  1.50693e+07
       716.30000  3.03490e-07  1.48619e+07
       716.40000  3.03490e-07  1.48558e+07
       716.50000  3.69173e-07  1.80636e+07
       716.60000  3.69173e-07  1.80563e+07
       716.70000  3.69173e-07  1.80489e+07
       716.80000  3.69173e-07  1.80378e+07
       716.90000  3.69173e-07  1.80304e+07
       717.00000  3.69173e-07  1.80193e+07
       717.10000  3.69173e-07  1.80083e+07
       717.20000  3.69173e-07  1.79972e+07
       717.30000  3.69173e-07  1.79861e+07
       717.40000  3.69173e-07  1.79750e+07
       717.50000  4.51173e-07  2.19541e+07
       717.60000  4.51173e-07  2.19360e+07
       717.70000  4.51173e-07  2.19225e+07
       717.80000  4.51173e-07  2.19044e+07
       717.90000  4.51173e-07  2.18864e+07
       718.00000  4.51173e-07  2.18684e+07
       718.10000  4.51173e-07  2.18503e+07
       718.20000  4.51173e-07  2.18323e+07
       718.30000  4.51173e-07  2.18142e+07
       718.40000  4.51173e-07  2.17917e+07
       718.50000  4.80012e-07  2.31654e+07
       718.60000  4.80012e-07  2.31414e+07
       718.70000  4.80012e-07  2.31174e+07
       718.80000  4.74248e-07  2.28161e+07
       718.90000  4.74248e-07  2.27924e+07
       719.00000  4.74248e-07  2.27687e+07
       719.10000  4.74248e-07  2.27687e+07
       719.20000  4.74248e-07  2.27687e+07
       719.30000  4.74248e-07  2.27687e+07
       719.40000  4.74248e-07  2.27734e+07
       719.50000  4.47543e-07  2.14910e+07
       719.60000  4.47543e-07  2.14955e+07
       719.70000  4.47543e-07  2.14955e+07
       719.80000  4.47543e-07  2.15000e+07
       719.90000  4.47543e-07  2.15044e+07
       720.00000  4.47543e-07  2.15134e+07
       720.10000  4.47543e-07  2.15179e+07
       720.20000  4.47543e-07  2.15223e+07
       720.30000  4.47543e-07  2.15313e+07
       720.40000  4.47543e-07  2.15358e+07
       720.50000  4.07615e-07  1.96226e+07
       720.60000  4.07615e-07  1.96307e+07
       720.70000  4.07615e-07  1.96389e+07
       720.80000  4.07615e-07  1.96470e+07
       720.90000  4.07615e-07  1.96593e+07
       721.00000  4.07615e-07  1.96674e+07
       721.10000  4.07615e-07  1.96878e+07
       721.20000  4.07615e-07  1.97082e+07
       721.30000  4.03018e-07  1.95061e+07
       721.40000  4.03018e-07  1.95222e+07
       721.50000  3.74816e-07  1.81748e+07
       721.60000  3.74816e-07  1.81898e+07
       721.70000  3.74816e-07  1.82048e+07
       721.80000  3.74816e-07  1.82235e+07
       721.90000  3.74816e-07  1.82385e+07
       722.00000  3.74816e-07  1.82498e+07
       722.10000  3.74816e-07  1.82648e+07
       722.20000  3.74816e-07  1.82798e+07
       722.30000  3.74816e-07  1.82910e+07
       722.40000  3.74816e-07  1.83022e+07
       722.50000  3.52086e-07  1.72029e+07
       722.60000  3.52086e-07  1.72170e+07
       722.70000  3.52086e-07  1.72240e+07
       722.80000  3.52086e-07  1.72346e+07
       722.90000  3.52086e-07  1.72452e+07
       723.00000  3.52086e-07  1.72522e+07
       723.10000  3.52086e-07  1.72628e+07
       723.20000  3.52086e-07  1.72698e+07
       723.30000  3.52086e-07  1.72768e+07
       723.40000  3.52086e-07  1.72839e+07
       723.50000  3.62724e-07  1.78134e+07
       723.60000  3.62724e-07  1.78170e+07
       723.70000  3.62724e-07  1.78243e+07
       723.80000  3.58630e-07  1.76266e+07
       723.90000  3.58630e-07  1.76302e+07
       724.00000  3.58630e-07  1.76338e+07
       724.10000  3.58630e-07  1.76374e+07
       724.20000  3.58630e-07  1.76410e+07
       724.30000  3.58630e-07  1.76446e+07
       724.40000  3.58630e-07  1.76482e+07
       724.50000  3.49628e-07  1.72052e+07
       724.60000  3.49628e-07  1.72052e+07
       724.70000  3.49628e-07  1.72052e+07
       724.80000  3.49628e-07  1.72052e+07
       724.90000  3.49628e-07  1.72052e+07
       725.00000  3.49628e-07  1.72052e+07
       725.10000  3.49628e-07  1.72122e+07
       725.20000  3.49628e-07  1.72192e+07
       725.30000  3.49628e-07  1.72227e+07
       725.40000  3.49628e-07  1.72297e+07
       725.50000  4.30889e-07  2.12385e+07
       725.60000  4.30889e-07  2.12428e+07
       725.70000  4.30889e-07  2.12428e+07
       725.80000  4.30889e-07  2.12471e+07
       725.90000  4.30889e-07  2.12471e+07
       726.00000  4.30889e-07  2.12471e+07
       726.10000  4.30889e-07  2.12471e+07
       726.20000  4.30889e-07  2.12471e+07
       726.30000  4.26084e-07  2.10059e+07
       726.40000  4.26084e-07  2.10017e+07
       726.50000  3.83198e-07  1.88840e+07
       726.60000  3.83198e-07  1.88802e+07
       726.70000  3.83198e-07  1.88763e+07
       726.80000  3.83198e-07  1.88687e+07
       726.90000  3.83198e-07  1.88610e+07
       727.00000  3.83198e-07  1.88533e+07
       727.10000  3.83198e-07  1.88265e+07
       727.20000  3.83198e-07  1.87997e+07
       727.30000  3.83198e-07  1.87729e+07
       727.40000  3.83198e-07  1.87499e+07
       727.50000  3.40452e-07  1.66379e+07
       727.60000  3.40452e-07  1.66175e+07
       727.70000  3.40452e-07  1.66005e+07
       727.80000  3.40452e-07  1.65834e+07
       727.90000  3.40452e-07  1.65664e+07
       728.00000  3.40452e-07  1.65528e+07
       728.10000  3.40452e-07  1.65392e+07
       728.20000  3.40452e-07  1.65256e+07
       728.30000  3.40452e-07  1.65119e+07
       728.40000  3.40452e-07  1.65017e+07
       728.50000  3.51284e-07  1.70162e+07
       728.60000  3.51284e-07  1.70092e+07
       728.70000  3.51284e-07  1.69986e+07
       728.80000  3.47366e-07  1.68056e+07
       728.90000  3.47366e-07  1.67986e+07
       729.00000  3.47366e-07  1.67952e+07
       729.10000  3.47366e-07  1.67917e+07
       729.20000  3.47366e-07  1.67882e+07
       729.30000  3.47366e-07  1.67882e+07
       729.40000  3.47366e-07  1.67847e+07
       729.50000  5.18585e-07  2.50632e+07
       729.60000  5.18585e-07  2.50632e+07
       729.70000  5.18585e-07  2.50684e+07
       729.80000  5.18585e-07  2.50736e+07
       729.90000  5.18585e-07  2.50840e+07
       730.00000  5.18585e-07  2.50943e+07
       730.10000  5.18585e-07  2.51047e+07
       730.20000  5.18585e-07  2.51151e+07
       730.30000  5.18585e-07  2.51306e+07
       730.40000  5.18585e-07  2.51462e+07
       730.50000  4.04203e-07  1.96119e+07
       730.60000  4.04203e-07  1.96281e+07
       730.70000  4.04203e-07  1.96443e+07
       730.80000  4.04203e-07  1.96605e+07
       730.90000  4.04203e-07  1.96807e+07
       731.00000  4.04203e-07  1.97009e+07
       731.10000  4.04203e-07  1.96968e+07
       731.20000  4.04203e-07  1.96928e+07
       731.30000  3.99193e-07  1.94447e+07
       731.40000  3.99193e-07  1.94447e+07
       731.50000  4.38190e-07  2.13399e+07
       731.60000  4.38190e-07  2.13355e+07
       731.70000  4.38190e-07  2.13311e+07
       731.80000  4.38190e-07  2.13311e+07
       731.90000  4.38190e-07  2.13267e+07
       732.00000  4.38190e-07  2.13223e+07
       732.10000  4.38190e-07  2.13180e+07
       732.20000  4.38190e-07  2.13136e+07
       732.30000  4.38190e-07  2.13136e+07
       732.40000  4.38190e-07  2.13092e+07
       732.50000  4.30118e-07  2.09123e+07
       732.60000  4.30118e-07  2.09080e+07
       732.70000  4.30118e-07  2.09037e+07
       732.80000  4.30118e-07  2.08994e+07
       732.90000  4.30118e-07  2.08951e+07
       733.00000  4.30118e-07  2.08908e+07
       733.10000  4.30118e-07  2.08865e+07
       733.20000  4.30118e-07  2.08779e+07
       733.30000  4.30118e-07  2.08736e+07
       733.40000  4.30118e-07  2.08650e+07
       733.50000  3.62705e-07  1.75912e+07
       733.60000  3.62705e-07  1.75876e+07
       733.70000  3.62705e-07  1.75803e+07
       733.80000  3.57729e-07  1.73355e+07
       733.90000  3.57729e-07  1.73319e+07
       734.00000  3.57729e-07  1.73284e+07
       734.10000  3.57729e-07  1.73248e+07
       734.20000  3.57729e-07  1.73212e+07
       734.30000  3.57729e-07  1.73176e+07
       734.40000  3.57729e-07  1.73176e+07
       734.50000  3.57865e-07  1.73207e+07
       734.60000  3.57865e-07  1.73171e+07
       734.70000  3.57865e-07  1.73171e+07
       734.80000  3.57865e-07  1.73135e+07
       734.90000  3.57865e-07  1.73135e+07
       735.00000  3.57865e-07  1.73100e+07
       735.10000  3.57865e-07  1.73100e+07
       735.20000  3.57865e-07  1.73100e+07
       735.30000  3.57865e-07  1.73100e+07
       735.40000  3.57865e-07  1.73064e+07
       735.50000  4.66020e-07  2.25367e+07
       735.60000  4.66020e-07  2.25367e+07
       735.70000  4.66020e-07  2.25367e+07
       735.80000  4.66020e-07  2.25414e+07
       735.90000  4.66020e-07  2.25414e+07
       736.00000  4.66020e-07  2.25414e+07
       736.10000  4.66020e-07  2.25414e+07
       736.20000  4.66020e-07  2.25461e+07
       736.30000  4.58684e-07  2.21911e+07
       736.40000  4.58684e-07  2.21957e+07
       736.50000  4.26384e-07  2.06327e+07
       736.60000  4.26384e-07  2.06370e+07
       736.70000  4.26384e-07  2.06412e+07
       736.80000  4.26384e-07  2.06412e+07
       736.90000  4.26384e-07  2.06455e+07
       737.00000  4.26384e-07  2.06498e+07
       737.10000  4.26384e-07  2.06284e+07
       737.20000  4.26384e-07  2.06029e+07
       737.30000  4.26384e-07  2.05815e+07
       737.40000  4.26384e-07  2.05602e+07
       737.50000  4.06339e-07  1.95693e+07
       737.60000  4.06339e-07  1.95490e+07
       737.70000  4.06339e-07  1.95287e+07
       737.80000  4.06339e-07  1.95084e+07
       737.90000  4.06339e-07  1.94921e+07
       738.00000  4.06339e-07  1.94718e+07
       738.10000  4.06339e-07  1.94515e+07
       738.20000  4.06339e-07  1.94312e+07
       738.30000  4.06339e-07  1.94149e+07
       738.40000  4.06339e-07  1.93986e+07
       738.50000  4.37920e-07  2.08844e+07
       738.60000  4.37920e-07  2.08669e+07
       738.70000  4.37920e-07  2.08494e+07
       738.80000  4.30385e-07  2.04734e+07
       738.90000  4.30385e-07  2.04562e+07
       739.00000  4.30385e-07  2.04390e+07
       739.10000  4.30385e-07  2.04046e+07
       739.20000  4.30385e-07  2.03744e+07
       739.30000  4.30385e-07  2.03486e+07
       739.40000  4.30385e-07  2.03228e+07
       739.50000  4.95539e-07  2.33696e+07
       739.60000  4.95539e-07  2.33449e+07
       739.70000  4.95539e-07  2.33250e+07
       739.80000  4.95539e-07  2.33003e+07
       739.90000  4.95539e-07  2.32854e+07
       740.00000  4.95539e-07  2.32656e+07
       740.10000  4.95539e-07  2.32557e+07
       740.20000  4.95539e-07  2.32408e+07
       740.30000  4.95539e-07  2.32309e+07
       740.40000  4.95539e-07  2.32259e+07
       740.50000  4.38429e-07  2.05448e+07
       740.60000  4.38429e-07  2.05404e+07
       740.70000  4.38429e-07  2.05404e+07
       740.80000  4.38429e-07  2.05404e+07
       740.90000  4.38429e-07  2.05448e+07
       741.00000  4.38429e-07  2.05492e+07
       741.10000  4.38429e-07  2.05579e+07
       741.20000  4.38429e-07  2.05667e+07
       741.30000  4.30850e-07  2.02198e+07
       741.40000  4.30850e-07  2.02327e+07
       741.50000  3.66078e-07  1.72020e+07
       741.60000  3.66078e-07  1.72166e+07
       741.70000  3.66078e-07  1.72349e+07
       741.80000  3.66078e-07  1.72496e+07
       741.90000  3.66078e-07  1.72716e+07
       742.00000  3.66078e-07  1.72899e+07
       742.10000  3.66078e-07  1.73118e+07
       742.20000  3.66078e-07  1.73374e+07
       742.30000  3.66078e-07  1.73631e+07
       742.40000  3.66078e-07  1.73887e+07
       742.50000  4.19146e-07  1.99430e+07
       742.60000  4.19146e-07  1.99765e+07
       742.70000  4.19146e-07  2.00142e+07
       742.80000  4.19146e-07  2.00519e+07
       742.90000  4.19146e-07  2.00938e+07
       743.00000  4.19146e-07  2.01358e+07
       743.10000  4.19146e-07  2.01274e+07
       743.20000  4.19146e-07  2.01232e+07
       743.30000  4.19146e-07  2.01190e+07
       743.40000  4.19146e-07  2.01106e+07
       743.50000  2.90967e-07  1.39577e+07
       743.60000  2.90967e-07  1.39548e+07
       743.70000  2.90967e-07  1.39519e+07
       743.80000  2.86477e-07  1.37337e+07
       743.90000  2.86477e-07  1.37308e+07
       744.00000  2.86477e-07  1.37280e+07
       744.10000  2.86477e-07  1.37280e+07
       744.20000  2.86477e-07  1.37251e+07
       744.30000  2.86477e-07  1.37251e+07
       744.40000  2.86477e-07  1.37251e+07
       744.50000  3.55767e-07  1.70412e+07
       744.60000  3.55767e-07  1.70412e+07
       744.70000  3.55767e-07  1.70412e+07
       744.80000  3.55767e-07  1.70412e+07
       744.90000  3.55767e-07  1.70448e+07
       745.00000  3.55767e-07  1.70448e+07
       745.10000  3.55767e-07  1.70555e+07
       745.20000  3.55767e-07  1.70661e+07
       745.30000  3.55767e-07  1.70732e+07
       745.40000  3.55767e-07  1.70839e+07
       745.50000  4.96994e-07  2.38756e+07
       745.60000  4.96994e-07  2.38855e+07
       745.70000  4.96994e-07  2.38955e+07
       745.80000  4.96994e-07  2.39054e+07
       745.90000  4.96994e-07  2.39104e+07
       746.00000  4.96994e-07  2.39203e+07
       746.10000  4.96994e-07  2.39253e+07
       746.20000  4.96994e-07  2.39302e+07
       746.30000  4.91287e-07  2.36604e+07
       746.40000  4.91287e-07  2.36653e+07
       746.50000  3.98850e-07  1.92166e+07
       746.60000  3.98850e-07  1.92166e+07
       746.70000  3.98850e-07  1.92206e+07
       746.80000  3.98850e-07  1.92206e+07
       746.90000  3.98850e-07  1.92206e+07
       747.00000  3.98850e-07  1.92206e+07
       747.10000  3.98850e-07  1.92086e+07
       747.20000  3.98850e-07  1.92007e+07
       747.30000  3.98850e-07  1.91927e+07
       747.40000  3.98850e-07  1.91847e+07
       747.50000  4.75347e-07  2.28547e+07
       747.60000  4.75347e-07  2.28452e+07
       747.70000  4.75347e-07  2.28357e+07
       747.80000  4.75347e-07  2.28262e+07
       747.90000  4.75347e-07  2.28167e+07
       748.00000  4.75347e-07  2.28072e+07
       748.10000  4.75347e-07  2.28024e+07
       748.20000  4.75347e-07  2.27929e+07
       748.30000  4.75347e-07  2.27834e+07
       748.40000  4.75347e-07  2.27786e+07
       748.50000  4.87470e-07  2.33498e+07
       748.60000  4.87470e-07  2.33401e+07
       748.70000  4.87470e-07  2.33352e+07
       748.80000  4.81904e-07  2.30591e+07
       748.90000  4.81904e-07  2.30543e+07
       749.00000  4.81904e-07  2.30495e+07
       749.10000  4.81904e-07  2.30398e+07
       749.20000  4.81904e-07  2.30350e+07
       749.30000  4.81904e-07  2.30302e+07
       749.40000  4.81904e-07  2.30254e+07
       749.50000  4.36468e-07  2.08501e+07
       749.60000  4.36468e-07  2.08457e+07
       749.70000  4.36468e-07  2.08370e+07
       749.80000  4.36468e-07  2.08326e+07
       749.90000  4.36468e-07  2.08326e+07
       750.00000  4.36468e-07  2.08282e+07
       750.10000  4.36468e-07  2.08239e+07
       750.20000  4.36468e-07  2.08195e+07
       750.30000  4.36468e-07  2.08151e+07
       750.40000  4.36468e-07  2.08151e+07
       750.50000  4.22708e-07  2.01547e+07
       750.60000  4.22708e-07  2.01505e+07
       750.70000  4.22708e-07  2.01505e+07
       750.80000  4.22708e-07  2.01463e+07
       750.90000  4.22708e-07  2.01463e+07
       751.00000  4.22708e-07  2.01420e+07
       751.10000  4.22708e-07  2.01420e+07
       751.20000  4.22708e-07  2.01420e+07
       751.30000  4.17286e-07  1.98795e+07
       751.40000  4.17286e-07  1.98795e+07
       751.50000  3.93812e-07  1.87612e+07
       751.60000  3.93812e-07  1.87612e+07
       751.70000  3.93812e-07  1.87612e+07
       751.80000  3.93812e-07  1.87612e+07
       751.90000  3.93812e-07  1.87612e+07
       752.00000  3.93812e-07  1.87612e+07
       752.10000  3.93812e-07  1.87612e+07
       752.20000  3.93812e-07  1.87612e+07
       752.30000  3.93812e-07  1.87612e+07
       752.40000  3.93812e-07  1.87612e+07
       752.50000  3.74787e-07  1.78586e+07
       752.60000  3.74787e-07  1.78586e+07
       752.70000  3.74787e-07  1.78586e+07
       752.80000  3.74787e-07  1.78623e+07
       752.90000  3.74787e-07  1.78623e+07
       753.00000  3.74787e-07  1.78661e+07
       753.10000  3.74787e-07  1.78661e+07
       753.20000  3.74787e-07  1.78661e+07
       753.30000  3.74787e-07  1.78661e+07
       753.40000  3.74787e-07  1.78661e+07
       753.50000  3.97873e-07  1.89666e+07
       753.60000  3.97873e-07  1.89666e+07
       753.70000  3.97873e-07  1.89666e+07
       753.80000  3.92272e-07  1.86996e+07
       753.90000  3.92272e-07  1.86996e+07
       754.00000  3.92272e-07  1.86996e+07
       754.10000  3.92272e-07  1.86996e+07
       754.20000  3.92272e-07  1.86957e+07
       754.30000  3.92272e-07  1.86957e+07
       754.40000  3.92272e-07  1.86957e+07
       754.50000  4.24979e-07  2.02545e+07
       754.60000  4.24979e-07  2.02545e+07
       754.70000  4.24979e-07  2.02502e+07
       754.80000  4.24979e-07  2.02502e+07
       754.90000  4.24979e-07  2.02460e+07
       755.00000  4.24979e-07  2.02460e+07
       755.10000  4.24979e-07  2.02418e+07
       755.20000  4.24979e-07  2.02418e+07
       755.30000  4.24979e-07  2.02375e+07
       755.40000  4.24979e-07  2.02375e+07
       755.50000  4.27380e-07  2.03475e+07
       755.60000  4.27380e-07  2.03433e+07
       755.70000  4.27380e-07  2.03433e+07
       755.80000  4.27380e-07  2.03390e+07
       755.90000  4.27380e-07  2.03347e+07
       756.00000  4.27380e-07  2.03347e+07
       756.10000  4.27380e-07  2.03304e+07
       756.20000  4.27380e-07  2.03262e+07
       756.30000  4.21231e-07  2.00296e+07
       756.40000  4.21231e-07  2.00296e+07
       756.50000  3.58371e-07  1.70369e+07
       756.60000  3.58371e-07  1.70334e+07
       756.70000  3.58371e-07  1.70298e+07
       756.80000  3.58371e-07  1.70298e+07
       756.90000  3.58371e-07  1.70262e+07
       757.00000  3.58371e-07  1.70226e+07
       757.10000  3.58371e-07  1.70190e+07
       757.20000  3.58371e-07  1.70154e+07
       757.30000  3.58371e-07  1.70154e+07
       757.40000  3.58371e-07  1.70118e+07
       757.50000  4.18585e-07  1.98660e+07
       757.60000  4.18585e-07  1.98619e+07
       757.70000  4.18585e-07  1.98577e+07
       757.80000  4.18585e-07  1.98535e+07
       757.90000  4.18585e-07  1.98493e+07
       758.00000  4.18585e-07  1.98493e+07
       758.10000  4.18585e-07  1.98451e+07
       758.20000  4.18585e-07  1.98409e+07
       758.30000  4.18585e-07  1.98367e+07
       758.40000  4.18585e-07  1.98326e+07
       758.50000  4.10303e-07  1.94361e+07
       758.60000  4.10303e-07  1.94320e+07
       758.70000  4.10303e-07  1.94279e+07
       758.80000  4.03042e-07  1.90800e+07
       758.90000  4.03042e-07  1.90760e+07
       759.00000  4.03042e-07  1.90720e+07
       759.10000  4.03042e-07  1.90720e+07
       759.20000  4.03042e-07  1.90679e+07
       759.30000  4.03042e-07  1.90679e+07
       759.40000  4.03042e-07  1.90639e+07
       759.50000  4.16759e-07  1.97127e+07
       759.60000  4.16759e-07  1.97127e+07
       759.70000  4.16759e-07  1.97085e+07
       759.80000  4.16759e-07  1.97085e+07
       759.90000  4.16759e-07  1.97085e+07
       760.00000  4.16759e-07  1.97085e+07
       760.10000  4.16759e-07  1.97085e+07
       760.20000  4.16759e-07  1.97085e+07
       760.30000  4.16759e-07  1.97127e+07
       760.40000  4.16759e-07  1.97127e+07
       760.50000  4.04280e-07  1.91225e+07
       760.60000  4.04280e-07  1.91265e+07
       760.70000  4.04280e-07  1.91265e+07
       760.80000  4.04280e-07  1.91305e+07
       760.90000  4.04280e-07  1.91305e+07
       761.00000  4.04280e-07  1.91346e+07
       761.10000  4.04280e-07  1.91508e+07
       761.20000  4.04280e-07  1.91629e+07
       761.30000  3.95948e-07  1.87798e+07
       761.40000  3.95948e-07  1.87917e+07
       761.50000  3.87789e-07  1.84161e+07
       761.60000  3.87789e-07  1.84239e+07
       761.70000  3.87789e-07  1.84316e+07
       761.80000  3.87789e-07  1.84394e+07
       761.90000  3.87789e-07  1.84471e+07
       762.00000  3.87789e-07  1.84510e+07
       762.10000  3.87789e-07  1.84588e+07
       762.20000  3.87789e-07  1.84627e+07
       762.30000  3.87789e-07  1.84665e+07
       762.40000  3.87789e-07  1.84665e+07
       762.50000  4.27289e-07  2.03475e+07
       762.60000  4.27289e-07  2.03518e+07
       762.70000  4.27289e-07  2.03518e+07
       762.80000  4.27289e-07  2.03475e+07
       762.90000  4.27289e-07  2.03475e+07
       763.00000  4.27289e-07  2.03432e+07
       763.10000  4.27289e-07  2.03389e+07
       763.20000  4.27289e-07  2.03347e+07
       763.30000  4.27289e-07  2.03261e+07
       763.40000  4.27289e-07  2.03176e+07
       763.50000  5.42678e-07  2.57935e+07
       763.60000  5.42678e-07  2.57826e+07
       763.70000  5.42678e-07  2.57718e+07
       763.80000  5.29110e-07  2.51116e+07
       763.90000  5.29110e-07  2.50957e+07
       764.00000  5.29110e-07  2.50798e+07
       764.10000  5.29110e-07  2.50639e+07
       764.20000  5.29110e-07  2.50428e+07
       764.30000  5.29110e-07  2.50216e+07
       764.40000  5.29110e-07  2.50004e+07
       764.50000  4.52063e-07  2.13419e+07
       764.60000  4.52063e-07  2.13238e+07
       764.70000  4.52063e-07  2.13012e+07
       764.80000  4.52063e-07  2.12786e+07
       764.90000  4.52063e-07  2.12560e+07
       765.00000  4.52063e-07  2.12289e+07
       765.10000  4.52063e-07  2.11792e+07
       765.20000  4.52063e-07  2.11294e+07
       765.30000  4.52063e-07  2.10842e+07
       765.40000  4.52063e-07  2.10390e+07
       765.50000  4.95154e-07  2.29999e+07
       765.60000  4.95154e-07  2.29603e+07
       765.70000  4.95154e-07  2.29157e+07
       765.80000  4.95154e-07  2.28810e+07
       765.90000  4.95154e-07  2.28464e+07
       766.00000  4.95154e-07  2.28117e+07
       766.10000  4.95154e-07  2.27820e+07
       766.20000  4.95154e-07  2.27523e+07
       766.30000  4.82930e-07  2.21665e+07
       766.40000  4.82930e-07  2.21472e+07
       766.50000  5.34558e-07  2.44935e+07
       766.60000  5.34558e-07  2.44721e+07
       766.70000  5.34558e-07  2.44614e+07
       766.80000  5.34558e-07  2.44454e+07
       766.90000  5.34558e-07  2.44347e+07
       767.00000  5.34558e-07  2.44293e+07
       767.10000  5.34558e-07  2.44560e+07
       767.20000  5.34558e-07  2.44881e+07
       767.30000  5.34558e-07  2.45149e+07
       767.40000  5.34558e-07  2.45416e+07
       767.50000  6.19813e-07  2.84866e+07
       767.60000  6.19813e-07  2.85176e+07
       767.70000  6.19813e-07  2.85486e+07
       767.80000  6.19813e-07  2.85734e+07
       767.90000  6.19813e-07  2.86044e+07
       768.00000  6.19813e-07  2.86292e+07
       768.10000  6.19813e-07  2.86540e+07
       768.20000  6.19813e-07  2.86788e+07
       768.30000  6.19813e-07  2.86974e+07
       768.40000  6.19813e-07  2.87222e+07
       768.50000  7.64800e-07  3.54638e+07
       768.60000  7.64800e-07  3.54867e+07
       768.70000  7.64800e-07  3.55096e+07
       768.80000  7.47407e-07  3.47245e+07
       768.90000  7.47407e-07  3.47469e+07
       769.00000  7.47407e-07  3.47619e+07
       769.10000  7.47407e-07  3.47843e+07
       769.20000  7.47407e-07  3.47993e+07
       769.30000  7.47407e-07  3.48142e+07
       769.40000  7.47407e-07  3.48292e+07
       769.50000  8.26829e-07  3.85385e+07
       769.60000  8.26829e-07  3.85550e+07
       769.70000  8.26829e-07  3.85633e+07
       769.80000  8.26829e-07  3.85799e+07
       769.90000  8.26829e-07  3.85881e+07
       770.00000  8.26829e-07  3.85881e+07
       770.10000  8.26829e-07  3.85964e+07
       770.20000  8.26829e-07  3.86047e+07
       770.30000  8.26829e-07  3.86047e+07
       770.40000  8.26829e-07  3.86047e+07
       770.50000  8.59468e-07  4.01285e+07
       770.60000  8.59468e-07  4.01285e+07
       770.70000  8.59468e-07  4.01285e+07
       770.80000  8.59468e-07  4.01285e+07
       770.90000  8.59468e-07  4.01199e+07
       771.00000  8.59468e-07  4.01114e+07
       771.10000  8.59468e-07  4.01457e+07
       771.20000  8.59468e-07  4.01715e+07
       771.30000  8.43266e-07  3.94395e+07
       771.40000  8.43266e-07  3.94648e+07
       771.50000  1.00213e-06  4.69298e+07
       771.60000  1.00213e-06  4.69499e+07
       771.70000  1.00213e-06  4.69799e+07
       771.80000  1.00213e-06  4.70000e+07
       771.90000  1.00213e-06  4.70100e+07
       772.00000  1.00213e-06  4.70300e+07
       772.10000  1.00213e-06  4.70401e+07
       772.20000  1.00213e-06  4.70501e+07
       772.30000  1.00213e-06  4.70601e+07
       772.40000  1.00213e-06  4.70701e+07
       772.50000  1.18144e-06  5.54922e+07
       772.60000  1.18144e-06  5.54922e+07
       772.70000  1.18144e-06  5.54922e+07
       772.80000  1.18144e-06  5.54804e+07
       772.90000  1.18144e-06  5.54804e+07
       773.00000  1.18144e-06  5.54686e+07
       773.10000  1.18144e-06  5.53977e+07
       773.20000  1.18144e-06  5.53386e+07
       773.30000  1.18144e-06  5.52678e+07
       773.40000  1.18144e-06  5.52087e+07
       773.50000  1.17581e-06  5.48868e+07
       773.60000  1.17581e-06  5.48398e+07
       773.70000  1.17581e-06  5.47927e+07
       773.80000  1.15746e-06  5.38912e+07
       773.90000  1.15746e-06  5.38449e+07
       774.00000  1.15746e-06  5.37986e+07
       774.10000  1.15746e-06  5.37639e+07
       774.20000  1.15746e-06  5.37291e+07
       774.30000  1.15746e-06  5.37060e+07
       774.40000  1.15746e-06  5.36713e+07
       774.50000  2.30385e-06  1.06783e+08
       774.60000  2.30385e-06  1.06760e+08
       774.70000  2.30385e-06  1.06714e+08
       774.80000  2.30385e-06  1.06691e+08
       774.90000  2.30385e-06  1.06668e+08
       775.00000  2.30385e-06  1.06645e+08
       775.10000  2.30385e-06  1.06645e+08
       775.20000  2.30385e-06  1.06645e+08
       775.30000  2.30385e-06  1.06645e+08
       775.40000  2.30385e-06  1.06645e+08
       775.50000  2.29297e-06  1.06165e+08
       775.60000  2.29297e-06  1.06187e+08
       775.70000  2.29297e-06  1.06210e+08
       775.80000  2.29297e-06  1.06233e+08
       775.90000  2.29297e-06  1.06279e+08
       776.00000  2.29297e-06  1.06325e+08
       776.10000  2.29297e-06  1.06371e+08
       776.20000  2.29297e-06  1.06440e+08
       776.30000  2.25978e-06  1.04967e+08
       776.40000  2.25978e-06  1.05034e+08
       776.50000  2.24898e-06  1.04600e+08
       776.60000  2.24898e-06  1.04690e+08
       776.70000  2.24898e-06  1.04780e+08
       776.80000  2.24898e-06  1.04870e+08
       776.90000  2.24898e-06  1.04982e+08
       777.00000  2.24898e-06  1.05072e+08
       777.10000  2.24898e-06  1.05027e+08
       777.20000  2.24898e-06  1.05005e+08
       777.30000  2.24898e-06  1.04960e+08
       777.40000  2.24898e-06  1.04915e+08
       777.50000  3.35999e-06  1.56676e+08
       777.60000  3.35999e-06  1.56643e+08
       777.70000  3.35999e-06  1.56575e+08
       777.80000  3.35999e-06  1.56542e+08
       777.90000  3.35999e-06  1.56508e+08
       778.00000  3.35999e-06  1.56441e+08
       778.10000  3.35999e-06  1.56407e+08
       778.20000  3.35999e-06  1.56374e+08
       778.30000  3.35999e-06  1.56340e+08
       778.40000  3.35999e-06  1.56307e+08
       778.50000  4.45799e-06  2.07385e+08
       778.60000  4.45799e-06  2.07341e+08
       778.70000  4.45799e-06  2.07296e+08
       778.80000  4.40772e-06  2.04959e+08
       778.90000  4.40772e-06  2.04959e+08
       779.00000  4.40772e-06  2.04915e+08
       779.10000  4.40772e-06  2.05003e+08
       779.20000  4.40772e-06  2.05047e+08
       779.30000  4.40772e-06  2.05135e+08
       779.40000  4.40772e-06  2.05179e+08
       779.50000  5.47584e-06  2.54955e+08
       779.60000  5.47584e-06  2.55010e+08
       779.70000  5.47584e-06  2.55065e+08
       779.80000  5.47584e-06  2.55119e+08
       779.90000  5.47584e-06  2.55174e+08
       780.00000  5.47584e-06  2.55229e+08
       780.10000  5.47584e-06  2.55229e+08
       780.20000  5.47584e-06  2.55284e+08
       780.30000  5.47584e-06  2.55284e+08
       780.40000  5.47584e-06  2.55284e+08
       780.50000  6.54265e-06  3.05018e+08
       780.60000  6.54265e-06  3.05018e+08
       780.70000  6.54265e-06  3.05018e+08
       780.80000  6.54265e-06  3.05018e+08
       780.90000  6.54265e-06  3.05018e+08
       781.00000  6.54265e-06  3.04953e+08
       781.10000  6.54265e-06  3.04953e+08
       781.20000  6.54265e-06  3.04887e+08
       781.30000  6.48363e-06  3.02072e+08
       781.40000  6.48363e-06  3.02007e+08
       781.50000  7.53081e-06  3.50710e+08
       781.60000  7.53081e-06  3.50634e+08
       781.70000  7.53081e-06  3.50559e+08
       781.80000  7.53081e-06  3.50484e+08
       781.90000  7.53081e-06  3.50333e+08
       782.00000  7.53081e-06  3.50258e+08
       782.10000  7.53081e-06  3.50107e+08
       782.20000  7.53081e-06  3.49957e+08
       782.30000  7.53081e-06  3.49881e+08
       782.40000  7.53081e-06  3.49731e+08
       782.50000  9.63928e-06  4.47455e+08
       782.60000  9.63928e-06  4.47166e+08
       782.70000  9.63928e-06  4.46973e+08
       782.80000  9.63928e-06  4.46781e+08
       782.90000  9.63928e-06  4.46491e+08
       783.00000  9.63928e-06  4.46299e+08
       783.10000  9.63928e-06  4.46491e+08
       783.20000  9.63928e-06  4.46684e+08
       783.30000  9.63928e-06  4.46877e+08
       783.40000  9.63928e-06  4.46973e+08
       783.50000  1.49050e-05  6.91443e+08
       783.60000  1.49050e-05  6.91741e+08
       783.70000  1.49050e-05  6.91890e+08
       783.80000  1.47691e-05  6.85875e+08
       783.90000  1.47691e-05  6.86170e+08
       784.00000  1.47691e-05  6.86318e+08
       784.10000  1.47691e-05  6.86466e+08
       784.20000  1.47691e-05  6.86761e+08
       784.30000  1.47691e-05  6.86909e+08
       784.40000  1.47691e-05  6.87056e+08
       784.50000  1.47109e-05  6.84498e+08
       784.60000  1.47109e-05  6.84645e+08
       784.70000  1.47109e-05  6.84792e+08
       784.80000  1.47109e-05  6.84940e+08
       784.90000  1.47109e-05  6.85087e+08
       785.00000  1.47109e-05  6.85087e+08
       785.10000  1.47109e-05  6.85087e+08
       785.20000  1.47109e-05  6.85087e+08
       785.30000  1.47109e-05  6.85087e+08
       785.40000  1.47109e-05  6.85087e+08
       785.50000  2.09176e-05  9.74131e+08
       785.60000  2.09176e-05  9.74131e+08
       785.70000  2.09176e-05  9.74131e+08
       785.80000  2.09176e-05  9.74131e+08
       785.90000  2.09176e-05  9.74131e+08
       786.00000  2.09176e-05  9.74131e+08
       786.10000  2.09176e-05  9.74131e+08
       786.20000  2.09176e-05  9.74131e+08
       786.30000  2.06712e-05  9.62657e+08
       786.40000  2.06712e-05  9.62657e+08
       786.50000  2.46703e-05  1.14890e+09
       786.60000  2.46703e-05  1.14890e+09
       786.70000  2.46703e-05  1.14890e+09
       786.80000  2.46703e-05  1.14890e+09
       786.90000  2.46703e-05  1.14890e+09
       787.00000  2.46703e-05  1.14890e+09
       787.10000  2.46703e-05  1.14890e+09
       787.20000  2.46703e-05  1.14890e+09
       787.30000  2.46703e-05  1.14890e+09
       787.40000  2.46703e-05  1.14890e+09
       787.50000  2.97217e-05  1.38414e+09
       787.60000  2.97217e-05  1.38414e+09
       787.70000  2.97217e-05  1.38414e+09
       787.80000  2.97217e-05  1.38414e+09
       787.90000  2.97217e-05  1.38414e+09
       788.00000  2.97217e-05  1.38414e+09
       788.10000  2.97217e-05  1.38414e+09
       788.20000  2.97217e-05  1.38414e+09
       788.30000  2.97217e-05  1.38414e+09
       788.40000  2.97217e-05  1.38414e+09
       788.50000  3.55860e-05  1.65724e+09
       788.60000  3.55860e-05  1.65724e+09
       788.70000  3.55860e-05  1.65724e+09
       788.80000  3.51523e-05  1.63704e+09
       788.90000  3.51523e-05  1.63704e+09
       789.00000  3.51523e-05  1.63704e+09
       789.10000  3.51523e-05  1.63634e+09
       789.20000  3.51523e-05  1.63528e+09
       789.30000  3.51523e-05  1.63423e+09
       789.40000  3.51523e-05  1.63353e+09
       789.50000  4.60409e-05  2.13814e+09
       789.60000  4.60409e-05  2.13676e+09
       789.70000  4.60409e-05  2.13584e+09
       789.80000  4.60409e-05  2.13446e+09
       789.90000  4.60409e-05  2.13308e+09
       790.00000  4.60409e-05  2.13215e+09
       790.10000  4.60409e-05  2.13077e+09
       790.20000  4.60409e-05  2.12985e+09
       790.30000  4.60409e-05  2.12847e+09
       790.40000  4.60409e-05  2.12755e+09
       790.50000  5.67013e-05  2.61847e+09
       790.60000  5.67013e-05  2.61677e+09
       790.70000  5.67013e-05  2.61563e+09
       790.80000  5.67013e-05  2.61393e+09
       790.90000  5.67013e-05  2.61280e+09
       791.00000  5.67013e-05  2.61110e+09
       791.10000  5.67013e-05  2.60939e+09
       791.20000  5.67013e-05  2.60826e+09
       791.30000  5.58431e-05  2.56711e+09
       791.40000  5.58431e-05  2.56543e+09
       791.50000  7.11377e-05  3.26593e+09
       791.60000  7.11377e-05  3.26380e+09
       791.70000  7.11377e-05  3.26237e+09
       791.80000  7.11377e-05  3.26024e+09
       791.90000  7.11377e-05  3.25882e+09
       792.00000  7.11377e-05  3.25668e+09
       792.10000  7.11377e-05  3.25526e+09
       792.20000  7.11377e-05  3.25384e+09
       792.30000  7.11377e-05  3.25170e+09
       792.40000  7.11377e-05  3.25028e+09
       792.50000  8.82241e-05  4.02919e+09
       792.60000  8.82241e-05  4.02743e+09
       792.70000  8.82241e-05  4.02566e+09
       792.80000  8.82241e-05  4.02390e+09
       792.90000  8.82241e-05  4.02214e+09
       793.00000  8.82241e-05  4.02037e+09
       793.10000  8.82241e-05  4.01772e+09
       793.20000  8.82241e-05  4.01420e+09
       793.30000  8.82241e-05  4.01155e+09
       793.40000  8.82241e-05  4.00890e+09
       793.50000  0.000115714  5.25458e+09
       793.60000  0.000115714  5.25226e+09
       793.70000  0.000115714  5.24879e+09
       793.80000  0.000113712  5.15686e+09
       793.90000  0.000113712  5.15458e+09
       794.00000  0.000113712  5.15345e+09
       794.10000  0.000113712  5.15117e+09
       794.20000  0.000113712  5.15117e+09
       794.30000  0.000113712  5.15004e+09
       794.40000  0.000113712  5.15004e+09
       794.50000  0.000144212  6.53137e+09
       794.60000  0.000144212  6.53137e+09
       794.70000  0.000144212  6.53281e+09
       794.80000  0.000144212  6.53281e+09
       794.90000  0.000144212  6.53426e+09
       795.00000  0.000144212  6.53714e+09
       795.10000  0.000144212  6.54723e+09
       795.20000  0.000144212  6.55733e+09
       795.30000  0.000144212  6.56742e+09
       795.40000  0.000144212  6.57752e+09
       795.50000  0.000186567  8.52050e+09
       795.60000  0.000186567  8.53169e+09
       795.70000  0.000186567  8.54102e+09
       795.80000  0.000186567  8.55034e+09
       795.90000  0.000186567  8.55967e+09
       796.00000  0.000186567  8.56714e+09
       796.10000  0.000186567  8.57460e+09
       796.20000  0.000186567  8.58206e+09
       796.30000  0.000182662  8.40795e+09
       796.40000  0.000182662  8.41343e+09
       796.50000  0.000241769  1.11431e+10
       796.60000  0.000241769  1.11479e+10
       796.70000  0.000241769  1.11528e+10
       796.80000  0.000241769  1.11552e+10
       796.90000  0.000241769  1.11576e+10
       797.00000  0.000241769  1.11600e+10
       797.10000  0.000241769  1.11625e+10
       797.20000  0.000241769  1.11625e+10
       797.30000  0.000241769  1.11625e+10
       797.40000  0.000241769  1.11600e+10
       797.50000  0.000311589  1.43798e+10
       797.60000  0.000311589  1.43767e+10
       797.70000  0.000311589  1.43705e+10
       797.80000  0.000311589  1.43642e+10
       797.90000  0.000311589  1.43580e+10
       798.00000  0.000311589  1.43487e+10
       798.10000  0.000311589  1.43393e+10
       798.20000  0.000311589  1.43300e+10
       798.30000  0.000311589  1.43175e+10
       798.40000  0.000311589  1.43050e+10
       798.50000  0.000413523  1.89683e+10
       798.60000  0.000413523  1.89476e+10
       798.70000  0.000413523  1.89269e+10
       798.80000  0.000403896  1.84661e+10
       798.90000  0.000403896  1.84419e+10
       799.00000  0.000403896  1.84177e+10
       799.10000  0.000403896  1.84298e+10
       799.20000  0.000403896  1.84459e+10
       799.30000  0.000403896  1.84621e+10
       799.40000  0.000403896  1.84742e+10
       799.50000  0.000541295  2.47751e+10
       799.60000  0.000541295  2.47913e+10
       799.70000  0.000541295  2.48076e+10
       799.80000  0.000541295  2.48184e+10
       799.90000  0.000541295  2.48292e+10
       800.00000  0.000541295  2.48400e+10
       800.10000  0.000541295  2.48509e+10
       800.20000  0.000541295  2.48617e+10
       800.30000  0.000541295  2.48725e+10
       800.40000  0.000541295  2.48779e+10
       800.50000  0.000727969  3.34647e+10
       800.60000  0.000727969  3.34720e+10
       800.70000  0.000727969  3.34720e+10
       800.80000  0.000727969  3.34793e+10
       800.90000  0.000727969  3.34793e+10
       801.00000  0.000727969  3.34793e+10
       801.10000  0.000727969  3.34647e+10
       801.20000  0.000727969  3.34502e+10
       801.30000  0.000711188  3.26649e+10
       801.40000  0.000711188  3.26506e+10
       801.50000  0.000952477  4.37092e+10
       801.60000  0.000952477  4.36901e+10
       801.70000  0.000952477  4.36711e+10
       801.80000  0.000952477  4.36520e+10
       801.90000  0.000952477  4.36330e+10
       802.00000  0.000952477  4.36139e+10
       802.10000  0.000952477  4.35949e+10
       802.20000  0.000952477  4.35758e+10
       802.30000  0.000952477  4.35568e+10
       802.40000  0.000952477  4.35377e+10
       802.50000   0.00129643  5.92338e+10
       802.60000   0.00129643  5.92079e+10
       802.70000   0.00129643  5.91819e+10
       802.80000   0.00129643  5.91431e+10
       802.90000   0.00129643  5.91171e+10
       803.00000   0.00129643  5.90912e+10
       803.10000   0.00129643  5.90653e+10
       803.20000   0.00129643  5.90393e+10
       803.30000   0.00129643  5.90134e+10
       803.40000   0.00129643  5.89745e+10
       803.50000   0.00177179  8.05632e+10
       803.60000   0.00177179  8.05277e+10
       803.70000   0.00177179  8.04923e+10
       803.80000   0.00173026  7.85713e+10
       803.90000   0.00173026  7.85193e+10
       804.00000   0.00173026  7.84847e+10
       804.10000   0.00173026  7.84501e+10
       804.20000   0.00173026  7.84155e+10
       804.30000   0.00173026  7.83636e+10
       804.40000   0.00173026  7.83290e+10
       804.50000   0.00238575  1.07955e+11
       804.60000   0.00238575  1.07883e+11
       804.70000   0.00238575  1.07836e+11
       804.80000   0.00238575  1.07788e+11
       804.90000   0.00238575  1.07716e+11
       805.00000   0.00238575  1.07669e+11
       805.10000   0.00238575  1.07764e+11
       805.20000   0.00238575  1.07883e+11
       805.30000   0.00238575  1.07955e+11
       805.40000   0.00238575  1.08050e+11
       805.50000   0.00329459  1.49311e+11
       805.60000   0.00329459  1.49410e+11
       805.70000   0.00329459  1.49508e+11
       805.80000   0.00329459  1.49574e+11
       805.90000   0.00329459  1.49640e+11
       806.00000   0.00329459  1.49706e+11
       806.10000   0.00329459  1.49739e+11
       806.20000   0.00329459  1.49772e+11
       806.30000   0.00321212  1.46055e+11
       806.40000   0.00321212  1.46087e+11
       806.50000   0.00446387  2.03017e+11
       806.60000   0.00446387  2.03017e+11
       806.70000   0.00446387  2.02972e+11
       806.80000   0.00446387  2.02972e+11
       806.90000   0.00446387  2.02928e+11
       807.00000   0.00446387  2.02838e+11
       807.10000   0.00446387  2.02481e+11
       807.20000   0.00446387  2.02079e+11
       807.30000   0.00446387  2.01722e+11
       807.40000   0.00446387  2.01410e+11
       807.50000   0.00625762  2.81906e+11
       807.60000   0.00625762  2.81468e+11
       807.70000   0.00625762  2.81092e+11
       807.80000   0.00625762  2.80780e+11
       807.90000   0.00625762  2.80467e+11
       808.00000   0.00625762  2.80154e+11
       808.10000   0.00625762  2.79904e+11
       808.20000   0.00625762  2.79653e+11
       808.30000   0.00625762  2.79403e+11
       808.40000   0.00625762  2.79215e+11
       808.50000   0.00874837  3.90177e+11
       808.60000   0.00874837  3.90002e+11
       808.70000   0.00874837  3.89827e+11
       808.80000   0.00853023  3.80022e+11
       808.90000   0.00853023  3.79936e+11
       809.00000   0.00853023  3.79936e+11
       809.10000   0.00853023  3.79936e+11
       809.20000   0.00853023  3.80022e+11
       809.30000   0.00853023  3.80107e+11
       809.40000   0.00853023  3.80192e+11
       809.50000    0.0118366  5.27795e+11
       809.60000    0.0118366  5.28150e+11
       809.70000    0.0118366  5.28505e+11
       809.80000    0.0118366  5.28860e+11
       809.90000    0.0118366  5.29334e+11
       810.00000    0.0118366  5.29807e+11
       810.10000    0.0118366  5.30399e+11
       810.20000    0.0118366  5.30991e+11
       810.30000    0.0118366  5.31583e+11
       810.40000    0.0118366  5.32293e+11
       810.50000    0.0163196  7.35034e+11
       810.60000    0.0163196  7.36013e+11
       810.70000    0.0163196  7.37319e+11
       810.80000    0.0163196  7.38624e+11
       810.90000    0.0163196  7.39930e+11
       811.00000    0.0163196  7.41399e+11
       811.10000    0.0163196  7.41562e+11
       811.20000    0.0163196  7.41888e+11
       811.30000    0.0159069  7.23289e+11
       811.40000    0.0159069  7.23607e+11
       811.50000    0.0215460  9.80343e+11
       811.60000    0.0215460  9.80559e+11
       811.70000    0.0215460  9.80774e+11
       811.80000    0.0215460  9.80990e+11
       811.90000    0.0215460  9.81205e+11
       812.00000    0.0215460  9.81421e+11
       812.10000    0.0215460  9.81421e+11
       812.20000    0.0215460  9.81636e+11
       812.30000    0.0215460  9.81852e+11
       812.40000    0.0215460  9.81852e+11
       812.50000    0.0282193  1.28595e+12
       812.60000    0.0282193  1.28623e+12
       812.70000    0.0282193  1.28623e+12
       812.80000    0.0282193  1.28623e+12
       812.90000    0.0282193  1.28623e+12
       813.00000    0.0282193  1.28623e+12
       813.10000    0.0282193  1.28567e+12
       813.20000    0.0282193  1.28539e+12
       813.30000    0.0282193  1.28482e+12
       813.40000    0.0282193  1.28454e+12
       813.50000    0.0355181  1.61607e+12
       813.60000    0.0355181  1.61572e+12
       813.70000    0.0355181  1.61536e+12
       813.80000    0.0346540  1.57572e+12
       813.90000    0.0346540  1.57537e+12
       814.00000    0.0346540  1.57468e+12
       814.10000    0.0346540  1.57433e+12
       814.20000    0.0346540  1.57398e+12
       814.30000    0.0346540  1.57364e+12
       814.40000    0.0346540  1.57364e+12
       814.50000    0.0418080  1.89808e+12
       814.60000    0.0418080  1.89766e+12
       814.70000    0.0418080  1.89725e+12
       814.80000    0.0418080  1.89683e+12
       814.90000    0.0418080  1.89683e+12
       815.00000    0.0418080  1.89641e+12
       815.10000    0.0418080  1.89808e+12
       815.20000    0.0418080  1.89934e+12
       815.30000    0.0418080  1.90059e+12
       815.40000    0.0418080  1.90143e+12
       815.50000    0.0480150  2.18516e+12
       815.60000    0.0480150  2.18564e+12
       815.70000    0.0480150  2.18660e+12
       815.80000    0.0480150  2.18660e+12
       815.90000    0.0480150  2.18708e+12
       816.00000    0.0480150  2.18708e+12
       816.10000    0.0480150  2.18708e+12
       816.20000    0.0480150  2.18660e+12
       816.30000    0.0468082  2.13118e+12
       816.40000    0.0468082  2.13071e+12
       816.50000    0.0513686  2.33727e+12
       816.60000    0.0513686  2.33624e+12
       816.70000    0.0513686  2.33470e+12
       816.80000    0.0513686  2.33316e+12
       816.90000    0.0513686  2.33162e+12
       817.00000    0.0513686  2.32957e+12
       817.10000    0.0513686  2.32237e+12
       817.20000    0.0513686  2.31570e+12
       817.30000    0.0513686  2.30953e+12
       817.40000    0.0513686  2.30337e+12
       817.50000    0.0543277  2.43008e+12
       817.60000    0.0543277  2.42465e+12
       817.70000    0.0543277  2.41921e+12
       817.80000    0.0543277  2.41378e+12
       817.90000    0.0543277  2.40944e+12
       818.00000    0.0543277  2.40455e+12
       818.10000    0.0543277  2.40074e+12
       818.20000    0.0543277  2.39694e+12
       818.30000    0.0543277  2.39314e+12
       818.40000    0.0543277  2.39042e+12
       818.50000    0.0561349  2.46657e+12
       818.60000    0.0561349  2.46432e+12
       818.70000    0.0561349  2.46208e+12
       818.80000    0.0547128  2.39751e+12
       818.90000    0.0547128  2.39642e+12
       819.00000    0.0547128  2.39478e+12
       819.10000    0.0547128  2.39423e+12
       819.20000    0.0547128  2.39368e+12
       819.30000    0.0547128  2.39314e+12
       819.40000    0.0547128  2.39314e+12
       819.50000    0.0553006  2.41940e+12
       819.60000    0.0553006  2.41996e+12
       819.70000    0.0553006  2.42106e+12
       819.80000    0.0553006  2.42272e+12
       819.90000    0.0553006  2.42438e+12
       820.00000    0.0553006  2.42659e+12
       820.10000    0.0553006  2.42880e+12
       820.20000    0.0553006  2.43157e+12
       820.30000    0.0553006  2.43489e+12
       820.40000    0.0553006  2.43821e+12
       820.50000    0.0554999  2.45088e+12
       820.60000    0.0554999  2.45476e+12
       820.70000    0.0554999  2.45920e+12
       820.80000    0.0554999  2.46364e+12
       820.90000    0.0554999  2.46864e+12
       821.00000    0.0554999  2.47419e+12
       821.10000    0.0554999  2.47308e+12
       821.20000    0.0554999  2.47252e+12
       821.30000    0.0542199  2.41441e+12
       821.40000    0.0542199  2.41387e+12
       821.50000    0.0543538  2.41874e+12
       821.60000    0.0543538  2.41820e+12
       821.70000    0.0543538  2.41766e+12
       821.80000    0.0543538  2.41657e+12
       821.90000    0.0543538  2.41602e+12
       822.00000    0.0543538  2.41548e+12
       822.10000    0.0543538  2.41548e+12
       822.20000    0.0543538  2.41494e+12
       822.30000    0.0543538  2.41439e+12
       822.40000    0.0543538  2.41439e+12
       822.50000    0.0542383  2.40872e+12
       822.60000    0.0542383  2.40872e+12
       822.70000    0.0542383  2.40818e+12
       822.80000    0.0542383  2.40818e+12
       822.90000    0.0542383  2.40818e+12
       823.00000    0.0542383  2.40818e+12
       823.10000    0.0542383  2.40818e+12
       823.20000    0.0542383  2.40818e+12
       823.30000    0.0542383  2.40818e+12
       823.40000    0.0542383  2.40818e+12
       823.50000    0.0541083  2.40295e+12
       823.60000    0.0541083  2.40295e+12
       823.70000    0.0541083  2.40349e+12
       823.80000    0.0529055  2.35006e+12
       823.90000    0.0529055  2.35059e+12
       824.00000    0.0529055  2.35112e+12
       824.10000    0.0529055  2.35165e+12
       824.20000    0.0529055  2.35218e+12
       824.30000    0.0529055  2.35271e+12
       824.40000    0.0529055  2.35377e+12
       824.50000    0.0526725  2.34392e+12
       824.60000    0.0526725  2.34498e+12
       824.70000    0.0526725  2.34550e+12
       824.80000    0.0526725  2.34656e+12
       824.90000    0.0526725  2.34761e+12
       825.00000    0.0526725  2.34866e+12
       825.10000    0.0526725  2.34972e+12
       825.20000    0.0526725  2.35077e+12
       825.30000    0.0526725  2.35235e+12
       825.40000    0.0526725  2.35341e+12
       825.50000    0.0526983  2.35614e+12
       825.60000    0.0526983  2.35720e+12
       825.70000    0.0526983  2.35878e+12
       825.80000    0.0526983  2.36036e+12
       825.90000    0.0526983  2.36194e+12
       826.00000    0.0526983  2.36352e+12
       826.10000    0.0526983  2.36510e+12
       826.20000    0.0526983  2.36616e+12
       826.30000    0.0516257  2.31954e+12
       826.40000    0.0516257  2.32057e+12
       826.50000    0.0513383  2.30817e+12
       826.60000    0.0513383  2.30920e+12
       826.70000    0.0513383  2.31023e+12
       826.80000    0.0513383  2.31074e+12
       826.90000    0.0513383  2.31125e+12
       827.00000    0.0513383  2.31177e+12
       827.10000    0.0513383  2.31177e+12
       827.20000    0.0513383  2.31228e+12
       827.30000    0.0513383  2.31228e+12
       827.40000    0.0513383  2.31228e+12
       827.50000    0.0510607  2.29978e+12
       827.60000    0.0510607  2.29978e+12
       827.70000    0.0510607  2.29926e+12
       827.80000    0.0510607  2.29875e+12
       827.90000    0.0510607  2.29824e+12
       828.00000    0.0510607  2.29773e+12
       828.10000    0.0510607  2.29620e+12
       828.20000    0.0510607  2.29416e+12
       828.30000    0.0510607  2.29212e+12
       828.40000    0.0510607  2.29007e+12
       828.50000    0.0506933  2.27208e+12
       828.60000    0.0506933  2.27005e+12
       828.70000    0.0506933  2.26853e+12
       828.80000    0.0496979  2.22249e+12
       828.90000    0.0496979  2.22050e+12
       829.00000    0.0496979  2.21901e+12
       829.10000    0.0496979  2.21752e+12
       829.20000    0.0496979  2.21603e+12
       829.30000    0.0496979  2.21454e+12
       829.40000    0.0496979  2.21305e+12
       829.50000    0.0495448  2.20475e+12
       829.60000    0.0495448  2.20326e+12
       829.70000    0.0495448  2.20177e+12
       829.80000    0.0495448  2.20029e+12
       829.90000    0.0495448  2.19930e+12
       830.00000    0.0495448  2.19781e+12
       830.10000    0.0495448  2.19682e+12
       830.20000    0.0495448  2.19533e+12
       830.30000    0.0495448  2.19434e+12
       830.40000    0.0495448  2.19285e+12
       830.50000    0.0492078  2.17695e+12
       830.60000    0.0492078  2.17597e+12
       830.70000    0.0492078  2.17449e+12
       830.80000    0.0492078  2.17351e+12
       830.90000    0.0492078  2.17253e+12
       831.00000    0.0492078  2.17154e+12
       831.10000    0.0492078  2.17056e+12
       831.20000    0.0492078  2.16957e+12
       831.30000    0.0482273  2.12586e+12
       831.40000    0.0482273  2.12489e+12
       831.50000    0.0478356  2.10668e+12
       831.60000    0.0478356  2.10620e+12
       831.70000    0.0478356  2.10524e+12
       831.80000    0.0478356  2.10429e+12
       831.90000    0.0478356  2.10381e+12
       832.00000    0.0478356  2.10333e+12
       832.10000    0.0478356  2.10142e+12
       832.20000    0.0478356  2.09950e+12
       832.30000    0.0478356  2.09807e+12
       832.40000    0.0478356  2.09663e+12
       832.50000    0.0476724  2.08805e+12
       832.60000    0.0476724  2.08710e+12
       832.70000    0.0476724  2.08614e+12
       832.80000    0.0476724  2.08471e+12
       832.90000    0.0476724  2.08424e+12
       833.00000    0.0476724  2.08328e+12
       833.10000    0.0476724  2.08233e+12
       833.20000    0.0476724  2.08185e+12
       833.30000    0.0476724  2.08138e+12
       833.40000    0.0476724  2.08090e+12
       833.50000    0.0474977  2.07328e+12
       833.60000    0.0474977  2.07280e+12
       833.70000    0.0474977  2.07280e+12
       833.80000    0.0466113  2.03412e+12
       833.90000    0.0466113  2.03458e+12
       834.00000    0.0466113  2.03458e+12
       834.10000    0.0466113  2.03691e+12
       834.20000    0.0466113  2.03878e+12
       834.30000    0.0466113  2.04111e+12
       834.40000    0.0466113  2.04297e+12
       834.50000    0.0463782  2.03461e+12
       834.60000    0.0463782  2.03647e+12
       834.70000    0.0463782  2.03786e+12
       834.80000    0.0463782  2.03925e+12
       834.90000    0.0463782  2.04110e+12
       835.00000    0.0463782  2.04249e+12
       835.10000    0.0463782  2.04342e+12
       835.20000    0.0463782  2.04481e+12
       835.30000    0.0463782  2.04574e+12
       835.40000    0.0463782  2.04667e+12
       835.50000    0.0461623  2.03806e+12
       835.60000    0.0461623  2.03899e+12
       835.70000    0.0461623  2.03945e+12
       835.80000    0.0461623  2.04037e+12
       835.90000    0.0461623  2.04083e+12
       836.00000    0.0461623  2.04130e+12
       836.10000    0.0461623  2.04037e+12
       836.20000    0.0461623  2.03991e+12
       836.30000    0.0454162  2.00603e+12
       836.40000    0.0454162  2.00558e+12
       836.50000    0.0453278  2.00122e+12
       836.60000    0.0453278  2.00032e+12
       836.70000    0.0453278  1.99986e+12
       836.80000    0.0453278  1.99941e+12
       836.90000    0.0453278  1.99850e+12
       837.00000    0.0453278  1.99805e+12
       837.10000    0.0453278  1.99760e+12
       837.20000    0.0453278  1.99714e+12
       837.30000    0.0453278  1.99669e+12
       837.40000    0.0453278  1.99624e+12
       837.50000    0.0450874  1.98520e+12
       837.60000    0.0450874  1.98475e+12
       837.70000    0.0450874  1.98430e+12
       837.80000    0.0450874  1.98385e+12
       837.90000    0.0450874  1.98385e+12
       838.00000    0.0450874  1.98340e+12
       838.10000    0.0450874  1.98294e+12
       838.20000    0.0450874  1.98294e+12
       838.30000    0.0450874  1.98294e+12
       838.40000    0.0450874  1.98294e+12
       838.50000    0.0449494  1.97643e+12
       838.60000    0.0449494  1.97643e+12
       838.70000    0.0449494  1.97643e+12
       838.80000    0.0442886  1.94693e+12
       838.90000    0.0442886  1.94693e+12
       839.00000    0.0442886  1.94693e+12
       839.10000    0.0442886  1.94648e+12
       839.20000    0.0442886  1.94648e+12
       839.30000    0.0442886  1.94648e+12
       839.40000    0.0442886  1.94604e+12
       839.50000    0.0441063  1.93803e+12
       839.60000    0.0441063  1.93803e+12
       839.70000    0.0441063  1.93759e+12
       839.80000    0.0441063  1.93759e+12
       839.90000    0.0441063  1.93759e+12
       840.00000    0.0441063  1.93715e+12
       840.10000    0.0441063  1.93715e+12
       840.20000    0.0441063  1.93715e+12
       840.30000    0.0441063  1.93671e+12
       840.40000    0.0441063  1.93671e+12
       840.50000    0.0439089  1.92804e+12
       840.60000    0.0439089  1.92760e+12
       840.70000    0.0439089  1.92760e+12
       840.80000    0.0439089  1.92760e+12
       840.90000    0.0439089  1.92716e+12
       841.00000    0.0439089  1.92716e+12
       841.10000    0.0439089  1.92716e+12
       841.20000    0.0439089  1.92716e+12
       841.30000    0.0431979  1.89552e+12
       841.40000    0.0431979  1.89552e+12
       841.50000    0.0429150  1.88311e+12
       841.60000    0.0429150  1.88268e+12
       841.70000    0.0429150  1.88268e+12
       841.80000    0.0429150  1.88268e+12
       841.90000    0.0429150  1.88225e+12
       842.00000    0.0429150  1.88225e+12
       842.10000    0.0429150  1.88053e+12
       842.20000    0.0429150  1.87925e+12
       842.30000    0.0429150  1.87796e+12
       842.40000    0.0429150  1.87624e+12
       842.50000    0.0425964  1.86104e+12
       842.60000    0.0425964  1.86018e+12
       842.70000    0.0425964  1.85891e+12
       842.80000    0.0425964  1.85805e+12
       842.90000    0.0425964  1.85678e+12
       843.00000    0.0425964  1.85592e+12
       843.10000    0.0425964  1.85507e+12
       843.20000    0.0425964  1.85422e+12
       843.30000    0.0425964  1.85379e+12
       843.40000    0.0425964  1.85294e+12
       843.50000    0.0424786  1.84739e+12
       843.60000    0.0424786  1.84697e+12
       843.70000    0.0424786  1.84655e+12
       843.80000    0.0417377  1.81392e+12
       843.90000    0.0417377  1.81392e+12
       844.00000    0.0417377  1.81350e+12
       844.10000    0.0417377  1.81476e+12
       844.20000    0.0417377  1.81559e+12
       844.30000    0.0417377  1.81643e+12
       844.40000    0.0417377  1.81726e+12
       844.50000    0.0414382  1.80505e+12
       844.60000    0.0414382  1.80587e+12
       844.70000    0.0414382  1.80629e+12
       844.80000    0.0414382  1.80712e+12
       844.90000    0.0414382  1.80753e+12
       845.00000    0.0414382  1.80836e+12
       845.10000    0.0414382  1.80878e+12
       845.20000    0.0414382  1.80919e+12
       845.30000    0.0414382  1.81002e+12
       845.40000    0.0414382  1.81043e+12
       845.50000    0.0411267  1.79682e+12
       845.60000    0.0411267  1.79724e+12
       845.70000    0.0411267  1.79765e+12
       845.80000    0.0411267  1.79806e+12
       845.90000    0.0411267  1.79806e+12
       846.00000    0.0411267  1.79847e+12
       846.10000    0.0411267  1.79847e+12
       846.20000    0.0411267  1.79847e+12
       846.30000    0.0403567  1.76480e+12
       846.40000    0.0403567  1.76520e+12
       846.50000    0.0401765  1.75732e+12
       846.60000    0.0401765  1.75692e+12
       846.70000    0.0401765  1.75692e+12
       846.80000    0.0401765  1.75692e+12
       846.90000    0.0401765  1.75652e+12
       847.00000    0.0401765  1.75652e+12
       847.10000    0.0401765  1.75611e+12
       847.20000    0.0401765  1.75611e+12
       847.30000    0.0401765  1.75571e+12
       847.40000    0.0401765  1.75531e+12
       847.50000    0.0398529  1.74077e+12
       847.60000    0.0398529  1.74038e+12
       847.70000    0.0398529  1.73998e+12
       847.80000    0.0398529  1.73958e+12
       847.90000    0.0398529  1.73878e+12
       848.00000    0.0398529  1.73838e+12
       848.10000    0.0398529  1.73001e+12
       848.20000    0.0398529  1.72244e+12
       848.30000    0.0398529  1.71487e+12
       848.40000    0.0398529  1.70770e+12
       848.50000    0.0394804  1.68502e+12
       848.60000    0.0394804  1.67910e+12
       848.70000    0.0394804  1.67318e+12
       848.80000    0.0387583  1.63715e+12
       848.90000    0.0387583  1.63211e+12
       849.00000    0.0387583  1.62746e+12
       849.10000    0.0387583  1.62281e+12
       849.20000    0.0387583  1.61893e+12
       849.30000    0.0387583  1.61544e+12
       849.40000    0.0387583  1.61196e+12
       849.50000    0.0384305  1.59563e+12
       849.60000    0.0384305  1.59294e+12
       849.70000    0.0384305  1.59102e+12
       849.80000    0.0384305  1.58910e+12
       849.90000    0.0384305  1.58756e+12
       850.00000    0.0384305  1.58641e+12
       850.10000    0.0384305  1.59486e+12
       850.20000    0.0384305  1.60294e+12
       850.30000    0.0384305  1.61024e+12
       850.40000    0.0384305  1.61677e+12
       850.50000    0.0381070  1.60926e+12
       850.60000    0.0381070  1.61459e+12
       850.70000    0.0381070  1.61917e+12
       850.80000    0.0381070  1.62336e+12
       850.90000    0.0381070  1.62679e+12
       851.00000    0.0381070  1.62984e+12
       851.10000    0.0381070  1.63212e+12
       851.20000    0.0381070  1.63403e+12
       851.30000    0.0374503  1.60699e+12
       851.40000    0.0374503  1.60737e+12
       851.50000    0.0371683  1.59526e+12
       851.60000    0.0371683  1.59452e+12
       851.70000    0.0371683  1.59341e+12
       851.80000    0.0371683  1.59155e+12
       851.90000    0.0371683  1.58895e+12
       852.00000    0.0371683  1.58597e+12
       852.10000    0.0371683  1.58226e+12
       852.20000    0.0371683  1.57817e+12
       852.30000    0.0371683  1.57333e+12
       852.40000    0.0371683  1.56813e+12
       852.50000    0.0368263  1.54744e+12
       852.60000    0.0368263  1.54118e+12
       852.70000    0.0368263  1.53381e+12
       852.80000    0.0368263  1.52645e+12
       852.90000    0.0368263  1.51798e+12
       853.00000    0.0368263  1.50914e+12
       853.10000    0.0368263  1.49957e+12
       853.20000    0.0368263  1.48962e+12
       853.30000    0.0368263  1.47894e+12
       853.40000    0.0368263  1.46789e+12
       853.50000    0.0364373  1.44073e+12
       853.60000    0.0364373  1.42834e+12
       853.70000    0.0364373  1.41559e+12
       853.80000    0.0358137  1.37811e+12
       853.90000    0.0358137  1.36450e+12
       854.00000    0.0358137  1.35018e+12
       854.10000    0.0358137  1.36020e+12
       854.20000    0.0358137  1.37023e+12
       854.30000    0.0358137  1.37990e+12
       854.40000    0.0358137  1.38921e+12
       854.50000    0.0355142  1.38648e+12
       854.60000    0.0355142  1.39535e+12
       854.70000    0.0355142  1.40388e+12
       854.80000    0.0355142  1.41205e+12
       854.90000    0.0355142  1.42021e+12
       855.00000    0.0355142  1.42803e+12
       855.10000    0.0355142  1.43548e+12
       855.20000    0.0355142  1.44259e+12
       855.30000    0.0355142  1.44969e+12
       855.40000    0.0355142  1.45608e+12
       855.50000    0.0351018  1.44584e+12
       855.60000    0.0351018  1.45181e+12
       855.70000    0.0351018  1.45778e+12
       855.80000    0.0351018  1.46339e+12
       855.90000    0.0351018  1.46866e+12
       856.00000    0.0351018  1.47357e+12
       856.10000    0.0351018  1.47744e+12
       856.20000    0.0351018  1.48095e+12
       856.30000    0.0343928  1.45447e+12
       856.40000    0.0343928  1.45791e+12
       856.50000    0.0340284  1.44553e+12
       856.60000    0.0340284  1.44859e+12
       856.70000    0.0340284  1.45131e+12
       856.80000    0.0340284  1.45404e+12
       856.90000    0.0340284  1.45642e+12
       857.00000    0.0340284  1.45880e+12
       857.10000    0.0340284  1.46118e+12
       857.20000    0.0340284  1.46322e+12
       857.30000    0.0340284  1.46526e+12
       857.40000    0.0340284  1.46697e+12
       857.50000    0.0336191  1.45100e+12
       857.60000    0.0336191  1.45268e+12
       857.70000    0.0336191  1.45403e+12
       857.80000    0.0336191  1.45537e+12
       857.90000    0.0336191  1.45638e+12
       858.00000    0.0336191  1.45772e+12
       858.10000    0.0336191  1.45840e+12
       858.20000    0.0336191  1.45907e+12
       858.30000    0.0336191  1.45974e+12
       858.40000    0.0336191  1.46008e+12
       858.50000    0.0332681  1.44517e+12
       858.60000    0.0332681  1.44550e+12
       858.70000    0.0332681  1.44550e+12
       858.80000    0.0325566  1.41458e+12
       858.90000    0.0325566  1.41426e+12
       859.00000    0.0325566  1.41393e+12
       859.10000    0.0325566  1.41361e+12
       859.20000    0.0325566  1.41295e+12
       859.30000    0.0325566  1.41230e+12
       859.40000    0.0325566  1.41133e+12
       859.50000    0.0322334  1.39635e+12
       859.60000    0.0322334  1.39539e+12
       859.70000    0.0322334  1.39410e+12
       859.80000    0.0322334  1.39248e+12
       859.90000    0.0322334  1.39119e+12
       860.00000    0.0322334  1.38958e+12
       860.10000    0.0322334  1.38926e+12
       860.20000    0.0322334  1.38894e+12
       860.30000    0.0322334  1.38894e+12
       860.40000    0.0322334  1.38894e+12
       860.50000    0.0319197  1.37510e+12
       860.60000    0.0319197  1.37510e+12
       860.70000    0.0319197  1.37510e+12
       860.80000    0.0319197  1.37510e+12
       860.90000    0.0319197  1.37510e+12
       861.00000    0.0319197  1.37510e+12
       861.10000    0.0319197  1.37510e+12
       861.20000    0.0319197  1.37510e+12
       861.30000    0.0312411  1.34587e+12
       861.40000    0.0312411  1.34618e+12
       861.50000    0.0309333  1.33291e+12
       861.60000    0.0309333  1.33291e+12
       861.70000    0.0309333  1.33322e+12
       861.80000    0.0309333  1.33353e+12
       861.90000    0.0309333  1.33353e+12
       862.00000    0.0309333  1.33384e+12
       862.10000    0.0309333  1.33817e+12
       862.20000    0.0309333  1.34189e+12
       862.30000    0.0309333  1.34529e+12
       862.40000    0.0309333  1.34838e+12
       862.50000    0.0307273  1.34186e+12
       862.60000    0.0307273  1.34401e+12
       862.70000    0.0307273  1.34586e+12
       862.80000    0.0307273  1.34739e+12
       862.90000    0.0307273  1.34831e+12
       863.00000    0.0307273  1.34893e+12
       863.10000    0.0307273  1.34924e+12
       863.20000    0.0307273  1.34924e+12
       863.30000    0.0307273  1.34862e+12
       863.40000    0.0307273  1.34770e+12
       863.50000    0.0305358  1.33808e+12
       863.60000    0.0305358  1.33625e+12
       863.70000    0.0305358  1.33411e+12
       863.80000    0.0298829  1.30320e+12
       863.90000    0.0298829  1.30051e+12
       864.00000    0.0298829  1.29722e+12
       864.10000    0.0298829  1.29363e+12
       864.20000    0.0298829  1.28975e+12
       864.30000    0.0298829  1.28527e+12
       864.40000    0.0298829  1.28078e+12
       864.50000    0.0297173  1.26833e+12
       864.60000    0.0297173  1.26298e+12
       864.70000    0.0297173  1.25704e+12
       864.80000    0.0297173  1.25110e+12
       864.90000    0.0297173  1.24426e+12
       865.00000    0.0297173  1.23743e+12
       865.10000    0.0297173  1.23000e+12
       865.20000    0.0297173  1.22227e+12
       865.30000    0.0297173  1.21425e+12
       865.40000    0.0297173  1.20563e+12
       865.50000    0.0296071  1.19228e+12
       865.60000    0.0296071  1.18310e+12
       865.70000    0.0296071  1.17363e+12
       865.80000    0.0296071  1.16356e+12
       865.90000    0.0296071  1.15320e+12
       866.00000    0.0296071  1.14254e+12
       866.10000    0.0296071  1.14668e+12
       866.20000    0.0296071  1.15053e+12
       866.30000    0.0289774  1.13012e+12
       866.40000    0.0289774  1.13388e+12
       866.50000    0.0288810  1.13387e+12
       866.60000    0.0288810  1.13762e+12
       866.70000    0.0288810  1.14138e+12
       866.80000    0.0288810  1.14513e+12
       866.90000    0.0288810  1.14860e+12
       867.00000    0.0288810  1.15206e+12
       867.10000    0.0288810  1.15553e+12
       867.20000    0.0288810  1.15900e+12
       867.30000    0.0288810  1.16246e+12
       867.40000    0.0288810  1.16564e+12
       867.50000    0.0287729  1.16444e+12
       867.60000    0.0287729  1.16761e+12
       867.70000    0.0287729  1.17077e+12
       867.80000    0.0287729  1.17394e+12
       867.90000    0.0287729  1.17681e+12
       868.00000    0.0287729  1.17969e+12
       868.10000    0.0287729  1.18285e+12
       868.20000    0.0287729  1.18602e+12
       868.30000    0.0287729  1.18890e+12
       868.40000    0.0287729  1.19177e+12
       868.50000    0.0287097  1.19203e+12
       868.60000    0.0287097  1.19461e+12
       868.70000    0.0287097  1.19748e+12
       868.80000    0.0280812  1.17351e+12
       868.90000    0.0280812  1.17604e+12
       869.00000    0.0280812  1.17829e+12
       869.10000    0.0280812  1.18053e+12
       869.20000    0.0280812  1.18278e+12
       869.30000    0.0280812  1.18503e+12
       869.40000    0.0280812  1.18699e+12
       869.50000    0.0279496  1.18339e+12
       869.60000    0.0279496  1.18506e+12
       869.70000    0.0279496  1.18674e+12
       869.80000    0.0279496  1.18842e+12
       869.90000    0.0279496  1.19010e+12
       870.00000    0.0279496  1.19177e+12
       870.10000    0.0279496  1.19317e+12
       870.20000    0.0279496  1.19457e+12
       870.30000    0.0279496  1.19569e+12
       870.40000    0.0279496  1.19680e+12
       870.50000    0.0278258  1.19261e+12
       870.60000    0.0278258  1.19373e+12
       870.70000    0.0278258  1.19456e+12
       870.80000    0.0278258  1.19567e+12
       870.90000    0.0278258  1.19623e+12
       871.00000    0.0278258  1.19706e+12
       871.10000    0.0278258  1.19762e+12
       871.20000    0.0278258  1.19818e+12
       871.30000    0.0272424  1.17360e+12
       871.40000    0.0272424  1.17387e+12
       871.50000    0.0270967  1.16787e+12
       871.60000    0.0270967  1.16814e+12
       871.70000    0.0270967  1.16814e+12
       871.80000    0.0270967  1.16841e+12
       871.90000    0.0270967  1.16814e+12
       872.00000    0.0270967  1.16814e+12
       872.10000    0.0270967  1.16733e+12
       872.20000    0.0270967  1.16678e+12
       872.30000    0.0270967  1.16597e+12
       872.40000    0.0270967  1.16543e+12
       872.50000    0.0269126  1.15670e+12
       872.60000    0.0269126  1.15617e+12
       872.70000    0.0269126  1.15563e+12
       872.80000    0.0269126  1.15509e+12
       872.90000    0.0269126  1.15428e+12
       873.00000    0.0269126  1.15374e+12
       873.10000    0.0269126  1.15321e+12
       873.20000    0.0269126  1.15267e+12
       873.30000    0.0269126  1.15213e+12
       873.40000    0.0269126  1.15159e+12
       873.50000    0.0267072  1.14227e+12
       873.60000    0.0267072  1.14173e+12
       873.70000    0.0267072  1.14120e+12
       873.80000    0.0261011  1.11504e+12
       873.90000    0.0261011  1.11452e+12
       874.00000    0.0261011  1.11400e+12
       874.10000    0.0261011  1.11321e+12
       874.20000    0.0261011  1.11243e+12
       874.30000    0.0261011  1.11191e+12
       874.40000    0.0261011  1.11113e+12
       874.50000    0.0258835  1.10134e+12
       874.60000    0.0258835  1.10082e+12
       874.70000    0.0258835  1.10031e+12
       874.80000    0.0258835  1.10005e+12
       874.90000    0.0258835  1.09953e+12
       875.00000    0.0258835  1.09927e+12
       875.10000    0.0258835  1.09901e+12
       875.20000    0.0258835  1.09875e+12
       875.30000    0.0258835  1.09875e+12
       875.40000    0.0258835  1.09849e+12
       875.50000    0.0256652  1.08923e+12
       875.60000    0.0256652  1.08923e+12
       875.70000    0.0256652  1.08923e+12
       875.80000    0.0256652  1.08949e+12
       875.90000    0.0256652  1.08949e+12
       876.00000    0.0256652  1.08974e+12
       876.10000    0.0256652  1.09000e+12
       876.20000    0.0256652  1.09026e+12
       876.30000    0.0250523  1.06447e+12
       876.40000    0.0250523  1.06497e+12
       876.50000    0.0248441  1.05662e+12
       876.60000    0.0248441  1.05712e+12
       876.70000    0.0248441  1.05761e+12
       876.80000    0.0248441  1.05811e+12
       876.90000    0.0248441  1.05886e+12
       877.00000    0.0248441  1.05960e+12
       877.10000    0.0248441  1.06035e+12
       877.20000    0.0248441  1.06109e+12
       877.30000    0.0248441  1.06184e+12
       877.40000    0.0248441  1.06283e+12
       877.50000    0.0246316  1.05472e+12
       877.60000    0.0246316  1.05571e+12
       877.70000    0.0246316  1.05669e+12
       877.80000    0.0246316  1.05768e+12
       877.90000    0.0246316  1.05891e+12
       878.00000    0.0246316  1.06014e+12
       878.10000    0.0246316  1.05866e+12
       878.20000    0.0246316  1.05743e+12
       878.30000    0.0246316  1.05620e+12
       878.40000    0.0246316  1.05497e+12
       878.50000    0.0243901  1.04341e+12
       878.60000    0.0243901  1.04243e+12
       878.70000    0.0243901  1.04121e+12
       878.80000    0.0237951  1.01486e+12
       878.90000    0.0237951  1.01391e+12
       879.00000    0.0237951  1.01296e+12
       879.10000    0.0237951  1.01200e+12
       879.20000    0.0237951  1.01129e+12
       879.30000    0.0237951  1.01034e+12
       879.40000    0.0237951  1.00962e+12
       879.50000    0.0235374  9.97986e+11
       879.60000    0.0235374  9.97280e+11
       879.70000    0.0235374  9.96574e+11
       879.80000    0.0235374  9.96103e+11
       879.90000    0.0235374  9.95397e+11
       880.00000    0.0235374  9.94926e+11
       880.10000    0.0235374  9.94691e+11
       880.20000    0.0235374  9.94220e+11
       880.30000    0.0235374  9.93985e+11
       880.40000    0.0235374  9.93514e+11
       880.50000    0.0233051  9.83477e+11
       880.60000    0.0233051  9.83244e+11
       880.70000    0.0233051  9.83011e+11
       880.80000    0.0233051  9.83011e+11
       880.90000    0.0233051  9.82777e+11
       881.00000    0.0233051  9.82544e+11
       881.10000    0.0233051  9.82544e+11
       881.20000    0.0233051  9.82544e+11
       881.30000    0.0227491  9.59104e+11
       881.40000    0.0227491  9.58876e+11
       881.50000    0.0225276  9.49764e+11
       881.60000    0.0225276  9.49764e+11
       881.70000    0.0225276  9.49764e+11
       881.80000    0.0225276  9.49989e+11
       881.90000    0.0225276  9.49989e+11
       882.00000    0.0225276  9.50215e+11
       882.10000    0.0225276  9.51341e+11
       882.20000    0.0225276  9.52242e+11
       882.30000    0.0225276  9.53143e+11
       882.40000    0.0225276  9.54044e+11
       882.50000    0.0222776  9.44346e+11
       882.60000    0.0222776  9.45014e+11
       882.70000    0.0222776  9.45682e+11
       882.80000    0.0222776  9.46351e+11
       882.90000    0.0222776  9.46796e+11
       883.00000    0.0222776  9.47242e+11
       883.10000    0.0222776  9.47687e+11
       883.20000    0.0222776  9.48133e+11
       883.30000    0.0222776  9.48356e+11
       883.40000    0.0222776  9.48578e+11
       883.50000    0.0220229  9.37953e+11
       883.60000    0.0220229  9.37953e+11
       883.70000    0.0220229  9.37953e+11
       883.80000    0.0215113  9.16168e+11
       883.90000    0.0215113  9.15953e+11
       884.00000    0.0215113  9.15737e+11
       884.10000    0.0215113  9.14447e+11
       884.20000    0.0215113  9.13156e+11
       884.30000    0.0215113  9.11865e+11
       884.40000    0.0215113  9.10575e+11
       884.50000    0.0212695  8.99060e+11
       884.60000    0.0212695  8.97997e+11
       884.70000    0.0212695  8.96933e+11
       884.80000    0.0212695  8.96083e+11
       884.90000    0.0212695  8.95019e+11
       885.00000    0.0212695  8.94168e+11
       885.10000    0.0212695  8.93530e+11
       885.20000    0.0212695  8.92680e+11
       885.30000    0.0212695  8.92041e+11
       885.40000    0.0212695  8.91403e+11
       885.50000    0.0210458  8.81611e+11
       885.60000    0.0210458  8.80979e+11
       885.70000    0.0210458  8.80558e+11
       885.80000    0.0210458  8.80348e+11
       885.90000    0.0210458  8.79927e+11
       886.00000    0.0210458  8.79717e+11
       886.10000    0.0210458  8.79506e+11
       886.20000    0.0210458  8.79296e+11
       886.30000    0.0205765  8.59686e+11
       886.40000    0.0205765  8.59686e+11
       886.50000    0.0203240  8.49136e+11
       886.60000    0.0203240  8.49339e+11
       886.70000    0.0203240  8.49542e+11
       886.80000    0.0203240  8.49745e+11
       886.90000    0.0203240  8.49949e+11
       887.00000    0.0203240  8.50355e+11
       887.10000    0.0203240  8.50762e+11
       887.20000    0.0203240  8.51168e+11
       887.30000    0.0203240  8.51575e+11
       887.40000    0.0203240  8.52184e+11
       887.50000    0.0200970  8.43269e+11
       887.60000    0.0200970  8.44072e+11
       887.70000    0.0200970  8.44675e+11
       887.80000    0.0200970  8.45479e+11
       887.90000    0.0200970  8.46484e+11
       888.00000    0.0200970  8.47288e+11
       888.10000    0.0200970  8.48293e+11
       888.20000    0.0200970  8.49097e+11
       888.30000    0.0200970  8.50102e+11
       888.40000    0.0200970  8.50906e+11
       888.50000    0.0198556  8.41479e+11
       888.60000    0.0198556  8.42075e+11
       888.70000    0.0198556  8.42670e+11
       888.80000    0.0194596  8.26448e+11
       888.90000    0.0194596  8.27032e+11
       889.00000    0.0194596  8.27616e+11
       889.10000    0.0194596  8.28005e+11
       889.20000    0.0194596  8.28394e+11
       889.30000    0.0194596  8.28783e+11
       889.40000    0.0194596  8.28978e+11
       889.50000    0.0192433  8.20151e+11
       889.60000    0.0192433  8.20344e+11
       889.70000    0.0192433  8.20536e+11
       889.80000    0.0192433  8.20536e+11
       889.90000    0.0192433  8.20536e+11
       890.00000    0.0192433  8.20536e+11
       890.10000    0.0192433  8.19959e+11
       890.20000    0.0192433  8.19382e+11
       890.30000    0.0192433  8.18804e+11
       890.40000    0.0192433  8.18227e+11
       890.50000    0.0190076  8.07633e+11
       890.60000    0.0190076  8.07063e+11
       890.70000    0.0190076  8.06492e+11
       890.80000    0.0190076  8.05922e+11
       890.90000    0.0190076  8.05352e+11
       891.00000    0.0190076  8.04972e+11
       891.10000    0.0190076  8.04402e+11
       891.20000    0.0190076  8.04021e+11
       891.30000    0.0186695  7.89160e+11
       891.40000    0.0186695  7.88787e+11
       891.50000    0.0184346  7.78492e+11
       891.60000    0.0184346  7.78124e+11
       891.70000    0.0184346  7.77755e+11
       891.80000    0.0184346  7.77386e+11
       891.90000    0.0184346  7.77017e+11
       892.00000    0.0184346  7.76649e+11
       892.10000    0.0184346  7.76280e+11
       892.20000    0.0184346  7.76096e+11
       892.30000    0.0184346  7.75727e+11
       892.40000    0.0184346  7.75543e+11
       892.50000    0.0181894  7.64865e+11
       892.60000    0.0181894  7.64683e+11
       892.70000    0.0181894  7.64501e+11
       892.80000    0.0181894  7.64320e+11
       892.90000    0.0181894  7.64138e+11
       893.00000    0.0181894  7.63956e+11
       893.10000    0.0181894  7.63774e+11
       893.20000    0.0181894  7.63592e+11
       893.30000    0.0181894  7.63410e+11
       893.40000    0.0181894  7.63410e+11
       893.50000    0.0179457  7.53004e+11
       893.60000    0.0179457  7.53004e+11
       893.70000    0.0179457  7.52824e+11
       893.80000    0.0176361  7.39836e+11
       893.90000    0.0176361  7.39836e+11
       894.00000    0.0176361  7.39836e+11
       894.10000    0.0176361  7.40365e+11
       894.20000    0.0176361  7.40718e+11
       894.30000    0.0176361  7.41247e+11
       894.40000    0.0176361  7.41600e+11
       894.50000    0.0173956  7.32008e+11
       894.60000    0.0173956  7.32356e+11
       894.70000    0.0173956  7.32704e+11
       894.80000    0.0173956  7.33052e+11
       894.90000    0.0173956  7.33400e+11
       895.00000    0.0173956  7.33747e+11
       895.10000    0.0173956  7.33921e+11
       895.20000    0.0173956  7.34269e+11
       895.30000    0.0173956  7.34443e+11
       895.40000    0.0173956  7.34617e+11
       895.50000    0.0171533  7.24729e+11
       895.60000    0.0171533  7.24900e+11
       895.70000    0.0171533  7.25072e+11
       895.80000    0.0171533  7.25072e+11
       895.90000    0.0171533  7.25243e+11
       896.00000    0.0171533  7.25415e+11
       896.10000    0.0171533  7.25586e+11
       896.20000    0.0171533  7.25586e+11
       896.30000    0.0169010  7.15082e+11
       896.40000    0.0169010  7.15082e+11
       896.50000    0.0166666  7.05164e+11
       896.60000    0.0166666  7.05164e+11
       896.70000    0.0166666  7.05164e+11
       896.80000    0.0166666  7.05164e+11
       896.90000    0.0166666  7.05164e+11
       897.00000    0.0166666  7.04997e+11
       897.10000    0.0166666  7.04997e+11
       897.20000    0.0166666  7.04831e+11
       897.30000    0.0166666  7.04664e+11
       897.40000    0.0166666  7.04497e+11
       897.50000    0.0164290  6.94124e+11
       897.60000    0.0164290  6.93959e+11
       897.70000    0.0164290  6.93631e+11
       897.80000    0.0164290  6.93466e+11
       897.90000    0.0164290  6.93138e+11
       898.00000    0.0164290  6.92809e+11
       898.10000    0.0164290  6.92316e+11
       898.20000    0.0164290  6.91988e+11
       898.30000    0.0164290  6.91659e+11
       898.40000    0.0164290  6.91166e+11
       898.50000    0.0162209  6.81928e+11
       898.60000    0.0162209  6.81441e+11
       898.70000    0.0162209  6.80954e+11
       898.80000    0.0159813  6.70414e+11
       898.90000    0.0159813  6.69775e+11
       899.00000    0.0159813  6.69295e+11
       899.10000    0.0159813  6.68656e+11
       899.20000    0.0159813  6.68017e+11
       899.30000    0.0159813  6.67378e+11
       899.40000    0.0159813  6.66738e+11
       899.50000    0.0157708  6.57326e+11
       899.60000    0.0157708  6.56537e+11
       899.70000    0.0157708  6.55907e+11
       899.80000    0.0157708  6.55118e+11
       899.90000    0.0157708  6.54330e+11
       900.00000    0.0157708  6.53541e+11
       900.10000    0.0157708  6.51648e+11
       900.20000    0.0157708  6.50071e+11
       900.30000    0.0157708  6.48337e+11
       900.40000    0.0157708  6.46917e+11
       900.50000    0.0156064  6.38769e+11
       900.60000    0.0156064  6.37520e+11
       900.70000    0.0156064  6.36271e+11
       900.80000    0.0156064  6.35335e+11
       900.90000    0.0156064  6.34399e+11
       901.00000    0.0156064  6.33462e+11
       901.10000    0.0156064  6.32838e+11
       901.20000    0.0156064  6.32214e+11
       901.30000    0.0153847  6.22619e+11
       901.40000    0.0153847  6.22312e+11
       901.50000    0.0152293  6.15722e+11
       901.60000    0.0152293  6.15570e+11
       901.70000    0.0152293  6.15418e+11
       901.80000    0.0152293  6.15418e+11
       901.90000    0.0152293  6.15570e+11
       902.00000    0.0152293  6.15874e+11
       902.10000    0.0152293  6.18007e+11
       902.20000    0.0152293  6.19986e+11
       902.30000    0.0152293  6.21966e+11
       902.40000    0.0152293  6.23794e+11
       902.50000    0.0150634  6.18805e+11
       902.60000    0.0150634  6.20462e+11
       902.70000    0.0150634  6.22119e+11
       902.80000    0.0150634  6.23626e+11
       902.90000    0.0150634  6.25132e+11
       903.00000    0.0150634  6.26488e+11
       903.10000    0.0150634  6.27843e+11
       903.20000    0.0150634  6.29048e+11
       903.30000    0.0150634  6.30103e+11
       903.40000    0.0150634  6.31157e+11
       903.50000    0.0148940  6.24953e+11
       903.60000    0.0148940  6.25847e+11
       903.70000    0.0148940  6.26740e+11
       903.80000    0.0146865  6.18594e+11
       903.90000    0.0146865  6.19328e+11
       904.00000    0.0146865  6.19769e+11
       904.10000    0.0146865  6.20209e+11
       904.20000    0.0146865  6.20650e+11
       904.30000    0.0146865  6.20944e+11
       904.40000    0.0146865  6.21091e+11
       904.50000    0.0145047  6.13550e+11
       904.60000    0.0145047  6.13695e+11
       904.70000    0.0145047  6.13695e+11
       904.80000    0.0145047  6.13550e+11
       904.90000    0.0145047  6.13405e+11
       905.00000    0.0145047  6.13114e+11
       905.10000    0.0145047  6.12824e+11
       905.20000    0.0145047  6.12389e+11
       905.30000    0.0145047  6.11954e+11
       905.40000    0.0145047  6.11374e+11
       905.50000    0.0143195  6.02852e+11
       905.60000    0.0143195  6.02137e+11
       905.70000    0.0143195  6.01421e+11
       905.80000    0.0143195  6.00561e+11
       905.90000    0.0143195  5.99559e+11
       906.00000    0.0143195  5.98557e+11
       906.10000    0.0143195  5.97984e+11
       906.20000    0.0143195  5.97554e+11
       906.30000    0.0141126  5.88497e+11
       906.40000    0.0141126  5.87932e+11
       906.50000    0.0139188  5.79440e+11
       906.60000    0.0139188  5.79023e+11
       906.70000    0.0139188  5.78605e+11
       906.80000    0.0139188  5.78188e+11
       906.90000    0.0139188  5.77770e+11
       907.00000    0.0139188  5.77352e+11
       907.10000    0.0139188  5.76935e+11
       907.20000    0.0139188  5.76517e+11
       907.30000    0.0139188  5.76100e+11
       907.40000    0.0139188  5.75682e+11
       907.50000    0.0137385  5.67812e+11
       907.60000    0.0137385  5.67537e+11
       907.70000    0.0137385  5.67125e+11
       907.80000    0.0137385  5.66712e+11
       907.90000    0.0137385  5.66438e+11
       908.00000    0.0137385  5.66026e+11
       908.10000    0.0137385  5.65476e+11
       908.20000    0.0137385  5.65064e+11
       908.30000    0.0137385  5.64514e+11
       908.40000    0.0137385  5.64102e+11
       908.50000    0.0135724  5.56875e+11
       908.60000    0.0135724  5.56468e+11
       908.70000    0.0135724  5.56196e+11
       908.80000    0.0133675  5.47401e+11
       908.90000    0.0133675  5.47134e+11
       909.00000    0.0133675  5.46866e+11
       909.10000    0.0133675  5.46599e+11
       909.20000    0.0133675  5.46332e+11
       909.30000    0.0133675  5.46064e+11
       909.40000    0.0133675  5.45931e+11
       909.50000    0.0132166  5.39633e+11
       909.60000    0.0132166  5.39501e+11
       909.70000    0.0132166  5.39369e+11
       909.80000    0.0132166  5.39236e+11
       909.90000    0.0132166  5.39236e+11
       910.00000    0.0132166  5.39104e+11
       910.10000    0.0132166  5.39104e+11
       910.20000    0.0132166  5.39104e+11
       910.30000    0.0132166  5.39236e+11
       910.40000    0.0132166  5.39236e+11
       910.50000    0.0130895  5.34181e+11
       910.60000    0.0130895  5.34181e+11
       910.70000    0.0130895  5.34312e+11
       910.80000    0.0130895  5.34574e+11
       910.90000    0.0130895  5.34705e+11
       911.00000    0.0130895  5.34836e+11
       911.10000    0.0130895  5.35097e+11
       911.20000    0.0130895  5.35359e+11
       911.30000    0.0128808  5.27082e+11
       911.40000    0.0128808  5.27340e+11
       911.50000    0.0127660  5.23022e+11
       911.60000    0.0127660  5.23277e+11
       911.70000    0.0127660  5.23660e+11
       911.80000    0.0127660  5.24043e+11
       911.90000    0.0127660  5.24426e+11
       912.00000    0.0127660  5.24937e+11
       912.10000    0.0127660  5.25575e+11
       912.20000    0.0127660  5.26086e+11
       912.30000    0.0127660  5.26596e+11
       912.40000    0.0127660  5.27107e+11
       912.50000    0.0126672  5.23537e+11
       912.60000    0.0126672  5.24043e+11
       912.70000    0.0126672  5.24550e+11
       912.80000    0.0126672  5.24930e+11
       912.90000    0.0126672  5.25310e+11
       913.00000    0.0126672  5.25690e+11
       913.10000    0.0126672  5.26070e+11
       913.20000    0.0126672  5.26323e+11
       913.30000    0.0126672  5.26703e+11
       913.40000    0.0126672  5.26957e+11
       913.50000    0.0125831  5.23709e+11
       913.60000    0.0125831  5.23961e+11
       913.70000    0.0125831  5.24086e+11
       913.80000    0.0123674  5.15228e+11
       913.90000    0.0123674  5.15475e+11
       914.00000    0.0123674  5.15599e+11
       914.10000    0.0123674  5.15351e+11
       914.20000    0.0123674  5.15228e+11
       914.30000    0.0123674  5.15104e+11
       914.40000    0.0123674  5.14980e+11
       914.50000    0.0122837  5.11372e+11
       914.60000    0.0122837  5.11126e+11
       914.70000    0.0122837  5.11003e+11
       914.80000    0.0122837  5.10881e+11
       914.90000    0.0122837  5.10758e+11
       915.00000    0.0122837  5.10635e+11
       915.10000    0.0122837  5.10512e+11
       915.20000    0.0122837  5.10389e+11
       915.30000    0.0122837  5.10266e+11
       915.40000    0.0122837  5.10144e+11
       915.50000    0.0121960  5.06379e+11
       915.60000    0.0121960  5.06257e+11
       915.70000    0.0121960  5.06135e+11
       915.80000    0.0121960  5.06013e+11
       915.90000    0.0121960  5.05891e+11
       916.00000    0.0121960  5.05769e+11
       916.10000    0.0121960  5.05647e+11
       916.20000    0.0121960  5.05525e+11
       916.30000    0.0119693  4.96009e+11
       916.40000    0.0119693  4.95889e+11
       916.50000    0.0118720  4.91736e+11
       916.60000    0.0118720  4.91736e+11
       916.70000    0.0118720  4.91617e+11
       916.80000    0.0118720  4.91499e+11
       916.90000    0.0118720  4.91380e+11
       917.00000    0.0118720  4.91261e+11
       917.10000    0.0118720  4.91261e+11
       917.20000    0.0118720  4.91143e+11
       917.30000    0.0118720  4.91024e+11
       917.40000    0.0118720  4.90905e+11
       917.50000    0.0117458  4.85687e+11
       917.60000    0.0117458  4.85570e+11
       917.70000    0.0117458  4.85452e+11
       917.80000    0.0117458  4.85452e+11
       917.90000    0.0117458  4.85335e+11
       918.00000    0.0117458  4.85217e+11
       918.10000    0.0117458  4.85452e+11
       918.20000    0.0117458  4.85687e+11
       918.30000    0.0117458  4.85922e+11
       918.40000    0.0117458  4.86040e+11
       918.50000    0.0115801  4.79301e+11
       918.60000    0.0115801  4.79417e+11
       918.70000    0.0115801  4.79417e+11
       918.80000    0.0113635  4.70449e+11
       918.90000    0.0113635  4.70449e+11
       919.00000    0.0113635  4.70449e+11
       919.10000    0.0113635  4.70335e+11
       919.20000    0.0113635  4.70221e+11
       919.30000    0.0113635  4.70108e+11
       919.40000    0.0113635  4.69880e+11
       919.50000    0.0111049  4.58965e+11
       919.60000    0.0111049  4.58743e+11
       919.70000    0.0111049  4.58521e+11
       919.80000    0.0111049  4.58188e+11
       919.90000    0.0111049  4.57965e+11
       920.00000    0.0111049  4.57632e+11
       920.10000    0.0111049  4.56633e+11
       920.20000    0.0111049  4.55744e+11
       920.30000    0.0111049  4.54856e+11
       920.40000    0.0111049  4.53968e+11
       920.50000    0.0107120  4.37050e+11
       920.60000    0.0107120  4.36300e+11
       920.70000    0.0107120  4.35550e+11
       920.80000    0.0107120  4.34908e+11
       920.90000    0.0107120  4.34158e+11
       921.00000    0.0107120  4.33515e+11
       921.10000    0.0107120  4.32872e+11
       921.20000    0.0107120  4.32337e+11
       921.30000    0.0105063  4.23404e+11
       921.40000    0.0105063  4.22878e+11
       921.50000   0.00988636  3.97432e+11
       921.60000   0.00988636  3.97036e+11
       921.70000   0.00988636  3.96641e+11
       921.80000   0.00988636  3.96245e+11
       921.90000   0.00988636  3.95850e+11
       922.00000   0.00988636  3.95553e+11
       922.10000   0.00988636  3.95158e+11
       922.20000   0.00988636  3.94960e+11
       922.30000   0.00988636  3.94664e+11
       922.40000   0.00988636  3.94466e+11
       922.50000   0.00896451  3.57415e+11
       922.60000   0.00896451  3.57325e+11
       922.70000   0.00896451  3.57146e+11
       922.80000   0.00896451  3.57057e+11
       922.90000   0.00896451  3.56967e+11
       923.00000   0.00896451  3.56877e+11
       923.10000   0.00896451  3.56877e+11
       923.20000   0.00896451  3.56788e+11
       923.30000   0.00896451  3.56788e+11
       923.40000   0.00896451  3.56877e+11
       923.50000   0.00782446  3.11492e+11
       923.60000   0.00782446  3.11570e+11
       923.70000   0.00782446  3.11648e+11
       923.80000   0.00767221  3.05738e+11
       923.90000   0.00767221  3.05814e+11
       924.00000   0.00767221  3.05968e+11
       924.10000   0.00767221  3.05968e+11
       924.20000   0.00767221  3.05968e+11
       924.30000   0.00767221  3.05968e+11
       924.40000   0.00767221  3.05968e+11
       924.50000   0.00633297  2.52559e+11
       924.60000   0.00633297  2.52559e+11
       924.70000   0.00633297  2.52622e+11
       924.80000   0.00633297  2.52686e+11
       924.90000   0.00633297  2.52686e+11
       925.00000   0.00633297  2.52749e+11
       925.10000   0.00633297  2.52876e+11
       925.20000   0.00633297  2.52939e+11
       925.30000   0.00633297  2.53002e+11
       925.40000   0.00633297  2.53129e+11
       925.50000   0.00495039  1.97966e+11
       925.60000   0.00495039  1.98065e+11
       925.70000   0.00495039  1.98164e+11
       925.80000   0.00495039  1.98263e+11
       925.90000   0.00495039  1.98362e+11
       926.00000   0.00495039  1.98511e+11
       926.10000   0.00495039  1.98808e+11
       926.20000   0.00495039  1.99154e+11
       926.30000   0.00485392  1.95565e+11
       926.40000   0.00485392  1.95856e+11
       926.50000   0.00370095  1.49555e+11
       926.60000   0.00370095  1.49740e+11
       926.70000   0.00370095  1.49925e+11
       926.80000   0.00370095  1.50110e+11
       926.90000   0.00370095  1.50296e+11
       927.00000   0.00370095  1.50444e+11
       927.10000   0.00370095  1.50592e+11
       927.20000   0.00370095  1.50740e+11
       927.30000   0.00370095  1.50851e+11
       927.40000   0.00370095  1.50962e+11
       927.50000   0.00272697  1.11315e+11
       927.60000   0.00272697  1.11369e+11
       927.70000   0.00272697  1.11451e+11
       927.80000   0.00272697  1.11506e+11
       927.90000   0.00272697  1.11533e+11
       928.00000   0.00272697  1.11560e+11
       928.10000   0.00272697  1.11506e+11
       928.20000   0.00272697  1.11451e+11
       928.30000   0.00272697  1.11369e+11
       928.40000   0.00272697  1.11315e+11
       928.50000   0.00195728  7.98569e+10
       928.60000   0.00195728  7.98178e+10
       928.70000   0.00195728  7.97787e+10
       928.80000   0.00191941  7.81970e+10
       928.90000   0.00191941  7.81586e+10
       929.00000   0.00191941  7.81394e+10
       929.10000   0.00191941  7.81010e+10
       929.20000   0.00191941  7.80626e+10
       929.30000   0.00191941  7.80434e+10
       929.40000   0.00191941  7.80050e+10
       929.50000   0.00139514  5.66844e+10
       929.60000   0.00139514  5.66705e+10
       929.70000   0.00139514  5.66426e+10
       929.80000   0.00139514  5.66286e+10
       929.90000   0.00139514  5.66147e+10
       930.00000   0.00139514  5.66007e+10
       930.10000   0.00139514  5.66007e+10
       930.20000   0.00139514  5.66007e+10
       930.30000   0.00139514  5.65868e+10
       930.40000   0.00139514  5.65868e+10
       930.50000   0.00101203  4.10479e+10
       930.60000   0.00101203  4.10479e+10
       930.70000   0.00101203  4.10378e+10
       930.80000   0.00101203  4.10378e+10
       930.90000   0.00101203  4.10378e+10
       931.00000   0.00101203  4.10378e+10
       931.10000   0.00101203  4.10378e+10
       931.20000   0.00101203  4.10277e+10
       931.30000  0.000993519  4.02773e+10
       931.40000  0.000993519  4.02773e+10
       931.50000  0.000714006  2.89458e+10
       931.60000  0.000714006  2.89458e+10
       931.70000  0.000714006  2.89458e+10
       931.80000  0.000714006  2.89458e+10
       931.90000  0.000714006  2.89458e+10
       932.00000  0.000714006  2.89458e+10
       932.10000  0.000714006  2.89458e+10
       932.20000  0.000714006  2.89458e+10
       932.30000  0.000714006  2.89458e+10
       932.40000  0.000714006  2.89458e+10
       932.50000  0.000530095  2.14900e+10
       932.60000  0.000530095  2.14900e+10
       932.70000  0.000530095  2.14900e+10
       932.80000  0.000530095  2.14953e+10
       932.90000  0.000530095  2.14953e+10
       933.00000  0.000530095  2.14953e+10
       933.10000  0.000530095  2.14953e+10
       933.20000  0.000530095  2.14953e+10
       933.30000  0.000530095  2.15006e+10
       933.40000  0.000530095  2.15006e+10
       933.50000  0.000392448  1.59177e+10
       933.60000  0.000392448  1.59216e+10
       933.70000  0.000392448  1.59216e+10
       933.80000  0.000385795  1.56517e+10
       933.90000  0.000385795  1.56555e+10
       934.00000  0.000385795  1.56555e+10
       934.10000  0.000385795  1.56440e+10
       934.20000  0.000385795  1.56324e+10
       934.30000  0.000385795  1.56208e+10
       934.40000  0.000385795  1.56093e+10
       934.50000  0.000285797  1.15548e+10
       934.60000  0.000285797  1.15491e+10
       934.70000  0.000285797  1.15433e+10
       934.80000  0.000285797  1.15348e+10
       934.90000  0.000285797  1.15290e+10
       935.00000  0.000285797  1.15262e+10
       935.10000  0.000285797  1.15205e+10
       935.20000  0.000285797  1.15148e+10
       935.30000  0.000285797  1.15119e+10
       935.40000  0.000285797  1.15090e+10
       935.50000  0.000216657  8.72260e+09
       935.60000  0.000216657  8.72043e+09
       935.70000  0.000216657  8.71826e+09
       935.80000  0.000216657  8.71610e+09
       935.90000  0.000216657  8.71610e+09
       936.00000  0.000216657  8.71393e+09
       936.10000  0.000216657  8.72043e+09
       936.20000  0.000216657  8.72693e+09
       936.30000  0.000213094  8.58981e+09
       936.40000  0.000213094  8.59620e+09
       936.50000  0.000162002  6.53839e+09
       936.60000  0.000162002  6.54162e+09
       936.70000  0.000162002  6.54487e+09
       936.80000  0.000162002  6.54811e+09
       936.90000  0.000162002  6.54973e+09
       937.00000  0.000162002  6.55297e+09
       937.10000  0.000162002  6.55459e+09
       937.20000  0.000162002  6.55621e+09
       937.30000  0.000162002  6.55621e+09
       937.40000  0.000162002  6.55783e+09
       937.50000  0.000123463  4.99778e+09
       937.60000  0.000123463  4.99778e+09
       937.70000  0.000123463  4.99778e+09
       937.80000  0.000123463  4.99778e+09
       937.90000  0.000123463  4.99654e+09
       938.00000  0.000123463  4.99654e+09
       938.10000  0.000123463  4.99531e+09
       938.20000  0.000123463  4.99284e+09
       938.30000  0.000123463  4.99161e+09
       938.40000  0.000123463  4.98914e+09
       938.50000  9.51702e-05  3.84487e+09
       938.60000  9.51702e-05  3.84297e+09
       938.70000  9.51702e-05  3.84012e+09
       938.80000  9.36866e-05  3.77838e+09
       938.90000  9.36866e-05  3.77557e+09
       939.00000  9.36866e-05  3.77369e+09
       939.10000  9.36866e-05  3.77088e+09
       939.20000  9.36866e-05  3.76714e+09
       939.30000  9.36866e-05  3.76433e+09
       939.40000  9.36866e-05  3.76058e+09
       939.50000  7.29487e-05  2.92524e+09
       939.60000  7.29487e-05  2.92233e+09
       939.70000  7.29487e-05  2.91941e+09
       939.80000  7.29487e-05  2.91649e+09
       939.90000  7.29487e-05  2.91284e+09
       940.00000  7.29487e-05  2.90919e+09
       940.10000  7.29487e-05  2.90409e+09
       940.20000  7.29487e-05  2.89898e+09
       940.30000  7.29487e-05  2.89461e+09
       940.40000  7.29487e-05  2.89023e+09
       940.50000  5.73588e-05  2.26911e+09
       940.60000  5.73588e-05  2.26625e+09
       940.70000  5.73588e-05  2.26338e+09
       940.80000  5.73588e-05  2.26051e+09
       940.90000  5.73588e-05  2.25764e+09
       941.00000  5.73588e-05  2.25535e+09
       941.10000  5.73588e-05  2.25305e+09
       941.20000  5.73588e-05  2.25133e+09
       941.30000  5.65039e-05  2.21608e+09
       941.40000  5.65039e-05  2.21439e+09
       941.50000  4.60231e-05  1.80226e+09
       941.60000  4.60231e-05  1.80134e+09
       941.70000  4.60231e-05  1.80042e+09
       941.80000  4.60231e-05  1.79950e+09
       941.90000  4.60231e-05  1.79858e+09
       942.00000  4.60231e-05  1.79812e+09
       942.10000  4.60231e-05  1.79950e+09
       942.20000  4.60231e-05  1.80042e+09
       942.30000  4.60231e-05  1.80180e+09
       942.40000  4.60231e-05  1.80272e+09
       942.50000  3.60061e-05  1.41108e+09
       942.60000  3.60061e-05  1.41216e+09
       942.70000  3.60061e-05  1.41288e+09
       942.80000  3.60061e-05  1.41360e+09
       942.90000  3.60061e-05  1.41432e+09
       943.00000  3.60061e-05  1.41504e+09
       943.10000  3.60061e-05  1.41612e+09
       943.20000  3.60061e-05  1.41684e+09
       943.30000  3.60061e-05  1.41756e+09
       943.40000  3.60061e-05  1.41828e+09
       943.50000  2.98270e-05  1.17548e+09
       943.60000  2.98270e-05  1.17608e+09
       943.70000  2.98270e-05  1.17668e+09
       943.80000  2.93721e-05  1.15932e+09
       943.90000  2.93721e-05  1.15991e+09
       944.00000  2.93721e-05  1.16049e+09
       944.10000  2.93721e-05  1.16108e+09
       944.20000  2.93721e-05  1.16167e+09
       944.30000  2.93721e-05  1.16196e+09
       944.40000  2.93721e-05  1.16255e+09
       944.50000  2.38250e-05  9.43472e+08
       944.60000  2.38250e-05  9.43948e+08
       944.70000  2.38250e-05  9.44187e+08
       944.80000  2.38250e-05  9.44663e+08
       944.90000  2.38250e-05  9.45140e+08
       945.00000  2.38250e-05  9.45378e+08
       945.10000  2.38250e-05  9.45854e+08
       945.20000  2.38250e-05  9.46331e+08
       945.30000  2.38250e-05  9.46569e+08
       945.40000  2.38250e-05  9.47046e+08
       945.50000  1.93423e-05  7.69051e+08
       945.60000  1.93423e-05  7.69438e+08
       945.70000  1.93423e-05  7.69631e+08
       945.80000  1.93423e-05  7.70018e+08
       945.90000  1.93423e-05  7.70212e+08
       946.00000  1.93423e-05  7.70405e+08
       946.10000  1.93423e-05  7.70792e+08
       946.20000  1.93423e-05  7.71179e+08
       946.30000  1.90521e-05  7.59987e+08
       946.40000  1.90521e-05  7.60368e+08
       946.50000  1.69212e-05  6.75665e+08
       946.60000  1.69212e-05  6.75835e+08
       946.70000  1.69212e-05  6.76173e+08
       946.80000  1.69212e-05  6.76342e+08
       946.90000  1.69212e-05  6.76512e+08
       947.00000  1.69212e-05  6.76850e+08
       947.10000  1.69212e-05  6.77019e+08
       947.20000  1.69212e-05  6.77188e+08
       947.30000  1.69212e-05  6.77358e+08
       947.40000  1.69212e-05  6.77527e+08
       947.50000  1.47239e-05  5.89546e+08
       947.60000  1.47239e-05  5.89693e+08
       947.70000  1.47239e-05  5.89841e+08
       947.80000  1.47239e-05  5.89841e+08
       947.90000  1.47239e-05  5.89988e+08
       948.00000  1.47239e-05  5.89988e+08
       948.10000  1.47239e-05  5.89988e+08
       948.20000  1.47239e-05  5.89988e+08
       948.30000  1.47239e-05  5.89841e+08
       948.40000  1.47239e-05  5.89841e+08
       948.50000  1.31686e-05  5.27402e+08
       948.60000  1.31686e-05  5.27402e+08
       948.70000  1.31686e-05  5.27402e+08
       948.80000  1.29571e-05  5.18803e+08
       948.90000  1.29571e-05  5.18803e+08
       949.00000  1.29571e-05  5.18674e+08
       949.10000  1.29571e-05  5.18674e+08
       949.20000  1.29571e-05  5.18544e+08
       949.30000  1.29571e-05  5.18544e+08
       949.40000  1.29571e-05  5.18415e+08
       949.50000  1.14149e-05  4.56711e+08
       949.60000  1.14149e-05  4.56597e+08
       949.70000  1.14149e-05  4.56483e+08
       949.80000  1.14149e-05  4.56483e+08
       949.90000  1.14149e-05  4.56369e+08
       950.00000  1.14149e-05  4.56255e+08
       950.10000  1.14149e-05  4.56255e+08
       950.20000  1.14149e-05  4.56141e+08
       950.30000  1.14149e-05  4.56026e+08
       950.40000  1.14149e-05  4.56026e+08
       950.50000  1.00209e-05  4.00236e+08
       950.60000  1.00209e-05  4.00136e+08
       950.70000  1.00209e-05  4.00036e+08
       950.80000  1.00209e-05  4.00036e+08
       950.90000  1.00209e-05  3.99935e+08
       951.00000  1.00209e-05  3.99835e+08
       951.10000  1.00209e-05  3.99735e+08
       951.20000  1.00209e-05  3.99635e+08
       951.30000  9.86061e-06  3.93241e+08
       951.40000  9.86061e-06  3.93143e+08
       951.50000  9.42718e-06  3.75767e+08
       951.60000  9.42718e-06  3.75673e+08
       951.70000  9.42718e-06  3.75579e+08
       951.80000  9.42718e-06  3.75485e+08
       951.90000  9.42718e-06  3.75390e+08
       952.00000  9.42718e-06  3.75296e+08
       952.10000  9.42718e-06  3.74542e+08
       952.20000  9.42718e-06  3.73788e+08
       952.30000  9.42718e-06  3.73128e+08
       952.40000  9.42718e-06  3.72468e+08
       952.50000  8.23584e-06  3.24821e+08
       952.60000  8.23584e-06  3.24245e+08
       952.70000  8.23584e-06  3.23751e+08
       952.80000  8.23584e-06  3.23257e+08
       952.90000  8.23584e-06  3.22762e+08
       953.00000  8.23584e-06  3.22351e+08
       953.10000  8.23584e-06  3.21939e+08
       953.20000  8.23584e-06  3.21527e+08
       953.30000  8.23584e-06  3.21198e+08
       953.40000  8.23584e-06  3.20786e+08
       953.50000  8.12247e-06  3.16045e+08
       953.60000  8.12247e-06  3.15802e+08
       953.70000  8.12247e-06  3.15477e+08
       953.80000  7.98761e-06  3.09999e+08
       953.90000  7.98761e-06  3.09759e+08
       954.00000  7.98761e-06  3.09600e+08
       954.10000  7.98761e-06  3.09520e+08
       954.20000  7.98761e-06  3.09440e+08
       954.30000  7.98761e-06  3.09440e+08
       954.40000  7.98761e-06  3.09440e+08
       954.50000  7.19512e-06  2.78667e+08
       954.60000  7.19512e-06  2.78667e+08
       954.70000  7.19512e-06  2.78667e+08
       954.80000  7.19512e-06  2.78667e+08
       954.90000  7.19512e-06  2.78739e+08
       955.00000  7.19512e-06  2.78739e+08
       955.10000  7.19512e-06  2.78811e+08
       955.20000  7.19512e-06  2.78811e+08
       955.30000  7.19512e-06  2.78883e+08
       955.40000  7.19512e-06  2.78955e+08
       955.50000  6.53491e-06  2.53424e+08
       955.60000  6.53491e-06  2.53489e+08
       955.70000  6.53491e-06  2.53554e+08
       955.80000  6.53491e-06  2.53685e+08
       955.90000  6.53491e-06  2.53750e+08
       956.00000  6.53491e-06  2.53881e+08
       956.10000  6.53491e-06  2.54012e+08
       956.20000  6.53491e-06  2.54077e+08
       956.30000  6.42823e-06  2.50058e+08
       956.40000  6.42823e-06  2.50251e+08
       956.50000  5.03621e-06  1.96160e+08
       956.60000  5.03621e-06  1.96261e+08
       956.70000  5.03621e-06  1.96412e+08
       956.80000  5.03621e-06  1.96513e+08
       956.90000  5.03621e-06  1.96664e+08
       957.00000  5.03621e-06  1.96815e+08
       957.10000  5.03621e-06  1.96966e+08
       957.20000  5.03621e-06  1.97117e+08
       957.30000  5.03621e-06  1.97319e+08
       957.40000  5.03621e-06  1.97470e+08
       957.50000  3.94871e-06  1.54948e+08
       957.60000  3.94871e-06  1.55106e+08
       957.70000  3.94871e-06  1.55263e+08
       957.80000  3.94871e-06  1.55421e+08
       957.90000  3.94871e-06  1.55579e+08
       958.00000  3.94871e-06  1.55737e+08
       958.10000  3.94871e-06  1.55737e+08
       958.20000  3.94871e-06  1.55698e+08
       958.30000  3.94871e-06  1.55698e+08
       958.40000  3.94871e-06  1.55698e+08
       958.50000  3.10225e-06  1.22322e+08
       958.60000  3.10225e-06  1.22291e+08
       958.70000  3.10225e-06  1.22291e+08
       958.80000  3.04756e-06  1.20135e+08
       958.90000  3.04756e-06  1.20104e+08
       959.00000  3.04756e-06  1.20104e+08
       959.10000  3.04756e-06  1.20074e+08
       959.20000  3.04756e-06  1.20074e+08
       959.30000  3.04756e-06  1.20043e+08
       959.40000  3.04756e-06  1.20013e+08
       959.50000  2.34029e-06  9.21605e+07
       959.60000  2.34029e-06  9.21371e+07
       959.70000  2.34029e-06  9.21371e+07
       959.80000  2.34029e-06  9.21137e+07
       959.90000  2.34029e-06  9.20903e+07
       960.00000  2.34029e-06  9.20669e+07
       960.10000  2.34029e-06  9.20435e+07
       960.20000  2.34029e-06  9.20201e+07
       960.30000  2.34029e-06  9.19967e+07
       960.40000  2.34029e-06  9.19733e+07
       960.50000  1.85408e-06  7.28469e+07
       960.60000  1.85408e-06  7.28283e+07
       960.70000  1.85408e-06  7.28098e+07
       960.80000  1.85408e-06  7.27913e+07
       960.90000  1.85408e-06  7.27727e+07
       961.00000  1.85408e-06  7.27542e+07
       961.10000  1.85408e-06  7.27356e+07
       961.20000  1.85408e-06  7.27171e+07
       961.30000  1.82187e-06  7.14355e+07
       961.40000  1.82187e-06  7.14172e+07
       961.50000  1.45429e-06  5.69937e+07
       961.60000  1.45429e-06  5.69646e+07
       961.70000  1.45429e-06  5.69501e+07
       961.80000  1.45429e-06  5.69355e+07
       961.90000  1.45429e-06  5.69210e+07
       962.00000  1.45429e-06  5.69065e+07
       962.10000  1.45429e-06  5.68774e+07
       962.20000  1.45429e-06  5.68628e+07
       962.30000  1.45429e-06  5.68483e+07
       962.40000  1.45429e-06  5.68192e+07
       962.50000  1.09736e-06  4.28630e+07
       962.60000  1.09736e-06  4.28520e+07
       962.70000  1.09736e-06  4.28301e+07
       962.80000  1.09736e-06  4.28191e+07
       962.90000  1.09736e-06  4.27971e+07
       963.00000  1.09736e-06  4.27862e+07
       963.10000  1.09736e-06  4.27752e+07
       963.20000  1.09736e-06  4.27532e+07
       963.30000  1.09736e-06  4.27423e+07
       963.40000  1.09736e-06  4.27203e+07
       963.50000  8.45068e-07  3.28900e+07
       963.60000  8.45068e-07  3.28731e+07
       963.70000  8.45068e-07  3.28647e+07
       963.80000  8.29721e-07  3.22512e+07
       963.90000  8.29721e-07  3.22347e+07
       964.00000  8.29721e-07  3.22264e+07
       964.10000  8.29721e-07  3.22098e+07
       964.20000  8.29721e-07  3.21849e+07
       964.30000  8.29721e-07  3.21683e+07
       964.40000  8.29721e-07  3.21600e+07
       964.50000  6.34950e-07  2.45980e+07
       964.60000  6.34950e-07  2.45853e+07
       964.70000  6.34950e-07  2.45789e+07
       964.80000  6.34950e-07  2.45662e+07
       964.90000  6.34950e-07  2.45599e+07
       965.00000  6.34950e-07  2.45472e+07
       965.10000  6.34950e-07  2.45408e+07
       965.20000  6.34950e-07  2.45345e+07
       965.30000  6.34950e-07  2.45281e+07
       965.40000  6.34950e-07  2.45281e+07
       965.50000  4.90589e-07  1.89465e+07
       965.60000  4.90589e-07  1.89416e+07
       965.70000  4.90589e-07  1.89416e+07
       965.80000  4.90589e-07  1.89367e+07
       965.90000  4.90589e-07  1.89367e+07
       966.00000  4.90589e-07  1.89367e+07
       966.10000  4.90589e-07  1.89416e+07
       966.20000  4.90589e-07  1.89465e+07
       966.30000  4.81516e-07  1.86058e+07
       966.40000  4.81516e-07  1.86106e+07
       966.50000  3.44308e-07  1.33109e+07
       966.60000  3.44308e-07  1.33144e+07
       966.70000  3.44308e-07  1.33178e+07
       966.80000  3.44308e-07  1.33213e+07
       966.90000  3.44308e-07  1.33247e+07
       967.00000  3.44308e-07  1.33282e+07
       967.10000  3.44308e-07  1.33316e+07
       967.20000  3.44308e-07  1.33350e+07
       967.30000  3.44308e-07  1.33385e+07
       967.40000  3.44308e-07  1.33419e+07
       967.50000  2.11504e-07  8.19576e+06
       967.60000  2.11504e-07  8.19788e+06
       967.70000  2.11504e-07  8.19999e+06
       967.80000  2.11504e-07  8.19999e+06
       967.90000  2.11504e-07  8.20211e+06
       968.00000  2.11504e-07  8.20422e+06
       968.10000  2.11504e-07  8.20422e+06
       968.20000  2.11504e-07  8.20634e+06
       968.30000  2.11504e-07  8.20634e+06
       968.40000  2.11504e-07  8.20634e+06
       968.50000  1.66239e-07  6.45174e+06
       968.60000  1.66239e-07  6.45174e+06
       968.70000  1.66239e-07  6.45174e+06
       968.80000  1.63159e-07  6.33383e+06
       968.90000  1.63159e-07  6.33383e+06
       969.00000  1.63159e-07  6.33383e+06
       969.10000  1.63159e-07  6.33383e+06
       969.20000  1.63159e-07  6.33383e+06
       969.30000  1.63159e-07  6.33383e+06
       969.40000  1.63159e-07  6.33383e+06
       969.50000  8.01490e-08  3.11138e+06
       969.60000  8.01490e-08  3.11138e+06
       969.70000  8.01490e-08  3.11138e+06
       969.80000  8.01490e-08  3.11138e+06
       969.90000  8.01490e-08  3.11138e+06
       970.00000  8.01490e-08  3.11138e+06
       970.10000  8.01490e-08  3.11218e+06
       970.20000  8.01490e-08  3.11299e+06
       970.30000  8.01490e-08  3.11299e+06
       970.40000  8.01490e-08  3.11379e+06
       970.50000  2.57307e-08      999637.
       970.60000  2.57307e-08      999895.
       970.70000  2.57307e-08      999895.
       970.80000  2.57307e-08      999895.
       970.90000  2.57307e-08      999895.
       971.00000  2.57307e-08      999895.
       971.10000  2.57307e-08      999895.
       971.20000  2.57307e-08      999637.
       971.30000  2.52550e-08      981156.
       971.40000  2.52550e-08      980904.
       971.50000  1.82802e-08      710004.
       971.60000  1.82802e-08      709821.
       971.70000  1.82802e-08      709638.
       971.80000  1.82802e-08      709456.
       971.90000  1.82802e-08      709273.
       972.00000  1.82802e-08      708907.
       972.10000  1.82802e-08      708176.
       972.20000  1.82802e-08      707445.
       972.30000  1.82802e-08      706896.
       972.40000  1.82802e-08      706165.
       972.50000  3.72034e-08  1.43605e+06
       972.60000  3.72034e-08  1.43456e+06
       972.70000  3.72034e-08  1.43345e+06
       972.80000  3.72034e-08  1.43233e+06
       972.90000  3.72034e-08  1.43121e+06
       973.00000  3.72034e-08  1.43047e+06
       973.10000  3.72034e-08  1.42935e+06
       973.20000  3.72034e-08  1.42861e+06
       973.30000  3.72034e-08  1.42787e+06
       973.40000  3.72034e-08  1.42712e+06
       973.50000  7.29900e-08  2.79844e+06
       973.60000  7.29900e-08  2.79698e+06
       973.70000  7.29900e-08  2.79625e+06
       973.80000  7.15682e-08  2.74035e+06
       973.90000  7.15682e-08  2.73963e+06
       974.00000  7.15682e-08  2.73892e+06
       974.10000  7.15682e-08  2.73963e+06
       974.20000  7.15682e-08  2.74106e+06
       974.30000  7.15682e-08  2.74178e+06
       974.40000  7.15682e-08  2.74249e+06
       974.50000  1.05260e-07  4.03460e+06
       974.60000  1.05260e-07  4.03565e+06
       974.70000  1.05260e-07  4.03671e+06
       974.80000  1.05260e-07  4.03776e+06
       974.90000  1.05260e-07  4.03776e+06
       975.00000  1.05260e-07  4.03881e+06
       975.10000  1.05260e-07  4.03986e+06
       975.20000  1.05260e-07  4.03986e+06
       975.30000  1.05260e-07  4.04092e+06
       975.40000  1.05260e-07  4.04092e+06
       975.50000  1.03173e-07  3.96080e+06
       975.60000  1.03173e-07  3.96183e+06
       975.70000  1.03173e-07  3.96183e+06
       975.80000  1.03173e-07  3.96183e+06
       975.90000  1.03173e-07  3.96183e+06
       976.00000  1.03173e-07  3.96183e+06
       976.10000  1.03173e-07  3.96080e+06
       976.20000  1.03173e-07  3.95977e+06
       976.30000  1.01200e-07  3.88303e+06
       976.40000  1.01200e-07  3.88202e+06
       976.50000  1.32188e-07  5.07074e+06
       976.60000  1.32188e-07  5.06941e+06
       976.70000  1.32188e-07  5.06809e+06
       976.80000  1.32188e-07  5.06677e+06
       976.90000  1.32188e-07  5.06677e+06
       977.00000  1.32188e-07  5.06545e+06
       977.10000  1.32188e-07  5.06413e+06
       977.20000  1.32188e-07  5.06280e+06
       977.30000  1.32188e-07  5.06280e+06
       977.40000  1.32188e-07  5.06148e+06
       977.50000  1.29494e-07  4.95705e+06
       977.60000  1.29494e-07  4.95705e+06
       977.70000  1.29494e-07  4.95575e+06
       977.80000  1.29494e-07  4.95446e+06
       977.90000  1.29494e-07  4.95446e+06
       978.00000  1.29494e-07  4.95316e+06
       978.10000  1.29494e-07  4.95316e+06
       978.20000  1.29494e-07  4.95187e+06
       978.30000  1.29494e-07  4.95187e+06
       978.40000  1.29494e-07  4.95057e+06
       978.50000  1.58408e-07  6.05436e+06
       978.60000  1.58408e-07  6.05436e+06
       978.70000  1.58408e-07  6.05436e+06
       978.80000  1.55325e-07  5.93496e+06
       978.90000  1.55325e-07  5.93496e+06
       979.00000  1.55325e-07  5.93341e+06
       979.10000  1.55325e-07  5.93341e+06
       979.20000  1.55325e-07  5.93186e+06
       979.30000  1.55325e-07  5.93186e+06
       979.40000  1.55325e-07  5.93186e+06
       979.50000  1.51954e-07  5.80160e+06
       979.60000  1.51954e-07  5.80160e+06
       979.70000  1.51954e-07  5.80160e+06
       979.80000  1.51954e-07  5.80008e+06
       979.90000  1.51954e-07  5.80008e+06
       980.00000  1.51954e-07  5.80008e+06
       980.10000  1.51954e-07  5.80312e+06
       980.20000  1.51954e-07  5.80464e+06
       980.30000  1.51954e-07  5.80768e+06
       980.40000  1.51954e-07  5.80920e+06
       980.50000  1.48613e-07  5.68447e+06
       980.60000  1.48613e-07  5.68595e+06
       980.70000  1.48613e-07  5.68744e+06
       980.80000  1.48613e-07  5.68892e+06
       980.90000  1.48613e-07  5.69041e+06
       981.00000  1.48613e-07  5.69190e+06
       981.10000  1.48613e-07  5.69338e+06
       981.20000  1.48613e-07  5.69487e+06
       981.30000  1.45606e-07  5.57963e+06
       981.40000  1.45606e-07  5.58109e+06
       981.50000  1.70774e-07  6.54578e+06
       981.60000  1.70774e-07  6.54578e+06
       981.70000  1.70774e-07  6.54749e+06
       981.80000  1.70774e-07  6.54749e+06
       981.90000  1.70774e-07  6.54749e+06
       982.00000  1.70774e-07  6.54578e+06
       982.10000  1.70774e-07  6.54407e+06
       982.20000  1.70774e-07  6.54066e+06
       982.30000  1.70774e-07  6.53895e+06
       982.40000  1.70774e-07  6.53553e+06
       982.50000  1.66819e-07  6.38248e+06
       982.60000  1.66819e-07  6.37915e+06
       982.70000  1.66819e-07  6.37748e+06
       982.80000  1.66819e-07  6.37581e+06
       982.90000  1.66819e-07  6.37248e+06
       983.00000  1.66819e-07  6.37081e+06
       983.10000  1.66819e-07  6.36914e+06
       983.20000  1.66819e-07  6.36747e+06
       983.30000  1.66819e-07  6.36580e+06
       983.40000  1.66819e-07  6.36247e+06
       983.50000  1.62869e-07  6.21018e+06
       983.60000  1.62869e-07  6.20856e+06
       983.70000  1.62869e-07  6.20693e+06
       983.80000  1.59656e-07  6.08291e+06
       983.90000  1.59656e-07  6.08131e+06
       984.00000  1.59656e-07  6.07972e+06
       984.10000  1.59656e-07  6.07972e+06
       984.20000  1.59656e-07  6.07812e+06
       984.30000  1.59656e-07  6.07652e+06
       984.40000  1.59656e-07  6.07493e+06
       984.50000  1.55812e-07  5.92866e+06
       984.60000  1.55812e-07  5.92710e+06
       984.70000  1.55812e-07  5.92554e+06
       984.80000  1.55812e-07  5.92554e+06
       984.90000  1.55812e-07  5.92398e+06
       985.00000  1.55812e-07  5.92243e+06
       985.10000  1.55812e-07  5.92243e+06
       985.20000  1.55812e-07  5.92087e+06
       985.30000  1.55812e-07  5.92087e+06
       985.40000  1.55812e-07  5.92087e+06
       985.50000  1.51931e-07  5.77185e+06
       985.60000  1.51931e-07  5.77185e+06
       985.70000  1.51931e-07  5.77185e+06
       985.80000  1.51931e-07  5.77033e+06
       985.90000  1.51931e-07  5.77033e+06
       986.00000  1.51931e-07  5.77033e+06
       986.10000  1.51931e-07  5.76881e+06
       986.20000  1.51931e-07  5.76881e+06
       986.30000  1.48936e-07  5.65511e+06
       986.40000  1.48936e-07  5.65362e+06
       986.50000  1.45135e-07  5.50787e+06
       986.60000  1.45135e-07  5.50787e+06
       986.70000  1.45135e-07  5.50642e+06
       986.80000  1.45135e-07  5.50642e+06
       986.90000  1.45135e-07  5.50497e+06
       987.00000  1.45135e-07  5.50352e+06
       987.10000  1.45135e-07  5.50206e+06
       987.20000  1.45135e-07  5.50206e+06
       987.30000  1.45135e-07  5.50061e+06
       987.40000  1.45135e-07  5.49916e+06
       987.50000  1.41332e-07  5.35366e+06
       987.60000  1.41332e-07  5.35225e+06
       987.70000  1.41332e-07  5.35083e+06
       987.80000  1.41332e-07  5.34942e+06
       987.90000  1.41332e-07  5.34801e+06
       988.00000  1.41332e-07  5.34659e+06
       988.10000  1.41332e-07  5.34235e+06
       988.20000  1.41332e-07  5.33953e+06
       988.30000  1.41332e-07  5.33529e+06
       988.40000  1.41332e-07  5.33246e+06
       988.50000  1.37550e-07  5.18701e+06
       988.60000  1.37550e-07  5.18426e+06
       988.70000  1.37550e-07  5.18150e+06
       988.80000  1.34870e-07  5.07785e+06
       988.90000  1.34870e-07  5.07515e+06
       989.00000  1.34870e-07  5.07380e+06
       989.10000  1.34870e-07  5.07245e+06
       989.20000  1.34870e-07  5.06976e+06
       989.30000  1.34870e-07  5.06841e+06
       989.40000  1.34870e-07  5.06706e+06
       989.50000  1.31110e-07  4.92448e+06
       989.60000  1.31110e-07  4.92317e+06
       989.70000  1.31110e-07  4.92317e+06
       989.80000  1.31110e-07  4.92186e+06
       989.90000  1.31110e-07  4.92186e+06
       990.00000  1.31110e-07  4.92186e+06
       990.10000  1.31110e-07  4.92054e+06
       990.20000  1.31110e-07  4.92054e+06
       990.30000  1.31110e-07  4.92186e+06
       990.40000  1.31110e-07  4.92186e+06
       990.50000  1.27375e-07  4.78165e+06
       990.60000  1.27375e-07  4.78293e+06
       990.70000  1.27375e-07  4.78293e+06
       990.80000  1.27375e-07  4.78420e+06
       990.90000  1.27375e-07  4.78548e+06
       991.00000  1.27375e-07  4.78675e+06
       991.10000  1.27375e-07  4.78802e+06
       991.20000  1.27375e-07  4.78930e+06
       991.30000  1.25015e-07  4.70180e+06
       991.40000  1.25015e-07  4.70430e+06
       991.50000  1.21368e-07  4.56828e+06
       991.60000  1.21368e-07  4.57070e+06
       991.70000  1.21368e-07  4.57313e+06
       991.80000  1.21368e-07  4.57556e+06
       991.90000  1.21368e-07  4.57799e+06
       992.00000  1.21368e-07  4.58041e+06
       992.10000  1.21368e-07  4.58163e+06
       992.20000  1.21368e-07  4.58163e+06
       992.30000  1.21368e-07  4.58163e+06
       992.40000  1.21368e-07  4.58163e+06
       992.50000  1.17662e-07  4.44291e+06
       992.60000  1.17662e-07  4.44291e+06
       992.70000  1.17662e-07  4.44291e+06
       992.80000  1.17662e-07  4.44291e+06
       992.90000  1.17662e-07  4.44291e+06
       993.00000  1.17662e-07  4.44408e+06
       993.10000  1.17662e-07  4.44408e+06
       993.20000  1.17662e-07  4.44408e+06
       993.30000  1.17662e-07  4.44408e+06
       993.40000  1.17662e-07  4.44408e+06
       993.50000  1.14036e-07  4.30714e+06
       993.60000  1.14036e-07  4.30714e+06
       993.70000  1.14036e-07  4.30714e+06
       993.80000  1.12068e-07  4.23281e+06
       993.90000  1.12068e-07  4.23169e+06
       994.00000  1.12068e-07  4.23169e+06
       994.10000  1.12068e-07  4.23169e+06
       994.20000  1.12068e-07  4.23057e+06
       994.30000  1.12068e-07  4.23057e+06
       994.40000  1.12068e-07  4.22945e+06
       994.50000  1.08463e-07  4.09341e+06
       994.60000  1.08463e-07  4.09232e+06
       994.70000  1.08463e-07  4.09232e+06
       994.80000  1.08463e-07  4.09124e+06
       994.90000  1.08463e-07  4.09124e+06
       995.00000  1.08463e-07  4.09015e+06
       995.10000  1.08463e-07  4.09015e+06
       995.20000  1.08463e-07  4.09015e+06
       995.30000  1.08463e-07  4.08907e+06
       995.40000  1.08463e-07  4.08907e+06
       995.50000  1.04848e-07  3.95276e+06
       995.60000  1.04848e-07  3.95171e+06
       995.70000  1.04848e-07  3.95171e+06
       995.80000  1.04848e-07  3.95171e+06
       995.90000  1.04848e-07  3.95171e+06
       996.00000  1.04848e-07  3.95066e+06
       996.10000  1.04848e-07  3.95171e+06
       996.20000  1.04848e-07  3.95171e+06
       996.30000  1.03090e-07  3.88548e+06
       996.40000  1.03090e-07  3.88548e+06
       996.50000  9.95526e-08  3.75214e+06
       996.60000  9.95526e-08  3.75214e+06
       996.70000  9.95526e-08  3.75214e+06
       996.80000  9.95526e-08  3.75214e+06
       996.90000  9.95526e-08  3.75214e+06
       997.00000  9.95526e-08  3.75214e+06
       997.10000  9.95526e-08  3.75214e+06
       997.20000  9.95526e-08  3.75214e+06
       997.30000  9.95526e-08  3.75214e+06
       997.40000  9.95526e-08  3.75214e+06
       997.50000  9.59990e-08  3.61820e+06
       997.60000  9.59990e-08  3.61820e+06
       997.70000  9.59990e-08  3.61820e+06
       997.80000  9.59990e-08  3.61820e+06
       997.90000  9.59990e-08  3.61820e+06
       998.00000  9.59990e-08  3.61724e+06
       998.10000  9.59990e-08  3.61724e+06
       998.20000  9.59990e-08  3.61628e+06
       998.30000  9.59990e-08  3.61628e+06
       998.40000  9.59990e-08  3.61532e+06
       998.50000  9.24453e-08  3.48057e+06
       998.60000  9.24453e-08  3.48057e+06
       998.70000  9.24453e-08  3.47964e+06
       998.80000  9.10363e-08  3.42660e+06
       998.90000  9.10363e-08  3.42660e+06
       999.00000  9.10363e-08  3.42569e+06
       999.10000  9.10363e-08  3.42569e+06
       999.20000  9.10363e-08  3.42478e+06
       999.30000  9.10363e-08  3.42478e+06
       999.40000  9.10363e-08  3.42478e+06
       999.50000  8.75509e-08  3.29279e+06
       999.60000  8.75509e-08  3.29279e+06
       999.70000  8.75509e-08  3.29279e+06
       999.80000  8.75509e-08  3.29279e+06
       999.90000  8.75509e-08  3.29279e+06
       1000.0000  8.75509e-08  3.29191e+06
       1000.1000  8.75509e-08  3.29191e+06
       1000.2000  8.75509e-08  3.29191e+06
       1000.3000  8.75509e-08  3.29191e+06
       1000.4000  8.75509e-08  3.29191e+06
       1000.5000  8.60706e-08  3.23625e+06
       1000.6000  8.60706e-08  3.23625e+06
       1000.7000  8.60706e-08  3.23625e+06
       1000.8000  8.60706e-08  3.23625e+06
       1000.9000  8.60706e-08  3.23625e+06
       1001.0000  8.60706e-08  3.23625e+06
       1001.1000  8.60706e-08  3.23625e+06
       1001.2000  8.60706e-08  3.23711e+06
       1001.3000  8.48002e-08  3.18934e+06
       1001.4000  8.48002e-08  3.18934e+06
       1001.5000  8.33483e-08  3.13473e+06
       1001.6000  8.33483e-08  3.13473e+06
       1001.7000  8.33483e-08  3.13556e+06
       1001.8000  8.33483e-08  3.13556e+06
       1001.9000  8.33483e-08  3.13556e+06
       1002.0000  8.33483e-08  3.13640e+06
       1002.1000  8.33483e-08  3.13140e+06
       1002.2000  8.33483e-08  3.12640e+06
       1002.3000  8.33483e-08  3.12223e+06
       1002.4000  8.33483e-08  3.11723e+06
       1002.5000  8.19002e-08  3.05897e+06
       1002.6000  8.19002e-08  3.05406e+06
       1002.7000  8.19002e-08  3.04996e+06
       1002.8000  8.19002e-08  3.04587e+06
       1002.9000  8.19002e-08  3.04177e+06
       1003.0000  8.19002e-08  3.03768e+06
       1003.1000  8.19002e-08  3.03358e+06
       1003.2000  8.19002e-08  3.02949e+06
       1003.3000  8.19002e-08  3.02621e+06
       1003.4000  8.19002e-08  3.02212e+06
       1003.5000  8.04480e-08  2.96531e+06
       1003.6000  8.04480e-08  2.96210e+06
       1003.7000  8.04480e-08  2.95807e+06
       1003.8000  7.93522e-08  2.91461e+06
       1003.9000  7.93522e-08  2.91143e+06
       1004.0000  7.93522e-08  2.90826e+06
       1004.1000  7.93522e-08  2.90350e+06
       1004.2000  7.93522e-08  2.89794e+06
       1004.3000  7.93522e-08  2.89398e+06
       1004.4000  7.93522e-08  2.88922e+06
       1004.5000  9.08899e-08  3.30476e+06
       1004.6000  9.08899e-08  3.30021e+06
       1004.7000  9.08899e-08  3.29658e+06
       1004.8000  9.08899e-08  3.29294e+06
       1004.9000  9.08899e-08  3.29022e+06
       1005.0000  9.08899e-08  3.28749e+06
       1005.1000  9.08899e-08  3.28476e+06
       1005.2000  9.08899e-08  3.28294e+06
       1005.3000  9.08899e-08  3.28113e+06
       1005.4000  9.08899e-08  3.28022e+06
       1005.5000  7.64819e-08  2.75947e+06
       1005.6000  7.64819e-08  2.75870e+06
       1005.7000  7.64819e-08  2.75870e+06
       1005.8000  7.64819e-08  2.75947e+06
       1005.9000  7.64819e-08  2.75947e+06
       1006.0000  7.64819e-08  2.76023e+06
       1006.1000  7.64819e-08  2.76176e+06
       1006.2000  7.64819e-08  2.76329e+06
       1006.3000  7.55090e-08  2.72965e+06
       1006.4000  7.55090e-08  2.73191e+06
       1006.5000  8.64270e-08  3.12952e+06
       1006.6000  8.64270e-08  3.13298e+06
       1006.7000  8.64270e-08  3.13644e+06
       1006.8000  8.64270e-08  3.13989e+06
       1006.9000  8.64270e-08  3.14421e+06
       1007.0000  8.64270e-08  3.14854e+06
       1007.1000  8.64270e-08  3.15372e+06
       1007.2000  8.64270e-08  3.15891e+06
       1007.3000  8.64270e-08  3.16409e+06
       1007.4000  8.64270e-08  3.17014e+06
       1007.5000  8.47610e-08  3.11497e+06
       1007.6000  8.47610e-08  3.12175e+06
       1007.7000  8.47610e-08  3.12853e+06
       1007.8000  8.47610e-08  3.13531e+06
       1007.9000  8.47610e-08  3.14294e+06
       1008.0000  8.47610e-08  3.15057e+06
       1008.1000  8.47610e-08  3.15141e+06
       1008.2000  8.47610e-08  3.15141e+06
       1008.3000  8.47610e-08  3.15141e+06
       1008.4000  8.47610e-08  3.15141e+06
       1008.5000  8.31173e-08  3.09030e+06
       1008.6000  8.31173e-08  3.09030e+06
       1008.7000  8.31173e-08  3.09030e+06
       1008.8000  8.21445e-08  3.05413e+06
       1008.9000  8.21445e-08  3.05413e+06
       1009.0000  8.21445e-08  3.05331e+06
       1009.1000  8.21445e-08  3.05331e+06
       1009.2000  8.21445e-08  3.05331e+06
       1009.3000  8.21445e-08  3.05331e+06
       1009.4000  8.21445e-08  3.05249e+06
       1009.5000  8.05116e-08  2.99181e+06
       1009.6000  8.05116e-08  2.99181e+06
       1009.7000  8.05116e-08  2.99101e+06
       1009.8000  8.05116e-08  2.99101e+06
       1009.9000  8.05116e-08  2.99020e+06
       1010.0000  8.05116e-08  2.99020e+06
       1010.1000  8.05116e-08  2.98940e+06
       1010.2000  8.05116e-08  2.98859e+06
       1010.3000  8.05116e-08  2.98779e+06
       1010.4000  8.05116e-08  2.98698e+06
       1010.5000  7.88773e-08  2.92556e+06
       1010.6000  7.88773e-08  2.92477e+06
       1010.7000  7.88773e-08  2.92398e+06
       1010.8000  7.88773e-08  2.92319e+06
       1010.9000  7.88773e-08  2.92240e+06
       1011.0000  7.88773e-08  2.92161e+06
       1011.1000  7.88773e-08  2.92161e+06
       1011.2000  7.88773e-08  2.92082e+06
       1011.3000  7.80071e-08  2.88782e+06
       1011.4000  7.80071e-08  2.88704e+06
       1011.5000  7.63823e-08  2.82615e+06
       1011.6000  7.63823e-08  2.82538e+06
       1011.7000  7.63823e-08  2.82462e+06
       1011.8000  7.63823e-08  2.82385e+06
       1011.9000  7.63823e-08  2.82309e+06
       1012.0000  7.63823e-08  2.82233e+06
       1012.1000  7.63823e-08  2.82156e+06
       1012.2000  7.63823e-08  2.82080e+06
       1012.3000  7.63823e-08  2.82004e+06
       1012.4000  7.63823e-08  2.81927e+06
       1012.5000  7.47757e-08  2.75923e+06
       1012.6000  7.47757e-08  2.75848e+06
       1012.7000  7.47757e-08  2.75773e+06
       1012.8000  7.47757e-08  2.75698e+06
       1012.9000  7.47757e-08  2.75698e+06
       1013.0000  7.47757e-08  2.75623e+06
       1013.1000  7.47757e-08  2.75549e+06
       1013.2000  7.47757e-08  2.75474e+06
       1013.3000  7.47757e-08  2.75399e+06
       1013.4000  7.47757e-08  2.75324e+06
       1013.5000  7.31401e-08  2.69229e+06
       1013.6000  7.31401e-08  2.69156e+06
       1013.7000  7.31401e-08  2.69083e+06
       1013.8000  7.23880e-08  2.66243e+06
       1013.9000  7.23880e-08  2.66171e+06
       1014.0000  7.23880e-08  2.66098e+06
       1014.1000  7.23880e-08  2.65954e+06
       1014.2000  7.23880e-08  2.65809e+06
       1014.3000  7.23880e-08  2.65664e+06
       1014.4000  7.23880e-08  2.65519e+06
       1014.5000  7.07789e-08  2.59546e+06
       1014.6000  7.07789e-08  2.59405e+06
       1014.7000  7.07789e-08  2.59263e+06
       1014.8000  7.07789e-08  2.59192e+06
       1014.9000  7.07789e-08  2.59051e+06
       1015.0000  7.07789e-08  2.58980e+06
       1015.1000  7.07789e-08  2.58839e+06
       1015.2000  7.07789e-08  2.58768e+06
       1015.3000  7.07789e-08  2.58697e+06
       1015.4000  7.07789e-08  2.58555e+06
       1015.5000  6.91731e-08  2.52620e+06
       1015.6000  6.91731e-08  2.52551e+06
       1015.7000  6.91731e-08  2.52482e+06
       1015.8000  6.91731e-08  2.52413e+06
       1015.9000  6.91731e-08  2.52344e+06
       1016.0000  6.91731e-08  2.52274e+06
       1016.1000  6.91731e-08  2.52274e+06
       1016.2000  6.91731e-08  2.52274e+06
       1016.3000  6.85158e-08  2.49877e+06
       1016.4000  6.85158e-08  2.49809e+06
       1016.5000  6.69269e-08  2.44016e+06
       1016.6000  6.69269e-08  2.44016e+06
       1016.7000  6.69269e-08  2.44016e+06
       1016.8000  6.69269e-08  2.43949e+06
       1016.9000  6.69269e-08  2.43949e+06
       1017.0000  6.69269e-08  2.43882e+06
       1017.1000  6.69269e-08  2.43882e+06
       1017.2000  6.69269e-08  2.43815e+06
       1017.3000  6.69269e-08  2.43815e+06
       1017.4000  6.69269e-08  2.43748e+06
       1017.5000  6.53409e-08  2.37971e+06
       1017.6000  6.53409e-08  2.37906e+06
       1017.7000  6.53409e-08  2.37841e+06
       1017.8000  6.53409e-08  2.37775e+06
       1017.9000  6.53409e-08  2.37710e+06
       1018.0000  6.53409e-08  2.37710e+06
       1018.1000  6.53409e-08  2.37579e+06
       1018.2000  6.53409e-08  2.37449e+06
       1018.3000  6.53409e-08  2.37318e+06
       1018.4000  6.53409e-08  2.37187e+06
       1018.5000  6.37449e-08  2.31330e+06
       1018.6000  6.37449e-08  2.31203e+06
       1018.7000  6.37449e-08  2.31139e+06
       1018.8000  6.31612e-08  2.28896e+06
       1018.9000  6.31612e-08  2.28833e+06
       1019.0000  6.31612e-08  2.28707e+06
       1019.1000  6.31612e-08  2.28643e+06
       1019.2000  6.31612e-08  2.28580e+06
       1019.3000  6.31612e-08  2.28517e+06
       1019.4000  6.31612e-08  2.28391e+06
       1019.5000  6.15834e-08  2.22624e+06
       1019.6000  6.15834e-08  2.22562e+06
       1019.7000  6.15834e-08  2.22501e+06
       1019.8000  6.15834e-08  2.22501e+06
       1019.9000  6.15834e-08  2.22439e+06
       1020.0000  6.15834e-08  2.22378e+06
       1020.1000  6.15834e-08  2.22316e+06
       1020.2000  6.15834e-08  2.22255e+06
       1020.3000  6.15834e-08  2.22255e+06
       1020.4000  6.15834e-08  2.22193e+06
       1020.5000  6.00009e-08  2.16483e+06
       1020.6000  6.00009e-08  2.16423e+06
       1020.7000  6.00009e-08  2.16423e+06
       1020.8000  6.00009e-08  2.16363e+06
       1020.9000  6.00009e-08  2.16363e+06
       1021.0000  6.00009e-08  2.16363e+06
       1021.1000  6.00009e-08  2.16363e+06
       1021.2000  6.00009e-08  2.16363e+06
       1021.3000  5.95551e-08  2.14756e+06
       1021.4000  5.95551e-08  2.14756e+06
       1021.5000  5.79937e-08  2.09125e+06
       1021.6000  5.79937e-08  2.09125e+06
       1021.7000  5.79937e-08  2.09125e+06
       1021.8000  5.79937e-08  2.09183e+06
       1021.9000  5.79937e-08  2.09183e+06
       1022.0000  5.79937e-08  2.09241e+06
       1022.1000  5.79937e-08  2.09241e+06
       1022.2000  5.79937e-08  2.09299e+06
       1022.3000  5.79937e-08  2.09357e+06
       1022.4000  5.79937e-08  2.09357e+06
       1022.5000  5.64252e-08  2.03751e+06
       1022.6000  5.64252e-08  2.03808e+06
       1022.7000  5.64252e-08  2.03864e+06
       1022.8000  5.64252e-08  2.03921e+06
       1022.9000  5.64252e-08  2.03977e+06
       1023.0000  5.64252e-08  2.04033e+06
       1023.1000  5.64252e-08  2.04146e+06
       1023.2000  5.64252e-08  2.04203e+06
       1023.3000  5.64252e-08  2.04259e+06
       1023.4000  5.64252e-08  2.04372e+06
       1023.5000  5.48620e-08  1.98765e+06
       1023.6000  5.48620e-08  1.98875e+06
       1023.7000  5.48620e-08  1.98930e+06
       1023.8000  5.45177e-08  1.97790e+06
       1023.9000  5.45177e-08  1.97899e+06
       1024.0000  5.45177e-08  1.98008e+06
       1024.1000  5.45177e-08  1.98008e+06
       1024.2000  5.45177e-08  1.97954e+06
       1024.3000  5.45177e-08  1.97954e+06
       1024.4000  5.45177e-08  1.97954e+06
       1024.5000  5.29577e-08  1.92289e+06
       1024.6000  5.29577e-08  1.92236e+06
       1024.7000  5.29577e-08  1.92236e+06
       1024.8000  5.29577e-08  1.92236e+06
       1024.9000  5.29577e-08  1.92183e+06
       1025.0000  5.29577e-08  1.92183e+06
       1025.1000  5.29577e-08  1.92183e+06
       1025.2000  5.29577e-08  1.92130e+06
       1025.3000  5.29577e-08  1.92130e+06
       1025.4000  5.29577e-08  1.92130e+06
       1025.5000  5.13957e-08  1.86412e+06
       1025.6000  5.13957e-08  1.86412e+06
       1025.7000  5.13957e-08  1.86361e+06
       1025.8000  5.13957e-08  1.86361e+06
       1025.9000  5.13957e-08  1.86309e+06
       1026.0000  5.13957e-08  1.86309e+06
       1026.1000  5.13957e-08  1.86309e+06
       1026.2000  5.13957e-08  1.86258e+06
       1026.3000  5.10751e-08  1.85096e+06
       1026.4000  5.10751e-08  1.85045e+06
       1026.5000  4.95247e-08  1.79428e+06
       1026.6000  4.95247e-08  1.79379e+06
       1026.7000  4.95247e-08  1.79329e+06
       1026.8000  4.95247e-08  1.79329e+06
       1026.9000  4.95247e-08  1.79279e+06
       1027.0000  4.95247e-08  1.79279e+06
       1027.1000  4.95247e-08  1.79230e+06
       1027.2000  4.95247e-08  1.79180e+06
       1027.3000  4.95247e-08  1.79180e+06
       1027.4000  4.95247e-08  1.79131e+06
       1027.5000  4.79789e-08  1.73492e+06
       1027.6000  4.79789e-08  1.73492e+06
       1027.7000  4.79789e-08  1.73444e+06
       1027.8000  4.79789e-08  1.73396e+06
       1027.9000  4.79789e-08  1.73348e+06
       1028.0000  4.79789e-08  1.73300e+06
       1028.1000  4.79789e-08  1.73300e+06
       1028.2000  4.79789e-08  1.73252e+06
       1028.3000  4.79789e-08  1.73204e+06
       1028.4000  4.79789e-08  1.73156e+06
       1028.5000  4.64266e-08  1.67507e+06
       1028.6000  4.64266e-08  1.67461e+06
       1028.7000  4.64266e-08  1.67414e+06
       1028.8000  4.60285e-08  1.65933e+06
       1028.9000  4.60285e-08  1.65887e+06
       1029.0000  4.60285e-08  1.65841e+06
       1029.1000  4.60285e-08  1.65795e+06
       1029.2000  4.60285e-08  1.65749e+06
       1029.3000  4.60285e-08  1.65702e+06
       1029.4000  4.60285e-08  1.65656e+06
       1029.5000  4.44897e-08  1.60074e+06
       1029.6000  4.44897e-08  1.60029e+06
       1029.7000  4.44897e-08  1.59985e+06
       1029.8000  4.44897e-08  1.59940e+06
       1029.9000  4.44897e-08  1.59896e+06
       1030.0000  4.44897e-08  1.59807e+06
       1030.1000  4.44897e-08  1.59852e+06
       1030.2000  4.44897e-08  1.59852e+06
       1030.3000  4.44897e-08  1.59852e+06
       1030.4000  4.44897e-08  1.59852e+06
       1030.5000  4.29519e-08  1.54326e+06
       1030.6000  4.29519e-08  1.54326e+06
       1030.7000  4.29519e-08  1.54283e+06
       1030.8000  4.29519e-08  1.54283e+06
       1030.9000  4.29519e-08  1.54283e+06
       1031.0000  4.29519e-08  1.54240e+06
       1031.1000  4.29519e-08  1.54240e+06
       1031.2000  4.29519e-08  1.54197e+06
       1031.3000  4.23675e-08  1.52099e+06
       1031.4000  4.23675e-08  1.52057e+06
       1031.5000  4.08507e-08  1.46572e+06
       1031.6000  4.08507e-08  1.46531e+06
       1031.7000  4.08507e-08  1.46491e+06
       1031.8000  4.08507e-08  1.46450e+06
       1031.9000  4.08507e-08  1.46409e+06
       1032.0000  4.08507e-08  1.46368e+06
       1032.1000  4.08507e-08  1.46245e+06
       1032.2000  4.08507e-08  1.46082e+06
       1032.3000  4.08507e-08  1.45960e+06
       1032.4000  4.08507e-08  1.45878e+06
       1032.5000  3.93350e-08  1.40347e+06
       1032.6000  3.93350e-08  1.40229e+06
       1032.7000  3.93350e-08  1.40151e+06
       1032.8000  3.93350e-08  1.40033e+06
       1032.9000  3.93350e-08  1.39954e+06
       1033.0000  3.93350e-08  1.39875e+06
       1033.1000  3.93350e-08  1.39797e+06
       1033.2000  3.93350e-08  1.39757e+06
       1033.3000  3.93350e-08  1.39679e+06
       1033.4000  3.93350e-08  1.39639e+06
       1033.5000  3.78169e-08  1.34174e+06
       1033.6000  3.78169e-08  1.34136e+06
       1033.7000  3.78169e-08  1.34099e+06
       1033.8000  3.70970e-08  1.31509e+06
       1033.9000  3.70970e-08  1.31509e+06
       1034.0000  3.70970e-08  1.31472e+06
       1034.1000  3.70970e-08  1.31472e+06
       1034.2000  3.70970e-08  1.31435e+06
       1034.3000  3.70970e-08  1.31435e+06
       1034.4000  3.70970e-08  1.31435e+06
       1034.5000  3.56044e-08  1.26147e+06
       1034.6000  3.56044e-08  1.26182e+06
       1034.7000  3.56044e-08  1.26182e+06
       1034.8000  3.56044e-08  1.26218e+06
       1034.9000  3.56044e-08  1.26218e+06
       1035.0000  3.56044e-08  1.26253e+06
       1035.1000  3.56044e-08  1.26289e+06
       1035.2000  3.56044e-08  1.26325e+06
       1035.3000  3.56044e-08  1.26396e+06
       1035.4000  3.56044e-08  1.26431e+06
       1035.5000  3.41092e-08  1.21190e+06
       1035.6000  3.41092e-08  1.21258e+06
       1035.7000  3.41092e-08  1.21292e+06
       1035.8000  3.41092e-08  1.21361e+06
       1035.9000  3.41092e-08  1.21463e+06
       1036.0000  3.41092e-08  1.21531e+06
       1036.1000  3.41092e-08  1.21463e+06
       1036.2000  3.41092e-08  1.21395e+06
       1036.3000  3.33128e-08  1.18494e+06
       1036.4000  3.33128e-08  1.18427e+06
       1036.5000  3.18604e-08  1.13200e+06
       1036.6000  3.18604e-08  1.13136e+06
       1036.7000  3.18604e-08  1.13104e+06
       1036.8000  3.18604e-08  1.13041e+06
       1036.9000  3.18604e-08  1.12977e+06
       1037.0000  3.18604e-08  1.12945e+06
       1037.1000  3.18604e-08  1.12913e+06
       1037.2000  3.18604e-08  1.12850e+06
       1037.3000  3.18604e-08  1.12818e+06
       1037.4000  3.18604e-08  1.12786e+06
       1037.5000  3.04074e-08  1.07612e+06
       1037.6000  3.04074e-08  1.07581e+06
       1037.7000  3.04074e-08  1.07551e+06
       1037.8000  3.04074e-08  1.07520e+06
       1037.9000  3.04074e-08  1.07490e+06
       1038.0000  3.04074e-08  1.07460e+06
       1038.1000  3.04074e-08  1.07460e+06
       1038.2000  3.04074e-08  1.07460e+06
       1038.3000  3.04074e-08  1.07490e+06
       1038.4000  3.04074e-08  1.07490e+06
       1038.5000  2.89513e-08  1.02343e+06
       1038.6000  2.89513e-08  1.02343e+06
       1038.7000  2.89513e-08  1.02343e+06
       1038.8000  2.81980e-08      996801.
       1038.9000  2.81980e-08      996801.
       1039.0000  2.81980e-08      996801.
       1039.1000  2.81980e-08      996801.
       1039.2000  2.81980e-08      996801.
       1039.3000  2.81980e-08      996801.
       1039.4000  2.81980e-08      996801.
       1039.5000  2.67742e-08      946468.
       1039.6000  2.67742e-08      946468.
       1039.7000  2.67742e-08      946468.
       1039.8000  2.67742e-08      946468.
       1039.9000  2.67742e-08      946468.
       1040.0000  2.67742e-08      946468.
       1040.1000  2.67742e-08      946468.
       1040.2000  2.67742e-08      946468.
       1040.3000  2.67742e-08      946468.
       1040.4000  2.67742e-08      946468.
       1040.5000  2.53586e-08      896427.
       1040.6000  2.53586e-08      896427.
       1040.7000  2.53586e-08      896427.
       1040.8000  2.53586e-08      896427.
       1040.9000  2.53586e-08      896427.
       1041.0000  2.53586e-08      896427.
       1041.1000  2.53586e-08      896427.
       1041.2000  2.53586e-08      896427.
       1041.3000  2.46323e-08      870752.
       1041.4000  2.46323e-08      870752.
       1041.5000  2.32539e-08      822025.
       1041.6000  2.32539e-08      822025.
       1041.7000  2.32539e-08      822025.
       1041.8000  2.32539e-08      821793.
       1041.9000  2.32539e-08      821793.
       1042.0000  2.32539e-08      821793.
       1042.1000  2.32539e-08      822025.
       1042.2000  2.32539e-08      822025.
       1042.3000  2.32539e-08      822258.
       1042.4000  2.32539e-08      822258.
       1042.5000  2.18690e-08      773287.
       1042.6000  2.18690e-08      773287.
       1042.7000  2.18690e-08      773287.
       1042.8000  2.18690e-08      773068.
       1042.9000  2.18690e-08      773068.
       1043.0000  2.18690e-08      773068.
       1043.1000  2.18690e-08      772849.
       1043.2000  2.18690e-08      772631.
       1043.3000  2.18690e-08      772631.
       1043.4000  2.18690e-08      772412.
       1043.5000  2.04953e-08      723691.
       1043.6000  2.04953e-08      723486.
       1043.7000  2.04953e-08      723281.
       1043.8000  1.99091e-08      702193.
       1043.9000  1.99091e-08      701994.
       1044.0000  1.99091e-08      701595.
       1044.1000  1.99091e-08      700799.
       1044.2000  1.99091e-08      699804.
       1044.3000  1.99091e-08      699007.
       1044.4000  1.99091e-08      698211.
       1044.5000  1.85656e-08      650353.
       1044.6000  1.85656e-08      649796.
       1044.7000  1.85656e-08      649054.
       1044.8000  1.85656e-08      648497.
       1044.9000  1.85656e-08      647940.
       1045.0000  1.85656e-08      647383.
       1045.1000  1.85656e-08      647012.
       1045.2000  1.85656e-08      646454.
       1045.3000  1.85656e-08      646083.
       1045.4000  1.85656e-08      645712.
       1045.5000  1.72235e-08      598859.
       1045.6000  1.72235e-08      598515.
       1045.7000  1.72235e-08      598343.
       1045.8000  1.72235e-08      598171.
       1045.9000  1.72235e-08      597998.
       1046.0000  1.72235e-08      597826.
       1046.1000  1.72235e-08      597826.
       1046.2000  1.72235e-08      597654.
       1046.3000  1.67345e-08      580688.
       1046.4000  1.67345e-08      580688.
       1046.5000  1.54310e-08      535609.
       1046.6000  1.54310e-08      535609.
       1046.7000  1.54310e-08      535763.
       1046.8000  1.54310e-08      535918.
       1046.9000  1.54310e-08      536072.
       1047.0000  1.54310e-08      536381.
       1047.1000  1.54310e-08      536535.
       1047.2000  1.54310e-08      536844.
       1047.3000  1.54310e-08      537152.
       1047.4000  1.54310e-08      537461.
       1047.5000  1.41273e-08      492478.
       1047.6000  1.41273e-08      492761.
       1047.7000  1.41273e-08      493185.
       1047.8000  1.41273e-08      493608.
       1047.9000  1.41273e-08      494032.
       1048.0000  1.41273e-08      494597.
       1048.1000  1.41273e-08      494597.
       1048.2000  1.41273e-08      494597.
       1048.3000  1.41273e-08      494597.
       1048.4000  1.41273e-08      494456.
       1048.5000  1.28243e-08      448851.
       1048.6000  1.28243e-08      448851.
       1048.7000  1.28243e-08      448851.
       1048.8000  1.24889e-08      437112.
       1048.9000  1.24889e-08      437112.
       1049.0000  1.24889e-08      436988.
       1049.1000  1.24889e-08      436988.
       1049.2000  1.24889e-08      436988.
       1049.3000  1.24889e-08      436863.
       1049.4000  1.24889e-08      436863.
       1049.5000  1.12200e-08      392476.
       1049.6000  1.12200e-08      392364.
       1049.7000  1.12200e-08      392364.
       1049.8000  1.12200e-08      392364.
       1049.9000  1.12200e-08      392252.
       1050.0000  1.12200e-08      392252.
       1050.1000  1.12200e-08      392140.
       1050.2000  1.12200e-08      392140.
       1050.3000  1.12200e-08      392028.
       1050.4000  1.12200e-08      391915.
       1050.5000  9.94729e-09      347459.
       1050.6000  9.94729e-09      347360.
       1050.7000  9.94729e-09      347360.
       1050.8000  9.94729e-09      347260.
       1050.9000  9.94729e-09      347161.
       1051.0000  9.94729e-09      347161.
       1051.1000  9.94729e-09      347061.
       1051.2000  9.94729e-09      347061.
       1051.3000  9.72470e-09      339198.
       1051.4000  9.72470e-09      339100.
       1051.5000  8.48257e-09      295787.
       1051.6000  8.48257e-09      295702.
       1051.7000  8.48257e-09      295618.
       1051.8000  8.48257e-09      295618.
       1051.9000  8.48257e-09      295533.
       1052.0000  8.48257e-09      295533.
       1052.1000  8.48257e-09      295448.
       1052.2000  8.48257e-09      295363.
       1052.3000  8.48257e-09      295363.
       1052.4000  8.48257e-09      295278.
       1052.5000  7.24107e-09      251989.
       1052.6000  7.24107e-09      251989.
       1052.7000  7.24107e-09      251917.
       1052.8000  7.24107e-09      251844.
       1052.9000  7.24107e-09      251844.
       1053.0000  7.24107e-09      251772.
       1053.1000  7.24107e-09      251772.
       1053.2000  7.24107e-09      251700.
       1053.3000  7.24107e-09      251627.
       1053.4000  7.24107e-09      251627.
       1053.5000  5.99802e-09      208371.
       1053.6000  5.99802e-09      208311.
       1053.7000  5.99802e-09      208311.
       1053.8000  5.88599e-09      204362.
       1053.9000  5.88599e-09      204303.
       1054.0000  5.88599e-09      204303.
       1054.1000  5.88599e-09      204420.
       1054.2000  5.88599e-09      204479.
       1054.3000  5.88599e-09      204597.
       1054.4000  5.88599e-09      204715.
       1054.5000  4.66544e-09      162310.
       1054.6000  4.66544e-09      162357.
       1054.7000  4.66544e-09      162404.
       1054.8000  4.66544e-09      162450.
       1054.9000  4.66544e-09      162497.
       1055.0000  4.66544e-09      162544.
       1055.1000  4.66544e-09      162544.
       1055.2000  4.66544e-09      162544.
       1055.3000  4.66544e-09      162590.
       1055.4000  4.66544e-09      162590.
       1055.5000  3.44648e-09      120076.
       1055.6000  3.44648e-09      120076.
       1055.7000  3.44648e-09      120076.
       1055.8000  3.44648e-09      120041.
       1055.9000  3.44648e-09      120007.
       1056.0000  3.44648e-09      119972.
       1056.1000  3.44648e-09      119869.
       1056.2000  3.44648e-09      119765.
       1056.3000  3.38363e-09      117480.
       1056.4000  3.38363e-09      117344.
       1056.5000  2.18492e-09      75707.6
       1056.6000  2.18492e-09      75663.9
       1056.7000  2.18492e-09      75598.4
       1056.8000  2.18492e-09      75532.8
       1056.9000  2.18492e-09      75467.2
       1057.0000  2.18492e-09      75423.6
