PDS_VERSION_ID         = PDS3
RECORD_TYPE            = STREAM
OBJECT                 = TEXT
  PUBLICATION_DATE     = 2014-04-25
  INTERCHANGE_FORMAT   = ASCII
  NOTE                 = "System transmission vs. wavelength."
END_OBJECT             = TEXT
END
    
The systrans directory contains the non-wavelength-integrated system 
transmission values (QE*optics*filter1*filter2) for each filter combination. 
The naming convention for these files is as follows:

<camera><filter 1><filter 2>_systrans.tab

where <camera> is "issna" or "isswa," and <filter 1> and <filter 2> represent
the filter names. For polarized filter combinations, values are given for the
parallel orientation of the filter (full transmission), with values for the 
perpendicular (blocking) orientation provided in files with subscript 
"_b_systrans.tab". 

Columns in systrans files are as follows:

 1st column: Wavelength (nm)  
 2nd column: Transmitted Flux
 3rd column: Transmitted Flux * Solar Flux (phot per cm^2-s-angstrom at 1 AU)

The solar spectrum used for this calculation is provided in solarflux.tab.

\begindata
       659.00000  1.15559e-05  5.93046e+08
       659.10000  1.15559e-05  5.94895e+08
       659.20000  1.15559e-05  5.96629e+08
       659.30000  1.15559e-05  5.98131e+08
       659.40000  1.15559e-05  5.99518e+08
       659.50000  1.15651e-05  6.01269e+08
       659.60000  1.15651e-05  6.02426e+08
       659.70000  1.15651e-05  6.03351e+08
       659.80000  1.15651e-05  6.04276e+08
       659.90000  1.15651e-05  6.04970e+08
       660.00000  1.15651e-05  6.05549e+08
       660.10000  1.15651e-05  6.06011e+08
       660.20000  1.15651e-05  6.06242e+08
       660.30000  1.15651e-05  6.06474e+08
       660.40000  1.15651e-05  6.06474e+08
       660.50000  9.25675e-06  4.85331e+08
       660.60000  9.25675e-06  4.85146e+08
       660.70000  9.25675e-06  4.84868e+08
       660.80000  9.25675e-06  4.84405e+08
       660.90000  9.25675e-06  4.83943e+08
       661.00000  9.25675e-06  4.83295e+08
       661.10000  9.25675e-06  4.83017e+08
       661.20000  9.25675e-06  4.82647e+08
       661.30000  9.18897e-06  4.78837e+08
       661.40000  9.18897e-06  4.78562e+08
       661.50000  6.89548e-06  3.58910e+08
       661.60000  6.89548e-06  3.58772e+08
       661.70000  6.89548e-06  3.58565e+08
       661.80000  6.89548e-06  3.58427e+08
       661.90000  6.89548e-06  3.58289e+08
       662.00000  6.89548e-06  3.58151e+08
       662.10000  6.89548e-06  3.58013e+08
       662.20000  6.89548e-06  3.57876e+08
       662.30000  6.89548e-06  3.57807e+08
       662.40000  6.89548e-06  3.57738e+08
       662.50000  9.19674e-06  4.76943e+08
       662.60000  9.19674e-06  4.76943e+08
       662.70000  9.19674e-06  4.76851e+08
       662.80000  9.19674e-06  4.76759e+08
       662.90000  9.19674e-06  4.76759e+08
       663.00000  9.19674e-06  4.76759e+08
       663.10000  9.19674e-06  4.77127e+08
       663.20000  9.19674e-06  4.77403e+08
       663.30000  9.19674e-06  4.77771e+08
       663.40000  9.19674e-06  4.78046e+08
       663.50000  1.15055e-05  5.98399e+08
       663.60000  1.15055e-05  5.98744e+08
       663.70000  1.15055e-05  5.98974e+08
       663.80000  1.14108e-05  5.94391e+08
       663.90000  1.14108e-05  5.94619e+08
       664.00000  1.14108e-05  5.94733e+08
       664.10000  1.14108e-05  5.94961e+08
       664.20000  1.14108e-05  5.95075e+08
       664.30000  1.14108e-05  5.95190e+08
       664.40000  1.14108e-05  5.95304e+08
       664.50000  4.56756e-06  2.38290e+08
       664.60000  4.56756e-06  2.38290e+08
       664.70000  4.56756e-06  2.38290e+08
       664.80000  4.56756e-06  2.38290e+08
       664.90000  4.56756e-06  2.38290e+08
       665.00000  4.56756e-06  2.38244e+08
       665.10000  4.56756e-06  2.38198e+08
       665.20000  4.56756e-06  2.38153e+08
       665.30000  4.56756e-06  2.38061e+08
       665.40000  4.56756e-06  2.37970e+08
       665.50000  2.03090e-06  1.05769e+08
       665.60000  2.03090e-06  1.05729e+08
       665.70000  2.03090e-06  1.05668e+08
       665.80000  2.03090e-06  1.05627e+08
       665.90000  2.03090e-06  1.05566e+08
       666.00000  2.03090e-06  1.05485e+08
       666.10000  2.03090e-06  1.05424e+08
       666.20000  2.03090e-06  1.05343e+08
       666.30000  2.01777e-06  1.04581e+08
       666.40000  2.01777e-06  1.04501e+08
       666.50000  6.81473e-06  3.52594e+08
       666.60000  6.81473e-06  3.52253e+08
       666.70000  6.81473e-06  3.51913e+08
       666.80000  6.81473e-06  3.51572e+08
       666.90000  6.81473e-06  3.51231e+08
       667.00000  6.81473e-06  3.50822e+08
       667.10000  6.81473e-06  3.51231e+08
       667.20000  6.81473e-06  3.51572e+08
       667.30000  6.81473e-06  3.51913e+08
       667.40000  6.81473e-06  3.52253e+08
       667.50000  1.13650e-05  5.88024e+08
       667.60000  1.13650e-05  5.88478e+08
       667.70000  1.13650e-05  5.88933e+08
       667.80000  1.13650e-05  5.89274e+08
       667.90000  1.13650e-05  5.89615e+08
       668.00000  1.13650e-05  5.89956e+08
       668.10000  1.13650e-05  5.90297e+08
       668.20000  1.13650e-05  5.90524e+08
       668.30000  1.13650e-05  5.90751e+08
       668.40000  1.13650e-05  5.90865e+08
       668.50000  6.82171e-06  3.54729e+08
       668.60000  6.82171e-06  3.54797e+08
       668.70000  6.82171e-06  3.54797e+08
       668.80000  6.78257e-06  3.52761e+08
       668.90000  6.78257e-06  3.52761e+08
       669.00000  6.78257e-06  3.52694e+08
       669.10000  6.78257e-06  3.52219e+08
       669.20000  6.78257e-06  3.51744e+08
       669.30000  6.78257e-06  3.51337e+08
       669.40000  6.78257e-06  3.50930e+08
       669.50000  6.78756e-06  3.50781e+08
       669.60000  6.78756e-06  3.50374e+08
       669.70000  6.78756e-06  3.50034e+08
       669.80000  6.78756e-06  3.49695e+08
       669.90000  6.78756e-06  3.49356e+08
       670.00000  6.78756e-06  3.49084e+08
       670.10000  6.78756e-06  3.48813e+08
       670.20000  6.78756e-06  3.48541e+08
       670.30000  6.78756e-06  3.48270e+08
       670.40000  6.78756e-06  3.48066e+08
       670.50000  4.52790e-06  2.32055e+08
       670.60000  4.52790e-06  2.31919e+08
       670.70000  4.52790e-06  2.31829e+08
       670.80000  4.52790e-06  2.31738e+08
       670.90000  4.52790e-06  2.31648e+08
       671.00000  4.52790e-06  2.31602e+08
       671.10000  4.52790e-06  2.31512e+08
       671.20000  4.52790e-06  2.31512e+08
       671.30000  4.50225e-06  2.30155e+08
       671.40000  4.50225e-06  2.30155e+08
       671.50000  4.50428e-06  2.30259e+08
       671.60000  4.50428e-06  2.30259e+08
       671.70000  4.50428e-06  2.30259e+08
       671.80000  4.50428e-06  2.30304e+08
       671.90000  4.50428e-06  2.30349e+08
       672.00000  4.50428e-06  2.30439e+08
       672.10000  4.50428e-06  2.30529e+08
       672.20000  4.50428e-06  2.30619e+08
       672.30000  4.50428e-06  2.30709e+08
       672.40000  4.50428e-06  2.30844e+08
       672.50000  4.50639e-06  2.31088e+08
       672.60000  4.50639e-06  2.31223e+08
       672.70000  4.50639e-06  2.31358e+08
       672.80000  4.50639e-06  2.31538e+08
       672.90000  4.50639e-06  2.31719e+08
       673.00000  4.50639e-06  2.31944e+08
       673.10000  4.50639e-06  2.31854e+08
       673.20000  4.50639e-06  2.31764e+08
       673.30000  4.50639e-06  2.31674e+08
       673.40000  4.50639e-06  2.31628e+08
       673.50000  9.01884e-06  4.63388e+08
       673.60000  9.01884e-06  4.63298e+08
       673.70000  9.01884e-06  4.63208e+08
       673.80000  8.96274e-06  4.60147e+08
       673.90000  8.96274e-06  4.60057e+08
       674.00000  8.96274e-06  4.59968e+08
       674.10000  8.96274e-06  4.59878e+08
       674.20000  8.96274e-06  4.59788e+08
       674.30000  8.96274e-06  4.59699e+08
       674.40000  8.96274e-06  4.59609e+08
       674.50000  6.72370e-06  3.44724e+08
       674.60000  6.72370e-06  3.44724e+08
       674.70000  6.72370e-06  3.44657e+08
       674.80000  6.72370e-06  3.44657e+08
       674.90000  6.72370e-06  3.44590e+08
       675.00000  6.72370e-06  3.44590e+08
       675.10000  6.72370e-06  3.44657e+08
       675.20000  6.72370e-06  3.44724e+08
       675.30000  6.72370e-06  3.44791e+08
       675.40000  6.72370e-06  3.44859e+08
       675.50000  1.12934e-06  5.79237e+07
       675.60000  1.12934e-06  5.79350e+07
       675.70000  1.12934e-06  5.79463e+07
       675.80000  1.12934e-06  5.79463e+07
       675.90000  1.12934e-06  5.79576e+07
       676.00000  1.12934e-06  5.79576e+07
       676.10000  1.12934e-06  5.79689e+07
       676.20000  1.12934e-06  5.79689e+07
       676.30000  1.12080e-06  5.75307e+07
       676.40000  1.12080e-06  5.75307e+07
       676.50000  6.67783e-06  3.42840e+08
       676.60000  6.67783e-06  3.42840e+08
       676.70000  6.67783e-06  3.42840e+08
       676.80000  6.67783e-06  3.42773e+08
       676.90000  6.67783e-06  3.42773e+08
       677.00000  6.67783e-06  3.42773e+08
       677.10000  6.67783e-06  3.42773e+08
       677.20000  6.67783e-06  3.42706e+08
       677.30000  6.67783e-06  3.42706e+08
       677.40000  6.67783e-06  3.42640e+08
       677.50000  6.68511e-06  3.43013e+08
       677.60000  6.68511e-06  3.42946e+08
       677.70000  6.68511e-06  3.42946e+08
       677.80000  6.68511e-06  3.42879e+08
       677.90000  6.68511e-06  3.42812e+08
       678.00000  6.68511e-06  3.42746e+08
       678.10000  6.68511e-06  3.42679e+08
       678.20000  6.68511e-06  3.42612e+08
       678.30000  6.68511e-06  3.42545e+08
       678.40000  6.68511e-06  3.42478e+08
       678.50000  2.22909e-06  1.14152e+08
       678.60000  2.22909e-06  1.14130e+08
       678.70000  2.22909e-06  1.14107e+08
       678.80000  2.21229e-06  1.13203e+08
       678.90000  2.21229e-06  1.13181e+08
       679.00000  2.21229e-06  1.13137e+08
       679.10000  2.21229e-06  1.13137e+08
       679.20000  2.21229e-06  1.13159e+08
       679.30000  2.21229e-06  1.13159e+08
       679.40000  2.21229e-06  1.13159e+08
       679.50000  4.42733e-06  2.26458e+08
       679.60000  4.42733e-06  2.26458e+08
       679.70000  4.42733e-06  2.26458e+08
       679.80000  4.42733e-06  2.26458e+08
       679.90000  4.42733e-06  2.26458e+08
       680.00000  4.42733e-06  2.26414e+08
       680.10000  4.42733e-06  2.26414e+08
       680.20000  4.42733e-06  2.26414e+08
       680.30000  4.42733e-06  2.26369e+08
       680.40000  4.42733e-06  2.26369e+08
       680.50000  6.64309e-06  3.39595e+08
       680.60000  6.64309e-06  3.39595e+08
       680.70000  6.64309e-06  3.39528e+08
       680.80000  6.64309e-06  3.39462e+08
       680.90000  6.64309e-06  3.39395e+08
       681.00000  6.64309e-06  3.39395e+08
       681.10000  6.64309e-06  3.39329e+08
       681.20000  6.64309e-06  3.39262e+08
       681.30000  6.58700e-06  3.36398e+08
       681.40000  6.58700e-06  3.36332e+08
       681.50000  8.78508e-06  4.48478e+08
       681.60000  8.78508e-06  4.48391e+08
       681.70000  8.78508e-06  4.48303e+08
       681.80000  8.78508e-06  4.48127e+08
       681.90000  8.78508e-06  4.48039e+08
       682.00000  8.78508e-06  4.47951e+08
       682.10000  8.78508e-06  4.47776e+08
       682.20000  8.78508e-06  4.47600e+08
       682.30000  8.78508e-06  4.47512e+08
       682.40000  8.78508e-06  4.47336e+08
       682.50000  1.04145e-06  5.30101e+07
       682.60000  1.04145e-06  5.29892e+07
       682.70000  1.04145e-06  5.29684e+07
       682.80000  1.04145e-06  5.29476e+07
       682.90000  1.04145e-06  5.29163e+07
       683.00000  1.04145e-06  5.28955e+07
       683.10000  1.04145e-06  5.28747e+07
       683.20000  1.04145e-06  5.28434e+07
       683.30000  1.04145e-06  5.28122e+07
       683.40000  1.04145e-06  5.27809e+07
       683.50000  6.59311e-06  3.34007e+08
       683.60000  6.59311e-06  3.33809e+08
       683.70000  6.59311e-06  3.33611e+08
       683.80000  6.53050e-06  3.30182e+08
       683.90000  6.53050e-06  3.29986e+08
       684.00000  6.53050e-06  3.29790e+08
       684.10000  6.53050e-06  3.29529e+08
       684.20000  6.53050e-06  3.29333e+08
       684.30000  6.53050e-06  3.29072e+08
       684.40000  6.53050e-06  3.28876e+08
       684.50000  8.71026e-06  4.38301e+08
       684.60000  8.71026e-06  4.37952e+08
       684.70000  8.71026e-06  4.37604e+08
       684.80000  8.71026e-06  4.37255e+08
       684.90000  8.71026e-06  4.36820e+08
       685.00000  8.71026e-06  4.36471e+08
       685.10000  8.71026e-06  4.36820e+08
       685.20000  8.71026e-06  4.37255e+08
       685.30000  8.71026e-06  4.37604e+08
       685.40000  8.71026e-06  4.37865e+08
       685.50000  8.71416e-06  4.38410e+08
       685.60000  8.71416e-06  4.38758e+08
       685.70000  8.71416e-06  4.39020e+08
       685.80000  8.71416e-06  4.39281e+08
       685.90000  8.71416e-06  4.39542e+08
       686.00000  8.71416e-06  4.39804e+08
       686.10000  8.71416e-06  4.40065e+08
       686.20000  8.71416e-06  4.40239e+08
       686.30000  8.63186e-06  4.36341e+08
       686.40000  8.63186e-06  4.36513e+08
       686.50000  1.51178e-05  7.64808e+08
       686.60000  1.51178e-05  7.65110e+08
       686.70000  1.51178e-05  7.65412e+08
       686.80000  1.51178e-05  7.65564e+08
       686.90000  1.51178e-05  7.65866e+08
       687.00000  1.51178e-05  7.66017e+08
       687.10000  1.51178e-05  7.66168e+08
       687.20000  1.51178e-05  7.66168e+08
       687.30000  1.51178e-05  7.66168e+08
       687.40000  1.51178e-05  7.66168e+08
       687.50000  6.47685e-06  3.28247e+08
       687.60000  6.47685e-06  3.28247e+08
       687.70000  6.47685e-06  3.28247e+08
       687.80000  6.47685e-06  3.28247e+08
       687.90000  6.47685e-06  3.28247e+08
       688.00000  6.47685e-06  3.28182e+08
       688.10000  6.47685e-06  3.28182e+08
       688.20000  6.47685e-06  3.28182e+08
       688.30000  6.47685e-06  3.28117e+08
       688.40000  6.47685e-06  3.28117e+08
       688.50000  1.53702e-06  7.78498e+07
       688.60000  1.53702e-06  7.78345e+07
       688.70000  1.53702e-06  7.78345e+07
       688.80000  1.52440e-06  7.71802e+07
       688.90000  1.52440e-06  7.71650e+07
       689.00000  1.52440e-06  7.71497e+07
       689.10000  1.52440e-06  7.71345e+07
       689.20000  1.52440e-06  7.71193e+07
       689.30000  1.52440e-06  7.71040e+07
       689.40000  1.52440e-06  7.70888e+07
       689.50000  6.42851e-06  3.25025e+08
       689.60000  6.42851e-06  3.24961e+08
       689.70000  6.42851e-06  3.24833e+08
       689.80000  6.42851e-06  3.24768e+08
       689.90000  6.42851e-06  3.24704e+08
       690.00000  6.42851e-06  3.24575e+08
       690.10000  6.42851e-06  3.24447e+08
       690.20000  6.42851e-06  3.24383e+08
       690.30000  6.42851e-06  3.24254e+08
       690.40000  6.42851e-06  3.24125e+08
       690.50000  6.43210e-06  3.24242e+08
       690.60000  6.43210e-06  3.24113e+08
       690.70000  6.43210e-06  3.23985e+08
       690.80000  6.43210e-06  3.23856e+08
       690.90000  6.43210e-06  3.23728e+08
       691.00000  6.43210e-06  3.23599e+08
       691.10000  6.43210e-06  3.23728e+08
       691.20000  6.43210e-06  3.23792e+08
       691.30000  6.38338e-06  3.21467e+08
       691.40000  6.38338e-06  3.21531e+08
       691.50000  6.38382e-06  3.21617e+08
       691.60000  6.38382e-06  3.21745e+08
       691.70000  6.38382e-06  3.21809e+08
       691.80000  6.38382e-06  3.21872e+08
       691.90000  6.38382e-06  3.21936e+08
       692.00000  6.38382e-06  3.21936e+08
       692.10000  6.38382e-06  3.22000e+08
       692.20000  6.38382e-06  3.22064e+08
       692.30000  6.38382e-06  3.22064e+08
       692.40000  6.38382e-06  3.22064e+08
       692.50000  6.38843e-06  3.22360e+08
       692.60000  6.38843e-06  3.22360e+08
       692.70000  6.38843e-06  3.22360e+08
       692.80000  6.38843e-06  3.22360e+08
       692.90000  6.38843e-06  3.22360e+08
       693.00000  6.38843e-06  3.22296e+08
       693.10000  6.38843e-06  3.22296e+08
       693.20000  6.38843e-06  3.22232e+08
       693.30000  6.38843e-06  3.22168e+08
       693.40000  6.38843e-06  3.22105e+08
       693.50000  8.51657e-06  4.29321e+08
       693.60000  8.51657e-06  4.29235e+08
       693.70000  8.51657e-06  4.29150e+08
       693.80000  8.45783e-06  4.26106e+08
       693.90000  8.45783e-06  4.25936e+08
       694.00000  8.45783e-06  4.25852e+08
       694.10000  8.45783e-06  4.25767e+08
       694.20000  8.45783e-06  4.25598e+08
       694.30000  8.45783e-06  4.25514e+08
       694.40000  8.45783e-06  4.25344e+08
       694.50000  6.34400e-06  3.18913e+08
       694.60000  6.34400e-06  3.18850e+08
       694.70000  6.34400e-06  3.18723e+08
       694.80000  6.34400e-06  3.18596e+08
       694.90000  6.34400e-06  3.18469e+08
       695.00000  6.34400e-06  3.18342e+08
       695.10000  6.34400e-06  3.18215e+08
       695.20000  6.34400e-06  3.18088e+08
       695.30000  6.34400e-06  3.17898e+08
       695.40000  6.34400e-06  3.17771e+08
       695.50000  4.23152e-06  2.11872e+08
       695.60000  4.23152e-06  2.11745e+08
       695.70000  4.23152e-06  2.11661e+08
       695.80000  4.23152e-06  2.11534e+08
       695.90000  4.23152e-06  2.11407e+08
       696.00000  4.23152e-06  2.11322e+08
       696.10000  4.23152e-06  2.11195e+08
       696.20000  4.23152e-06  2.11068e+08
       696.30000  4.20676e-06  2.09707e+08
       696.40000  4.20676e-06  2.09581e+08
       696.50000  2.10501e-06  1.04808e+08
       696.60000  2.10501e-06  1.04745e+08
       696.70000  2.10501e-06  1.04661e+08
       696.80000  2.10501e-06  1.04598e+08
       696.90000  2.10501e-06  1.04535e+08
       697.00000  2.10501e-06  1.04450e+08
       697.10000  2.10501e-06  1.04598e+08
       697.20000  2.10501e-06  1.04703e+08
       697.30000  2.10501e-06  1.04829e+08
       697.40000  2.10501e-06  1.04935e+08
       697.50000  1.05217e-05  5.25030e+08
       697.60000  1.05217e-05  5.25451e+08
       697.70000  1.05217e-05  5.25872e+08
       697.80000  1.05217e-05  5.26188e+08
       697.90000  1.05217e-05  5.26503e+08
       698.00000  1.05217e-05  5.26714e+08
       698.10000  1.05217e-05  5.26924e+08
       698.20000  1.05217e-05  5.27135e+08
       698.30000  1.05217e-05  5.27240e+08
       698.40000  1.05217e-05  5.27345e+08
       698.50000  6.31547e-06  3.16595e+08
       698.60000  6.31547e-06  3.16595e+08
       698.70000  6.31547e-06  3.16532e+08
       698.80000  6.27676e-06  3.14528e+08
       698.90000  6.27676e-06  3.14466e+08
       699.00000  6.27676e-06  3.14340e+08
       699.10000  6.27676e-06  3.13775e+08
       699.20000  6.27676e-06  3.13147e+08
       699.30000  6.27676e-06  3.12645e+08
       699.40000  6.27676e-06  3.12080e+08
       699.50000  2.09241e-06  1.03867e+08
       699.60000  2.09241e-06  1.03700e+08
       699.70000  2.09241e-06  1.03554e+08
       699.80000  2.09241e-06  1.03407e+08
       699.90000  2.09241e-06  1.03261e+08
       700.00000  2.09241e-06  1.03135e+08
       700.10000  2.09241e-06  1.03010e+08
       700.20000  2.09241e-06  1.02884e+08
       700.30000  2.09241e-06  1.02779e+08
       700.40000  2.09241e-06  1.02675e+08
       700.50000  1.04614e-05  5.12816e+08
       700.60000  1.04614e-05  5.12398e+08
       700.70000  1.04614e-05  5.11980e+08
       700.80000  1.04614e-05  5.11666e+08
       700.90000  1.04614e-05  5.11352e+08
       701.00000  1.04614e-05  5.11038e+08
       701.10000  1.04614e-05  5.10933e+08
       701.20000  1.04614e-05  5.10829e+08
       701.30000  1.03839e-05  5.06940e+08
       701.40000  1.03839e-05  5.06940e+08
       701.50000  8.31223e-06  4.05803e+08
       701.60000  8.31223e-06  4.05803e+08
       701.70000  8.31223e-06  4.05803e+08
       701.80000  8.31223e-06  4.05886e+08
       701.90000  8.31223e-06  4.05886e+08
       702.00000  8.31223e-06  4.05969e+08
       702.10000  8.31223e-06  4.06136e+08
       702.20000  8.31223e-06  4.06219e+08
       702.30000  8.31223e-06  4.06385e+08
       702.40000  8.31223e-06  4.06468e+08
       702.50000  2.02189e-06  9.89109e+07
       702.60000  2.02189e-06  9.89715e+07
       702.70000  2.02189e-06  9.90120e+07
       702.80000  2.02189e-06  9.90726e+07
       702.90000  2.02189e-06  9.91333e+07
       703.00000  2.02189e-06  9.91939e+07
       703.10000  2.02189e-06  9.93759e+07
       703.20000  2.02189e-06  9.95579e+07
       703.30000  2.02189e-06  9.97196e+07
       703.40000  2.02189e-06  9.98814e+07
       703.50000  8.31144e-06  4.11167e+08
       703.60000  8.31144e-06  4.11832e+08
       703.70000  8.31144e-06  4.12331e+08
       703.80000  8.23430e-06  4.09080e+08
       703.90000  8.23430e-06  4.09574e+08
       704.00000  8.23430e-06  4.09986e+08
       704.10000  8.23430e-06  4.10480e+08
       704.20000  8.23430e-06  4.10891e+08
       704.30000  8.23430e-06  4.11221e+08
       704.40000  8.23430e-06  4.11550e+08
       704.50000  4.11999e-06  2.06082e+08
       704.60000  4.11999e-06  2.06247e+08
       704.70000  4.11999e-06  2.06370e+08
       704.80000  4.11999e-06  2.06453e+08
       704.90000  4.11999e-06  2.06576e+08
       705.00000  4.11999e-06  2.06659e+08
       705.10000  4.11999e-06  2.06700e+08
       705.20000  4.11999e-06  2.06741e+08
       705.30000  4.11999e-06  2.06782e+08
       705.40000  4.11999e-06  2.06823e+08
       705.50000  4.11979e-06  2.06813e+08
       705.60000  4.11979e-06  2.06813e+08
       705.70000  4.11979e-06  2.06772e+08
       705.80000  4.11979e-06  2.06731e+08
       705.90000  4.11979e-06  2.06690e+08
       706.00000  4.11979e-06  2.06607e+08
       706.10000  4.11979e-06  2.06525e+08
       706.20000  4.11979e-06  2.06402e+08
       706.30000  4.07915e-06  2.04243e+08
       706.40000  4.07915e-06  2.04121e+08
       706.50000  4.07858e-06  2.03929e+08
       706.60000  4.07858e-06  2.03766e+08
       706.70000  4.07858e-06  2.03603e+08
       706.80000  4.07858e-06  2.03399e+08
       706.90000  4.07858e-06  2.03195e+08
       707.00000  4.07858e-06  2.02991e+08
       707.10000  4.07858e-06  2.02828e+08
       707.20000  4.07858e-06  2.02706e+08
       707.30000  4.07858e-06  2.02542e+08
       707.40000  4.07858e-06  2.02420e+08
       707.50000  4.08110e-06  2.02422e+08
       707.60000  4.08110e-06  2.02300e+08
       707.70000  4.08110e-06  2.02218e+08
       707.80000  4.08110e-06  2.02096e+08
       707.90000  4.08110e-06  2.02014e+08
       708.00000  4.08110e-06  2.01933e+08
       708.10000  4.08110e-06  2.01851e+08
       708.20000  4.08110e-06  2.01769e+08
       708.30000  4.08110e-06  2.01688e+08
       708.40000  4.08110e-06  2.01606e+08
       708.50000  6.12216e-06  3.02373e+08
       708.60000  6.12216e-06  3.02251e+08
       708.70000  6.12216e-06  3.02190e+08
       708.80000  6.05203e-06  2.98668e+08
       708.90000  6.05203e-06  2.98607e+08
       709.00000  6.05203e-06  2.98607e+08
       709.10000  6.05203e-06  2.98728e+08
       709.20000  6.05203e-06  2.98849e+08
       709.30000  6.05203e-06  2.98910e+08
       709.40000  6.05203e-06  2.99031e+08
       709.50000  8.07377e-06  3.99006e+08
       709.60000  8.07377e-06  3.99167e+08
       709.70000  8.07377e-06  3.99248e+08
       709.80000  8.07377e-06  3.99329e+08
       709.90000  8.07377e-06  3.99410e+08
       710.00000  8.07377e-06  3.99490e+08
       710.10000  8.07377e-06  3.99571e+08
       710.20000  8.07377e-06  3.99652e+08
       710.30000  8.07377e-06  3.99652e+08
       710.40000  8.07377e-06  3.99733e+08
       710.50000  6.05757e-06  2.99910e+08
       710.60000  6.05757e-06  2.99910e+08
       710.70000  6.05757e-06  2.99910e+08
       710.80000  6.05757e-06  2.99910e+08
       710.90000  6.05757e-06  2.99910e+08
       711.00000  6.05757e-06  2.99910e+08
       711.10000  6.05757e-06  2.99910e+08
       711.20000  6.05757e-06  2.99850e+08
       711.30000  5.96908e-06  2.95469e+08
       711.40000  5.96908e-06  2.95410e+08
       711.50000  7.95936e-06  3.93829e+08
       711.60000  7.95936e-06  3.93750e+08
       711.70000  7.95936e-06  3.93670e+08
       711.80000  7.95936e-06  3.93590e+08
       711.90000  7.95936e-06  3.93511e+08
       712.00000  7.95936e-06  3.93352e+08
       712.10000  7.95936e-06  3.93272e+08
       712.20000  7.95936e-06  3.93113e+08
       712.30000  7.95936e-06  3.93033e+08
       712.40000  7.95936e-06  3.92874e+08
       712.50000  3.98074e-06  1.96410e+08
       712.60000  3.98074e-06  1.96330e+08
       712.70000  3.98074e-06  1.96211e+08
       712.80000  3.98074e-06  1.96131e+08
       712.90000  3.98074e-06  1.96052e+08
       713.00000  3.98074e-06  1.95932e+08
       713.10000  3.98074e-06  1.95932e+08
       713.20000  3.98074e-06  1.95932e+08
       713.30000  3.98074e-06  1.95932e+08
       713.40000  3.98074e-06  1.95892e+08
       713.50000  7.96271e-06  3.91845e+08
       713.60000  7.96271e-06  3.91845e+08
       713.70000  7.96271e-06  3.91765e+08
       713.80000  7.85418e-06  3.86426e+08
       713.90000  7.85418e-06  3.86347e+08
       714.00000  7.85418e-06  3.86347e+08
       714.10000  7.85418e-06  3.86268e+08
       714.20000  7.85418e-06  3.86190e+08
       714.30000  7.85418e-06  3.86190e+08
       714.40000  7.85418e-06  3.86111e+08
       714.50000  1.39006e-06  6.83213e+07
       714.60000  1.39006e-06  6.83074e+07
       714.70000  1.39006e-06  6.83074e+07
       714.80000  1.39006e-06  6.82935e+07
       714.90000  1.39006e-06  6.82796e+07
       715.00000  1.39006e-06  6.82656e+07
       715.10000  1.39006e-06  6.82518e+07
       715.20000  1.39006e-06  6.82518e+07
       715.30000  1.39006e-06  6.82518e+07
       715.40000  1.39006e-06  6.82378e+07
       715.50000  2.79000e-07  1.36933e+07
       715.60000  2.79000e-07  1.36905e+07
       715.70000  2.79000e-07  1.36877e+07
       715.80000  2.79000e-07  1.36849e+07
       715.90000  2.79000e-07  1.36821e+07
       716.00000  2.79000e-07  1.36766e+07
       716.10000  2.79000e-07  1.36738e+07
       716.20000  2.79000e-07  1.36682e+07
       716.30000  2.75272e-07  1.34801e+07
       716.40000  2.75272e-07  1.34746e+07
       716.50000  3.87839e-06  1.89770e+08
       716.60000  3.87839e-06  1.89692e+08
       716.70000  3.87839e-06  1.89615e+08
       716.80000  3.87839e-06  1.89498e+08
       716.90000  3.87839e-06  1.89421e+08
       717.00000  3.87839e-06  1.89304e+08
       717.10000  3.87839e-06  1.89188e+08
       717.20000  3.87839e-06  1.89072e+08
       717.30000  3.87839e-06  1.88955e+08
       717.40000  3.87839e-06  1.88839e+08
       717.50000  9.69360e-06  4.71691e+08
       717.60000  9.69360e-06  4.71303e+08
       717.70000  9.69360e-06  4.71012e+08
       717.80000  9.69360e-06  4.70624e+08
       717.90000  9.69360e-06  4.70237e+08
       718.00000  9.69360e-06  4.69849e+08
       718.10000  9.69360e-06  4.69461e+08
       718.20000  9.69360e-06  4.69073e+08
       718.30000  9.69360e-06  4.68686e+08
       718.40000  9.69360e-06  4.68201e+08
       718.50000  1.88986e-06  9.12047e+07
       718.60000  1.88986e-06  9.11102e+07
       718.70000  1.88986e-06  9.10158e+07
       718.80000  1.86717e-06  8.98294e+07
       718.90000  1.86717e-06  8.97360e+07
       719.00000  1.86717e-06  8.96427e+07
       719.10000  1.86717e-06  8.96427e+07
       719.20000  1.86717e-06  8.96427e+07
       719.30000  1.86717e-06  8.96427e+07
       719.40000  1.86717e-06  8.96614e+07
       719.50000  5.74802e-06  2.76020e+08
       719.60000  5.74802e-06  2.76077e+08
       719.70000  5.74802e-06  2.76077e+08
       719.80000  5.74802e-06  2.76135e+08
       719.90000  5.74802e-06  2.76192e+08
       720.00000  5.74802e-06  2.76307e+08
       720.10000  5.74802e-06  2.76365e+08
       720.20000  5.74802e-06  2.76422e+08
       720.30000  5.74802e-06  2.76537e+08
       720.40000  5.74802e-06  2.76595e+08
       720.50000  5.75078e-06  2.76842e+08
       720.60000  5.75078e-06  2.76958e+08
       720.70000  5.75078e-06  2.77073e+08
       720.80000  5.75078e-06  2.77188e+08
       720.90000  5.75078e-06  2.77360e+08
       721.00000  5.75078e-06  2.77475e+08
       721.10000  5.75078e-06  2.77763e+08
       721.20000  5.75078e-06  2.78050e+08
       721.30000  5.68592e-06  2.75199e+08
       721.40000  5.68592e-06  2.75426e+08
       721.50000  3.79173e-06  1.83861e+08
       721.60000  3.79173e-06  1.84013e+08
       721.70000  3.79173e-06  1.84165e+08
       721.80000  3.79173e-06  1.84354e+08
       721.90000  3.79173e-06  1.84506e+08
       722.00000  3.79173e-06  1.84620e+08
       722.10000  3.79173e-06  1.84771e+08
       722.20000  3.79173e-06  1.84923e+08
       722.30000  3.79173e-06  1.85037e+08
       722.40000  3.79173e-06  1.85150e+08
       722.50000  7.58143e-06  3.70429e+08
       722.60000  7.58143e-06  3.70732e+08
       722.70000  7.58143e-06  3.70884e+08
       722.80000  7.58143e-06  3.71111e+08
       722.90000  7.58143e-06  3.71339e+08
       723.00000  7.58143e-06  3.71490e+08
       723.10000  7.58143e-06  3.71718e+08
       723.20000  7.58143e-06  3.71869e+08
       723.30000  7.58143e-06  3.72021e+08
       723.40000  7.58143e-06  3.72173e+08
       723.50000  5.68699e-06  2.79288e+08
       723.60000  5.68699e-06  2.79345e+08
       723.70000  5.68699e-06  2.79459e+08
       723.80000  5.62280e-06  2.76361e+08
       723.90000  5.62280e-06  2.76417e+08
       724.00000  5.62280e-06  2.76473e+08
       724.10000  5.62280e-06  2.76529e+08
       724.20000  5.62280e-06  2.76586e+08
       724.30000  5.62280e-06  2.76642e+08
       724.40000  5.62280e-06  2.76698e+08
       724.50000  1.87465e-06  9.22514e+07
       724.60000  1.87465e-06  9.22514e+07
       724.70000  1.87465e-06  9.22514e+07
       724.80000  1.87465e-06  9.22514e+07
       724.90000  1.87465e-06  9.22514e+07
       725.00000  1.87465e-06  9.22514e+07
       727.00000  1.81497e-06  8.92967e+07
       727.10000  1.81497e-06  8.91697e+07
       727.20000  1.81497e-06  8.90426e+07
       727.30000  1.81497e-06  8.89156e+07
       727.40000  1.81497e-06  8.88067e+07
       727.50000  3.70950e-06  1.81283e+08
       727.60000  3.70950e-06  1.81061e+08
       727.70000  3.70950e-06  1.80875e+08
       727.80000  3.70950e-06  1.80690e+08
       727.90000  3.70950e-06  1.80504e+08
       728.00000  3.70950e-06  1.80356e+08
       728.10000  3.70950e-06  1.80208e+08
       728.20000  3.70950e-06  1.80059e+08
       728.30000  3.70950e-06  1.79911e+08
       728.40000  3.70950e-06  1.79800e+08
       728.50000  1.68244e-06  8.14974e+07
       728.60000  1.68244e-06  8.14637e+07
       728.70000  1.68244e-06  8.14133e+07
       728.80000  1.66368e-06  8.04887e+07
       728.90000  1.66368e-06  8.04554e+07
       729.00000  1.66368e-06  8.04388e+07
       729.10000  1.66368e-06  8.04222e+07
       729.20000  1.66368e-06  8.04055e+07
       729.30000  1.66368e-06  8.04055e+07
       729.40000  1.66368e-06  8.03889e+07
       729.50000  5.50471e-06  2.66042e+08
       729.60000  5.50471e-06  2.66042e+08
       729.70000  5.50471e-06  2.66098e+08
       729.80000  5.50471e-06  2.66153e+08
       729.90000  5.50471e-06  2.66263e+08
       730.00000  5.50471e-06  2.66373e+08
       730.10000  5.50471e-06  2.66483e+08
       730.20000  5.50471e-06  2.66593e+08
       730.30000  5.50471e-06  2.66758e+08
       730.40000  5.50471e-06  2.66923e+08
       730.50000  5.50666e-06  2.67183e+08
       730.60000  5.50666e-06  2.67403e+08
       730.70000  5.50666e-06  2.67624e+08
       730.80000  5.50666e-06  2.67844e+08
       730.90000  5.50666e-06  2.68119e+08
       731.00000  5.50666e-06  2.68395e+08
       731.10000  5.50666e-06  2.68340e+08
       731.20000  5.50666e-06  2.68284e+08
       731.30000  5.43840e-06  2.64905e+08
       731.40000  5.43840e-06  2.64905e+08
       731.50000  3.62651e-06  1.76611e+08
       731.60000  3.62651e-06  1.76575e+08
       731.70000  3.62651e-06  1.76539e+08
       731.80000  3.62651e-06  1.76539e+08
       731.90000  3.62651e-06  1.76502e+08
       732.00000  3.62651e-06  1.76466e+08
       732.10000  3.62651e-06  1.76430e+08
       732.20000  3.62651e-06  1.76394e+08
       732.30000  3.62651e-06  1.76394e+08
       732.40000  3.62651e-06  1.76357e+08
       732.50000  3.24057e-07  1.57556e+07
       732.60000  3.24057e-07  1.57524e+07
       732.70000  3.24057e-07  1.57492e+07
       732.80000  3.24057e-07  1.57459e+07
       732.90000  3.24057e-07  1.57427e+07
       733.00000  3.24057e-07  1.57394e+07
       733.10000  3.24057e-07  1.57362e+07
       733.20000  3.24057e-07  1.57297e+07
       733.30000  3.24057e-07  1.57265e+07
       733.40000  3.24057e-07  1.57200e+07
       733.50000  5.44134e-06  2.63905e+08
       733.60000  5.44134e-06  2.63850e+08
       733.70000  5.44134e-06  2.63742e+08
       733.80000  5.36667e-06  2.60069e+08
       733.90000  5.36667e-06  2.60015e+08
       734.00000  5.36667e-06  2.59962e+08
       734.10000  5.36667e-06  2.59908e+08
       734.20000  5.36667e-06  2.59854e+08
       734.30000  5.36667e-06  2.59801e+08
       734.40000  5.36667e-06  2.59801e+08
       734.50000  3.45762e-07  1.67349e+07
       734.60000  3.45762e-07  1.67314e+07
       734.70000  3.45762e-07  1.67314e+07
       734.80000  3.45762e-07  1.67280e+07
       734.90000  3.45762e-07  1.67280e+07
       735.00000  3.45762e-07  1.67245e+07
       735.10000  3.45762e-07  1.67245e+07
       735.20000  3.45762e-07  1.67245e+07
       735.30000  3.45762e-07  1.67245e+07
       735.40000  3.45762e-07  1.67211e+07
       735.50000  3.57822e-06  1.73043e+08
       735.60000  3.57822e-06  1.73043e+08
       735.70000  3.57822e-06  1.73043e+08
       735.80000  3.57822e-06  1.73078e+08
       735.90000  3.57822e-06  1.73078e+08
       736.00000  3.57822e-06  1.73078e+08
       736.10000  3.57822e-06  1.73078e+08
       736.20000  3.57822e-06  1.73114e+08
       736.30000  3.52188e-06  1.70389e+08
       736.40000  3.52188e-06  1.70424e+08
       736.50000  3.52109e-06  1.70386e+08
       736.60000  3.52109e-06  1.70421e+08
       736.70000  3.52109e-06  1.70456e+08
       736.80000  3.52109e-06  1.70456e+08
       736.90000  3.52109e-06  1.70491e+08
       737.00000  3.52109e-06  1.70527e+08
       737.10000  3.52109e-06  1.70351e+08
       737.20000  3.52109e-06  1.70139e+08
       737.30000  3.52109e-06  1.69963e+08
       737.40000  3.52109e-06  1.69787e+08
       737.50000  5.28286e-06  2.54423e+08
       737.60000  5.28286e-06  2.54158e+08
       737.70000  5.28286e-06  2.53894e+08
       737.80000  5.28286e-06  2.53630e+08
       737.90000  5.28286e-06  2.53419e+08
       738.00000  5.28286e-06  2.53155e+08
       738.10000  5.28286e-06  2.52891e+08
       738.20000  5.28286e-06  2.52626e+08
       738.30000  5.28286e-06  2.52415e+08
       738.40000  5.28286e-06  2.52204e+08
       738.50000  5.28205e-06  2.51901e+08
       738.60000  5.28205e-06  2.51690e+08
       738.70000  5.28205e-06  2.51478e+08
       738.80000  5.19117e-06  2.46944e+08
       738.90000  5.19117e-06  2.46736e+08
       739.00000  5.19117e-06  2.46529e+08
       739.10000  5.19117e-06  2.46113e+08
       739.20000  5.19117e-06  2.45750e+08
       739.30000  5.19117e-06  2.45438e+08
       739.40000  5.19117e-06  2.45127e+08
       739.50000  5.70292e-07  2.68950e+07
       739.60000  5.70292e-07  2.68664e+07
       739.70000  5.70292e-07  2.68436e+07
       739.80000  5.70292e-07  2.68151e+07
       739.90000  5.70292e-07  2.67980e+07
       740.00000  5.70292e-07  2.67752e+07
       740.10000  5.70292e-07  2.67638e+07
       740.20000  5.70292e-07  2.67467e+07
       740.30000  5.70292e-07  2.67353e+07
       740.40000  5.70292e-07  2.67296e+07
       740.50000  5.19194e-06  2.43294e+08
       740.60000  5.19194e-06  2.43242e+08
       740.70000  5.19194e-06  2.43242e+08
       740.80000  5.19194e-06  2.43242e+08
       740.90000  5.19194e-06  2.43294e+08
       741.00000  5.19194e-06  2.43346e+08
       741.10000  5.19194e-06  2.43450e+08
       741.20000  5.19194e-06  2.43554e+08
       741.30000  5.10219e-06  2.39446e+08
       741.40000  5.10219e-06  2.39599e+08
       741.50000  1.09097e-06  5.12646e+07
       741.60000  1.09097e-06  5.13082e+07
       741.70000  1.09097e-06  5.13628e+07
       741.80000  1.09097e-06  5.14064e+07
       741.90000  1.09097e-06  5.14719e+07
       742.00000  1.09097e-06  5.15264e+07
       742.10000  1.09097e-06  5.15919e+07
       742.20000  1.09097e-06  5.16682e+07
       742.30000  1.09097e-06  5.17446e+07
       742.40000  1.09097e-06  5.18210e+07
       742.50000  6.80920e-06  3.23982e+08
       742.60000  6.80920e-06  3.24526e+08
       742.70000  6.80920e-06  3.25139e+08
       742.80000  6.80920e-06  3.25752e+08
       742.90000  6.80920e-06  3.26433e+08
       743.00000  6.80920e-06  3.27114e+08
       743.10000  6.80920e-06  3.26978e+08
       743.20000  6.80920e-06  3.26910e+08
       743.30000  6.80920e-06  3.26842e+08
       743.40000  6.80920e-06  3.26705e+08
       743.50000  5.10986e-06  2.45120e+08
       743.60000  5.10986e-06  2.45069e+08
       743.70000  5.10986e-06  2.45018e+08
       743.80000  5.03099e-06  2.41186e+08
       743.90000  5.03099e-06  2.41135e+08
       744.00000  5.03099e-06  2.41085e+08
       744.10000  5.03099e-06  2.41085e+08
       744.20000  5.03099e-06  2.41035e+08
       744.30000  5.03099e-06  2.41035e+08
       744.40000  5.03099e-06  2.41035e+08
       744.50000  3.35223e-06  1.60572e+08
       744.60000  3.35223e-06  1.60572e+08
       744.70000  3.35223e-06  1.60572e+08
       744.80000  3.35223e-06  1.60572e+08
       744.90000  3.35223e-06  1.60605e+08
       745.00000  3.35223e-06  1.60605e+08
       745.10000  3.35223e-06  1.60706e+08
       745.20000  3.35223e-06  1.60806e+08
       745.30000  3.35223e-06  1.60874e+08
       745.40000  3.35223e-06  1.60974e+08
       745.50000  5.03063e-06  2.41672e+08
       745.60000  5.03063e-06  2.41772e+08
       745.70000  5.03063e-06  2.41873e+08
       745.80000  5.03063e-06  2.41973e+08
       745.90000  5.03063e-06  2.42024e+08
       746.00000  5.03063e-06  2.42124e+08
       746.10000  5.03063e-06  2.42175e+08
       746.20000  5.03063e-06  2.42225e+08
       746.30000  4.97287e-06  2.39493e+08
       746.40000  4.97287e-06  2.39543e+08
       746.50000  3.31490e-06  1.59712e+08
       746.60000  3.31490e-06  1.59712e+08
       746.70000  3.31490e-06  1.59745e+08
       746.80000  3.31490e-06  1.59745e+08
       746.90000  3.31490e-06  1.59745e+08
       747.00000  3.31490e-06  1.59745e+08
       747.10000  3.31490e-06  1.59646e+08
       747.20000  3.31490e-06  1.59579e+08
       747.30000  3.31490e-06  1.59513e+08
       747.40000  3.31490e-06  1.59447e+08
       747.50000  4.97338e-06  2.39120e+08
       747.60000  4.97338e-06  2.39021e+08
       747.70000  4.97338e-06  2.38921e+08
       747.80000  4.97338e-06  2.38822e+08
       747.90000  4.97338e-06  2.38722e+08
       748.00000  4.97338e-06  2.38623e+08
       748.10000  4.97338e-06  2.38573e+08
       748.20000  4.97338e-06  2.38474e+08
       748.30000  4.97338e-06  2.38374e+08
       748.40000  4.97338e-06  2.38325e+08
       748.50000  3.31675e-06  1.58872e+08
       748.60000  3.31675e-06  1.58806e+08
       748.70000  3.31675e-06  1.58773e+08
       748.80000  3.27888e-06  1.56894e+08
       748.90000  3.27888e-06  1.56862e+08
       749.00000  3.27888e-06  1.56829e+08
       749.10000  3.27888e-06  1.56763e+08
       749.20000  3.27888e-06  1.56730e+08
       749.30000  3.27888e-06  1.56698e+08
       749.40000  3.27888e-06  1.56665e+08
       749.50000  4.91817e-06  2.34941e+08
       749.60000  4.91817e-06  2.34892e+08
       749.70000  4.91817e-06  2.34793e+08
       749.80000  4.91817e-06  2.34744e+08
       749.90000  4.91817e-06  2.34744e+08
       750.00000  4.91817e-06  2.34695e+08
       750.10000  4.91817e-06  2.34646e+08
       750.20000  4.91817e-06  2.34597e+08
       750.30000  4.91817e-06  2.34547e+08
       750.40000  4.91817e-06  2.34547e+08
       750.50000  3.27958e-06  1.56371e+08
       750.60000  3.27958e-06  1.56338e+08
       750.70000  3.27958e-06  1.56338e+08
       750.80000  3.27958e-06  1.56305e+08
       750.90000  3.27958e-06  1.56305e+08
       751.00000  3.27958e-06  1.56272e+08
       751.10000  3.27958e-06  1.56272e+08
       751.20000  3.27958e-06  1.56272e+08
       751.30000  3.23752e-06  1.54236e+08
       751.40000  3.23752e-06  1.54236e+08
       751.50000  6.44571e-06  3.07074e+08
       751.60000  6.44571e-06  3.07074e+08
       751.70000  6.44571e-06  3.07074e+08
       751.80000  6.44571e-06  3.07074e+08
       751.90000  6.44571e-06  3.07074e+08
       752.00000  6.44571e-06  3.07074e+08
       752.10000  6.44571e-06  3.07074e+08
       752.20000  6.44571e-06  3.07074e+08
       752.30000  6.44571e-06  3.07074e+08
       752.40000  6.44571e-06  3.07074e+08
       752.50000  6.41400e-06  3.05627e+08
       752.60000  6.41400e-06  3.05627e+08
       752.70000  6.41400e-06  3.05627e+08
       752.80000  6.41400e-06  3.05691e+08
       752.90000  6.41400e-06  3.05691e+08
       753.00000  6.41400e-06  3.05755e+08
       753.10000  6.41400e-06  3.05755e+08
       753.20000  6.41400e-06  3.05755e+08
       753.30000  6.41400e-06  3.05755e+08
       753.40000  6.41400e-06  3.05755e+08
       753.50000  3.19065e-06  1.52098e+08
       753.60000  3.19065e-06  1.52098e+08
       753.70000  3.19065e-06  1.52098e+08
       753.80000  3.14574e-06  1.49957e+08
       753.90000  3.14574e-06  1.49957e+08
       754.00000  3.14574e-06  1.49957e+08
       754.10000  3.14574e-06  1.49957e+08
       754.20000  3.14574e-06  1.49926e+08
       754.30000  3.14574e-06  1.49926e+08
       754.40000  3.14574e-06  1.49926e+08
       754.50000  4.69519e-06  2.23773e+08
       754.60000  4.69519e-06  2.23773e+08
       754.70000  4.69519e-06  2.23726e+08
       754.80000  4.69519e-06  2.23726e+08
       754.90000  4.69519e-06  2.23679e+08
       755.00000  4.69519e-06  2.23679e+08
       755.10000  4.69519e-06  2.23632e+08
       755.20000  4.69519e-06  2.23632e+08
       755.30000  4.69519e-06  2.23585e+08
       755.40000  4.69519e-06  2.23585e+08
       755.50000  4.67279e-06  2.22472e+08
       755.60000  4.67279e-06  2.22425e+08
       755.70000  4.67279e-06  2.22425e+08
       755.80000  4.67279e-06  2.22378e+08
       755.90000  4.67279e-06  2.22331e+08
       756.00000  4.67279e-06  2.22331e+08
       756.10000  4.67279e-06  2.22285e+08
       756.20000  4.67279e-06  2.22238e+08
       756.30000  4.60557e-06  2.18995e+08
       756.40000  4.60557e-06  2.18995e+08
       756.50000  4.58299e-06  2.17875e+08
       756.60000  4.58299e-06  2.17829e+08
       756.70000  4.58299e-06  2.17784e+08
       756.80000  4.58299e-06  2.17784e+08
       756.90000  4.58299e-06  2.17738e+08
       757.00000  4.58299e-06  2.17692e+08
       757.10000  4.58299e-06  2.17646e+08
       757.20000  4.58299e-06  2.17600e+08
       757.30000  4.58299e-06  2.17600e+08
       757.40000  4.58299e-06  2.17554e+08
       757.50000  3.03955e-06  1.44257e+08
       757.60000  3.03955e-06  1.44227e+08
       757.70000  3.03955e-06  1.44196e+08
       757.80000  3.03955e-06  1.44166e+08
       757.90000  3.03955e-06  1.44135e+08
       758.00000  3.03955e-06  1.44135e+08
       758.10000  3.03955e-06  1.44105e+08
       758.20000  3.03955e-06  1.44075e+08
       758.30000  3.03955e-06  1.44044e+08
       758.40000  3.03955e-06  1.44014e+08
       758.50000  4.53506e-06  2.14826e+08
       758.60000  4.53506e-06  2.14780e+08
       758.70000  4.53506e-06  2.14735e+08
       758.80000  4.45481e-06  2.10891e+08
       758.90000  4.45481e-06  2.10846e+08
       759.00000  4.45481e-06  2.10802e+08
       759.10000  4.45481e-06  2.10802e+08
       759.20000  4.45481e-06  2.10757e+08
       759.30000  4.45481e-06  2.10757e+08
       759.40000  4.45481e-06  2.10712e+08
       759.50000  1.45213e-06  6.86858e+07
       759.60000  1.45213e-06  6.86858e+07
       759.70000  1.45213e-06  6.86713e+07
       759.80000  1.45213e-06  6.86713e+07
       759.90000  1.45213e-06  6.86713e+07
       760.00000  1.45213e-06  6.86713e+07
       760.10000  1.45213e-06  6.86713e+07
       760.20000  1.45213e-06  6.86713e+07
       760.30000  1.45213e-06  6.86858e+07
       760.40000  1.45213e-06  6.86858e+07
       760.50000  5.88303e-06  2.78267e+08
       760.60000  5.88303e-06  2.78326e+08
       760.70000  5.88303e-06  2.78326e+08
       760.80000  5.88303e-06  2.78385e+08
       760.90000  5.88303e-06  2.78385e+08
       761.00000  5.88303e-06  2.78444e+08
       761.10000  5.88303e-06  2.78679e+08
       761.20000  5.88303e-06  2.78856e+08
       761.30000  5.76179e-06  2.73282e+08
       761.40000  5.76179e-06  2.73454e+08
       761.50000  8.60246e-06  4.08531e+08
       761.60000  8.60246e-06  4.08703e+08
       761.70000  8.60246e-06  4.08875e+08
       761.80000  8.60246e-06  4.09047e+08
       761.90000  8.60246e-06  4.09219e+08
       762.00000  8.60246e-06  4.09305e+08
       762.10000  8.60246e-06  4.09477e+08
       762.20000  8.60246e-06  4.09563e+08
       762.30000  8.60246e-06  4.09649e+08
       762.40000  8.60246e-06  4.09649e+08
       762.50000  1.40997e-06  6.71426e+07
       762.60000  1.40997e-06  6.71567e+07
       762.70000  1.40997e-06  6.71567e+07
       762.80000  1.40997e-06  6.71426e+07
       762.90000  1.40997e-06  6.71426e+07
       763.00000  1.40997e-06  6.71285e+07
       763.10000  1.40997e-06  6.71144e+07
       763.20000  1.40997e-06  6.71003e+07
       763.30000  1.40997e-06  6.70721e+07
       763.40000  1.40997e-06  6.70439e+07
       763.50000  2.83859e-06  1.34918e+08
       763.60000  2.83859e-06  1.34862e+08
       763.70000  2.83859e-06  1.34805e+08
       763.80000  2.76762e-06  1.31351e+08
       763.90000  2.76762e-06  1.31268e+08
       764.00000  2.76762e-06  1.31185e+08
       764.10000  2.76762e-06  1.31102e+08
       764.20000  2.76762e-06  1.30991e+08
       764.30000  2.76762e-06  1.30881e+08
       764.40000  2.76762e-06  1.30770e+08
       764.50000  6.88121e-06  3.24862e+08
       764.60000  6.88121e-06  3.24587e+08
       764.70000  6.88121e-06  3.24243e+08
       764.80000  6.88121e-06  3.23899e+08
       764.90000  6.88121e-06  3.23555e+08
       765.00000  6.88121e-06  3.23142e+08
       765.10000  6.88121e-06  3.22385e+08
       765.20000  6.88121e-06  3.21628e+08
       765.30000  6.88121e-06  3.20940e+08
       765.40000  6.88121e-06  3.20252e+08
       765.50000  2.73802e-06  1.27181e+08
       765.60000  2.73802e-06  1.26962e+08
       765.70000  2.73802e-06  1.26716e+08
       765.80000  2.73802e-06  1.26524e+08
       765.90000  2.73802e-06  1.26332e+08
       766.00000  2.73802e-06  1.26141e+08
       766.10000  2.73802e-06  1.25976e+08
       766.20000  2.73802e-06  1.25812e+08
       766.30000  2.67043e-06  1.22573e+08
       766.40000  2.67043e-06  1.22466e+08
       766.50000  2.65780e-06  1.21780e+08
       766.60000  2.65780e-06  1.21674e+08
       766.70000  2.65780e-06  1.21621e+08
       766.80000  2.65780e-06  1.21541e+08
       766.90000  2.65780e-06  1.21488e+08
       767.00000  2.65780e-06  1.21461e+08
       767.10000  2.65780e-06  1.21594e+08
       767.20000  2.65780e-06  1.21754e+08
       767.30000  2.65780e-06  1.21887e+08
       767.40000  2.65780e-06  1.22020e+08
       767.50000  3.96432e-06  1.82200e+08
       767.60000  3.96432e-06  1.82398e+08
       767.70000  3.96432e-06  1.82597e+08
       767.80000  3.96432e-06  1.82755e+08
       767.90000  3.96432e-06  1.82953e+08
       768.00000  3.96432e-06  1.83112e+08
       768.10000  3.96432e-06  1.83270e+08
       768.20000  3.96432e-06  1.83429e+08
       768.30000  3.96432e-06  1.83548e+08
       768.40000  3.96432e-06  1.83707e+08
       768.50000  2.62924e-06  1.21918e+08
       768.60000  2.62924e-06  1.21997e+08
       768.70000  2.62924e-06  1.22076e+08
       768.80000  2.56945e-06  1.19376e+08
       768.90000  2.56945e-06  1.19454e+08
       769.00000  2.56945e-06  1.19505e+08
       769.10000  2.56945e-06  1.19582e+08
       769.20000  2.56945e-06  1.19633e+08
       769.30000  2.56945e-06  1.19685e+08
       769.40000  2.56945e-06  1.19736e+08
       769.50000  8.44345e-07  3.93549e+07
       769.60000  8.44345e-07  3.93718e+07
       769.70000  8.44345e-07  3.93802e+07
       769.80000  8.44345e-07  3.93971e+07
       769.90000  8.44345e-07  3.94056e+07
       770.00000  8.44345e-07  3.94056e+07
       770.10000  8.44345e-07  3.94140e+07
       770.20000  8.44345e-07  3.94225e+07
       770.30000  8.44345e-07  3.94225e+07
       770.40000  8.44345e-07  3.94225e+07
       770.50000  2.54362e-06  1.18762e+08
       770.60000  2.54362e-06  1.18762e+08
       770.70000  2.54362e-06  1.18762e+08
       770.80000  2.54362e-06  1.18762e+08
       770.90000  2.54362e-06  1.18736e+08
       771.00000  2.54362e-06  1.18711e+08
       771.10000  2.54362e-06  1.18813e+08
       771.20000  2.54362e-06  1.18889e+08
       771.30000  2.49567e-06  1.16723e+08
       771.40000  2.49567e-06  1.16797e+08
       771.50000  3.72181e-06  1.74292e+08
       771.60000  3.72181e-06  1.74367e+08
       771.70000  3.72181e-06  1.74479e+08
       771.80000  3.72181e-06  1.74553e+08
       771.90000  3.72181e-06  1.74590e+08
       772.00000  3.72181e-06  1.74665e+08
       774.00000  1.20825e-06  5.61596e+07
       774.10000  1.20825e-06  5.61233e+07
       774.20000  1.20825e-06  5.60871e+07
       774.30000  1.20825e-06  5.60629e+07
       774.40000  1.20825e-06  5.60267e+07
       774.50000  6.01017e-06  2.78571e+08
       774.60000  6.01017e-06  2.78511e+08
       774.70000  6.01017e-06  2.78391e+08
       774.80000  6.01017e-06  2.78331e+08
       774.90000  6.01017e-06  2.78271e+08
       775.00000  6.01017e-06  2.78211e+08
       775.10000  6.01017e-06  2.78211e+08
       775.20000  6.01017e-06  2.78211e+08
       775.30000  6.01017e-06  2.78211e+08
       775.40000  6.01017e-06  2.78211e+08
       775.50000  3.58513e-06  1.65991e+08
       775.60000  3.58513e-06  1.66027e+08
       775.70000  3.58513e-06  1.66063e+08
       775.80000  3.58513e-06  1.66099e+08
       775.90000  3.58513e-06  1.66171e+08
       776.00000  3.58513e-06  1.66242e+08
       778.00000  4.66228e-06  2.17076e+08
       778.10000  4.66228e-06  2.17029e+08
       778.20000  4.66228e-06  2.16982e+08
       778.30000  4.66228e-06  2.16936e+08
       778.40000  4.66228e-06  2.16889e+08
       778.50000  2.31727e-06  1.07799e+08
       778.60000  2.31727e-06  1.07776e+08
       778.70000  2.31727e-06  1.07753e+08
       778.80000  2.29114e-06  1.06538e+08
       778.90000  2.29114e-06  1.06538e+08
       779.00000  2.29114e-06  1.06515e+08
       779.10000  2.29114e-06  1.06561e+08
       779.20000  2.29114e-06  1.06584e+08
       779.30000  2.29114e-06  1.06630e+08
       779.40000  2.29114e-06  1.06653e+08
       779.50000  3.41753e-06  1.59120e+08
       779.60000  3.41753e-06  1.59154e+08
       779.70000  3.41753e-06  1.59188e+08
       779.80000  3.41753e-06  1.59223e+08
       779.90000  3.41753e-06  1.59257e+08
       780.00000  3.41753e-06  1.59291e+08
       780.10000  3.41753e-06  1.59291e+08
       780.20000  3.41753e-06  1.59325e+08
       780.30000  3.41753e-06  1.59325e+08
       780.40000  3.41753e-06  1.59325e+08
       780.50000  2.26654e-06  1.05666e+08
       780.60000  2.26654e-06  1.05666e+08
       780.70000  2.26654e-06  1.05666e+08
       780.80000  2.26654e-06  1.05666e+08
       780.90000  2.26654e-06  1.05666e+08
       781.00000  2.26654e-06  1.05643e+08
       781.10000  2.26654e-06  1.05643e+08
       781.20000  2.26654e-06  1.05621e+08
       781.30000  2.24609e-06  1.04646e+08
       781.40000  2.24609e-06  1.04623e+08
       781.50000  3.35082e-06  1.56048e+08
       781.60000  3.35082e-06  1.56014e+08
       781.70000  3.35082e-06  1.55981e+08
       781.80000  3.35082e-06  1.55947e+08
       781.90000  3.35082e-06  1.55880e+08
       782.00000  3.35082e-06  1.55847e+08
       782.10000  3.35082e-06  1.55780e+08
       782.20000  3.35082e-06  1.55713e+08
       782.30000  3.35082e-06  1.55679e+08
       782.40000  3.35082e-06  1.55612e+08
       782.50000  2.22113e-06  1.03105e+08
       782.60000  2.22113e-06  1.03038e+08
       782.70000  2.22113e-06  1.02994e+08
       782.80000  2.22113e-06  1.02949e+08
       782.90000  2.22113e-06  1.02883e+08
       783.00000  2.22113e-06  1.02838e+08
       783.10000  2.22113e-06  1.02883e+08
       783.20000  2.22113e-06  1.02927e+08
       783.30000  2.22113e-06  1.02971e+08
       783.40000  2.22113e-06  1.02994e+08
       783.50000  2.21012e-06  1.02528e+08
       783.60000  2.21012e-06  1.02572e+08
       783.70000  2.21012e-06  1.02594e+08
       783.80000  2.18997e-06  1.01702e+08
       783.90000  2.18997e-06  1.01746e+08
       784.00000  2.18997e-06  1.01768e+08
       784.10000  2.18997e-06  1.01790e+08
       784.20000  2.18997e-06  1.01833e+08
       784.30000  2.18997e-06  1.01855e+08
       784.40000  2.18997e-06  1.01877e+08
       784.50000  2.17671e-06  1.01282e+08
       784.60000  2.17671e-06  1.01304e+08
       784.70000  2.17671e-06  1.01326e+08
       784.80000  2.17671e-06  1.01348e+08
       784.90000  2.17671e-06  1.01369e+08
       785.00000  2.17671e-06  1.01369e+08
       785.10000  2.17671e-06  1.01369e+08
       785.20000  2.17671e-06  1.01369e+08
       785.30000  2.17671e-06  1.01369e+08
       785.40000  2.17671e-06  1.01369e+08
       785.50000  3.24821e-06  1.51269e+08
       785.60000  3.24821e-06  1.51269e+08
       785.70000  3.24821e-06  1.51269e+08
       785.80000  3.24821e-06  1.51269e+08
       785.90000  3.24821e-06  1.51269e+08
       786.00000  3.24821e-06  1.51269e+08
       786.10000  3.24821e-06  1.51269e+08
       786.20000  3.24821e-06  1.51269e+08
       786.30000  3.20995e-06  1.49488e+08
       786.40000  3.20995e-06  1.49488e+08
       786.50000  4.79688e-07  2.23391e+07
       786.60000  4.79688e-07  2.23391e+07
       786.70000  4.79688e-07  2.23391e+07
       786.80000  4.79688e-07  2.23391e+07
       786.90000  4.79688e-07  2.23391e+07
       787.00000  4.79688e-07  2.23391e+07
       787.10000  4.79688e-07  2.23391e+07
       787.20000  4.79688e-07  2.23391e+07
       787.30000  4.79688e-07  2.23391e+07
       787.40000  4.79688e-07  2.23391e+07
       787.50000  2.11503e-06  9.84972e+07
       787.60000  2.11503e-06  9.84972e+07
       787.70000  2.11503e-06  9.84972e+07
       787.80000  2.11503e-06  9.84972e+07
       787.90000  2.11503e-06  9.84972e+07
       788.00000  2.11503e-06  9.84972e+07
       790.00000  2.06637e-06  9.56938e+07
       790.10000  2.06637e-06  9.56318e+07
       790.20000  2.06637e-06  9.55905e+07
       790.30000  2.06637e-06  9.55285e+07
       790.40000  2.06637e-06  9.54872e+07
       790.50000  2.05453e-06  9.48781e+07
       790.60000  2.05453e-06  9.48164e+07
       790.70000  2.05453e-06  9.47753e+07
       790.80000  2.05453e-06  9.47137e+07
       790.90000  2.05453e-06  9.46726e+07
       791.00000  2.05453e-06  9.46110e+07
       791.10000  2.05453e-06  9.45493e+07
       791.20000  2.05453e-06  9.45082e+07
       791.30000  2.02343e-06  9.30170e+07
       791.40000  2.02343e-06  9.29563e+07
       791.50000  2.01105e-06  9.23273e+07
       791.60000  2.01105e-06  9.22669e+07
       791.70000  2.01105e-06  9.22267e+07
       791.80000  2.01105e-06  9.21664e+07
       791.90000  2.01105e-06  9.21262e+07
       792.00000  2.01105e-06  9.20658e+07
       792.10000  2.01105e-06  9.20256e+07
       792.20000  2.01105e-06  9.19854e+07
       792.30000  2.01105e-06  9.19250e+07
       792.40000  2.01105e-06  9.18848e+07
       792.50000  1.99943e-06  9.13138e+07
       792.60000  1.99943e-06  9.12738e+07
       792.70000  1.99943e-06  9.12338e+07
       792.80000  1.99943e-06  9.11938e+07
       792.90000  1.99943e-06  9.11539e+07
       793.00000  1.99943e-06  9.11139e+07
       793.10000  1.99943e-06  9.10539e+07
       793.20000  1.99943e-06  9.09739e+07
       793.30000  1.99943e-06  9.09139e+07
       793.40000  1.99943e-06  9.08539e+07
       793.50000  1.98763e-06  9.02582e+07
       793.60000  1.98763e-06  9.02185e+07
       793.70000  1.98763e-06  9.01589e+07
       793.80000  1.95325e-06  8.85797e+07
       793.90000  1.95325e-06  8.85407e+07
       794.00000  1.95325e-06  8.85211e+07
       794.10000  1.95325e-06  8.84821e+07
       794.20000  1.95325e-06  8.84821e+07
       794.30000  1.95325e-06  8.84625e+07
       794.40000  1.95325e-06  8.84625e+07
       794.50000  2.91556e-06  1.32046e+08
       794.60000  2.91556e-06  1.32046e+08
       794.70000  2.91556e-06  1.32075e+08
       794.80000  2.91556e-06  1.32075e+08
       794.90000  2.91556e-06  1.32104e+08
       795.00000  2.91556e-06  1.32162e+08
       795.10000  2.91556e-06  1.32366e+08
       795.20000  2.91556e-06  1.32570e+08
       795.30000  2.91556e-06  1.32774e+08
       795.40000  2.91556e-06  1.32979e+08
       795.50000  9.65297e-07  4.40851e+07
       795.60000  9.65297e-07  4.41430e+07
       795.70000  9.65297e-07  4.41913e+07
       795.80000  9.65297e-07  4.42396e+07
       795.90000  9.65297e-07  4.42878e+07
       796.00000  9.65297e-07  4.43264e+07
       796.10000  9.65297e-07  4.43651e+07
       796.20000  9.65297e-07  4.44037e+07
       796.30000  9.45097e-07  4.35028e+07
       796.40000  9.45097e-07  4.35311e+07
       796.50000  2.81919e-06  1.29936e+08
       796.60000  2.81919e-06  1.29993e+08
       796.70000  2.81919e-06  1.30049e+08
       796.80000  2.81919e-06  1.30077e+08
       796.90000  2.81919e-06  1.30105e+08
       797.00000  2.81919e-06  1.30134e+08
       797.10000  2.81919e-06  1.30162e+08
       797.20000  2.81919e-06  1.30162e+08
       797.30000  2.81919e-06  1.30162e+08
       797.40000  2.81919e-06  1.30134e+08
       797.50000  3.73609e-06  1.72421e+08
       797.60000  3.73609e-06  1.72383e+08
       797.70000  3.73609e-06  1.72308e+08
       797.80000  3.73609e-06  1.72234e+08
       797.90000  3.73609e-06  1.72159e+08
       798.00000  3.73609e-06  1.72047e+08
       800.00000  1.80412e-06  8.27913e+07
       800.10000  1.80412e-06  8.28274e+07
       800.20000  1.80412e-06  8.28635e+07
       800.30000  1.80412e-06  8.28995e+07
       800.40000  1.80412e-06  8.29176e+07
       800.50000  8.24135e-07  3.78855e+07
       800.60000  8.24135e-07  3.78937e+07
       800.70000  8.24135e-07  3.78937e+07
       800.80000  8.24135e-07  3.79020e+07
       800.90000  8.24135e-07  3.79020e+07
       801.00000  8.24135e-07  3.79020e+07
       801.10000  8.24135e-07  3.78855e+07
       801.20000  8.24135e-07  3.78690e+07
       801.30000  8.05137e-07  3.69799e+07
       801.40000  8.05137e-07  3.69638e+07
       801.50000  3.48066e-06  1.59728e+08
       801.60000  3.48066e-06  1.59658e+08
       801.70000  3.48066e-06  1.59588e+08
       801.80000  3.48066e-06  1.59519e+08
       801.90000  3.48066e-06  1.59449e+08
       802.00000  3.48066e-06  1.59380e+08
       802.10000  3.48066e-06  1.59310e+08
       802.20000  3.48066e-06  1.59240e+08
       802.30000  3.48066e-06  1.59171e+08
       802.40000  3.48066e-06  1.59101e+08
       802.50000  2.59409e-06  1.18524e+08
       802.60000  2.59409e-06  1.18472e+08
       802.70000  2.59409e-06  1.18420e+08
       802.80000  2.59409e-06  1.18342e+08
       802.90000  2.59409e-06  1.18290e+08
       803.00000  2.59409e-06  1.18239e+08
       803.10000  2.59409e-06  1.18187e+08
       803.20000  2.59409e-06  1.18135e+08
       803.30000  2.59409e-06  1.18083e+08
       803.40000  2.59409e-06  1.18005e+08
       803.50000  3.43849e-06  1.56348e+08
       803.60000  3.43849e-06  1.56279e+08
       803.70000  3.43849e-06  1.56210e+08
       803.80000  3.35790e-06  1.52482e+08
       803.90000  3.35790e-06  1.52382e+08
       804.00000  3.35790e-06  1.52314e+08
       804.10000  3.35790e-06  1.52247e+08
       804.20000  3.35790e-06  1.52180e+08
       804.30000  3.35790e-06  1.52079e+08
       804.40000  3.35790e-06  1.52012e+08
       804.50000  2.50265e-06  1.13245e+08
       804.60000  2.50265e-06  1.13170e+08
       804.70000  2.50265e-06  1.13120e+08
       804.80000  2.50265e-06  1.13070e+08
       804.90000  2.50265e-06  1.12995e+08
       805.00000  2.50265e-06  1.12945e+08
       805.10000  2.50265e-06  1.13045e+08
       805.20000  2.50265e-06  1.13170e+08
       805.30000  2.50265e-06  1.13245e+08
       805.40000  2.50265e-06  1.13345e+08
       805.50000  2.48939e-06  1.12819e+08
       805.60000  2.48939e-06  1.12894e+08
       805.70000  2.48939e-06  1.12969e+08
       805.80000  2.48939e-06  1.13018e+08
       805.90000  2.48939e-06  1.13068e+08
       806.00000  2.48939e-06  1.13118e+08
       806.10000  2.48939e-06  1.13143e+08
       806.20000  2.48939e-06  1.13168e+08
       806.30000  2.42708e-06  1.10359e+08
       806.40000  2.42708e-06  1.10383e+08
       806.50000  2.41047e-06  1.09628e+08
       806.60000  2.41047e-06  1.09628e+08
       806.70000  2.41047e-06  1.09604e+08
       806.80000  2.41047e-06  1.09604e+08
       806.90000  2.41047e-06  1.09580e+08
       807.00000  2.41047e-06  1.09532e+08
       807.10000  2.41047e-06  1.09339e+08
       807.20000  2.41047e-06  1.09122e+08
       807.30000  2.41047e-06  1.08929e+08
       807.40000  2.41047e-06  1.08760e+08
       807.50000  2.39518e-06  1.07903e+08
       807.60000  2.39518e-06  1.07735e+08
       807.70000  2.39518e-06  1.07592e+08
       807.80000  2.39518e-06  1.07472e+08
       807.90000  2.39518e-06  1.07352e+08
       808.00000  2.39518e-06  1.07232e+08
       808.10000  2.39518e-06  1.07136e+08
       808.20000  2.39518e-06  1.07041e+08
       808.30000  2.39518e-06  1.06945e+08
       808.40000  2.39518e-06  1.06873e+08
       808.50000  3.17304e-06  1.41518e+08
       808.60000  3.17304e-06  1.41454e+08
       808.70000  3.17304e-06  1.41391e+08
       808.80000  3.09392e-06  1.37834e+08
       808.90000  3.09392e-06  1.37803e+08
       809.00000  3.09392e-06  1.37803e+08
       809.10000  3.09392e-06  1.37803e+08
       809.20000  3.09392e-06  1.37834e+08
       809.30000  3.09392e-06  1.37865e+08
       809.40000  3.09392e-06  1.37896e+08
       809.50000  2.30613e-06  1.02830e+08
       809.60000  2.30613e-06  1.02900e+08
       809.70000  2.30613e-06  1.02969e+08
       809.80000  2.30613e-06  1.03038e+08
       809.90000  2.30613e-06  1.03130e+08
       810.00000  2.30613e-06  1.03222e+08
       810.10000  2.30613e-06  1.03338e+08
       810.20000  2.30613e-06  1.03453e+08
       810.30000  2.30613e-06  1.03568e+08
       810.40000  2.30613e-06  1.03707e+08
       810.50000  2.29168e-06  1.03217e+08
       810.60000  2.29168e-06  1.03355e+08
       810.70000  2.29168e-06  1.03538e+08
       810.80000  2.29168e-06  1.03721e+08
       810.90000  2.29168e-06  1.03905e+08
       811.00000  2.29168e-06  1.04111e+08
       811.10000  2.29168e-06  1.04134e+08
       811.20000  2.29168e-06  1.04180e+08
       811.30000  2.23373e-06  1.01568e+08
       811.40000  2.23373e-06  1.01613e+08
       811.50000  1.48013e-06  6.73461e+07
       811.60000  1.48013e-06  6.73609e+07
       811.70000  1.48013e-06  6.73757e+07
       811.80000  1.48013e-06  6.73905e+07
       811.90000  1.48013e-06  6.74053e+07
       812.00000  1.48013e-06  6.74201e+07
       812.10000  1.48013e-06  6.74201e+07
       812.20000  1.48013e-06  6.74349e+07
       812.30000  1.48013e-06  6.74497e+07
       812.40000  1.48013e-06  6.74497e+07
       812.50000  2.20460e-06  1.00464e+08
       812.60000  2.20460e-06  1.00486e+08
       812.70000  2.20460e-06  1.00486e+08
       812.80000  2.20460e-06  1.00486e+08
       812.90000  2.20460e-06  1.00486e+08
       813.00000  2.20460e-06  1.00486e+08
       813.10000  2.20460e-06  1.00442e+08
       813.20000  2.20460e-06  1.00420e+08
       813.30000  2.20460e-06  1.00376e+08
       813.40000  2.20460e-06  1.00354e+08
       813.50000  1.45977e-06  6.64194e+07
       813.60000  1.45977e-06  6.64048e+07
       813.70000  1.45977e-06  6.63902e+07
       813.80000  1.42425e-06  6.47609e+07
       813.90000  1.42425e-06  6.47466e+07
       814.00000  1.42425e-06  6.47181e+07
       814.10000  1.42425e-06  6.47039e+07
       814.20000  1.42425e-06  6.46896e+07
       814.30000  1.42425e-06  6.46754e+07
       814.40000  1.42425e-06  6.46754e+07
       814.50000  2.83237e-06  1.28589e+08
       814.60000  2.83237e-06  1.28561e+08
       814.70000  2.83237e-06  1.28533e+08
       814.80000  2.83237e-06  1.28504e+08
       814.90000  2.83237e-06  1.28504e+08
       815.00000  2.83237e-06  1.28476e+08
       815.10000  2.83237e-06  1.28589e+08
       815.20000  2.83237e-06  1.28674e+08
       815.30000  2.83237e-06  1.28759e+08
       815.40000  2.83237e-06  1.28816e+08
       815.50000  2.81156e-06  1.27954e+08
       815.60000  2.81156e-06  1.27982e+08
       815.70000  2.81156e-06  1.28039e+08
       815.80000  2.81156e-06  1.28039e+08
       815.90000  2.81156e-06  1.28067e+08
       816.00000  2.81156e-06  1.28067e+08
       816.10000  2.81156e-06  1.28067e+08
       816.20000  2.81156e-06  1.28039e+08
       816.30000  2.74090e-06  1.24793e+08
       816.40000  2.74090e-06  1.24766e+08
       816.50000  2.04248e-06  9.29329e+07
       816.60000  2.04248e-06  9.28920e+07
       816.70000  2.04248e-06  9.28307e+07
       816.80000  2.04248e-06  9.27695e+07
       816.90000  2.04248e-06  9.27082e+07
       817.00000  2.04248e-06  9.26265e+07
       817.10000  2.04248e-06  9.23405e+07
       817.20000  2.04248e-06  9.20750e+07
       817.30000  2.04248e-06  9.18299e+07
       817.40000  2.04248e-06  9.15848e+07
       817.50000  6.76230e-07  3.02478e+07
       817.60000  6.76230e-07  3.01802e+07
       817.70000  6.76230e-07  3.01125e+07
       817.80000  6.76230e-07  3.00449e+07
       817.90000  6.76230e-07  2.99908e+07
       818.00000  6.76230e-07  2.99299e+07
       818.10000  6.76230e-07  2.98826e+07
       818.20000  6.76230e-07  2.98353e+07
       818.30000  6.76230e-07  2.97879e+07
       818.40000  6.76230e-07  2.97541e+07
       818.50000  2.01683e-06  8.86196e+07
       818.60000  2.01683e-06  8.85390e+07
       818.70000  2.01683e-06  8.84583e+07
       818.80000  1.96574e-06  8.61386e+07
       818.90000  1.96574e-06  8.60993e+07
       819.00000  1.96574e-06  8.60403e+07
       819.10000  1.96574e-06  8.60207e+07
       819.20000  1.96574e-06  8.60010e+07
       819.30000  1.96574e-06  8.59814e+07
       819.40000  1.96574e-06  8.59814e+07
       819.50000  1.95402e-06  8.54883e+07
       819.60000  1.95402e-06  8.55078e+07
       819.70000  1.95402e-06  8.55469e+07
       819.80000  1.95402e-06  8.56055e+07
       819.90000  1.95402e-06  8.56642e+07
       820.00000  1.95402e-06  8.57423e+07
       820.10000  1.95402e-06  8.58205e+07
       820.20000  1.95402e-06  8.59182e+07
       820.30000  1.95402e-06  8.60354e+07
       820.40000  1.95402e-06  8.61526e+07
       820.50000  1.29257e-06  5.70800e+07
       820.60000  1.29257e-06  5.71705e+07
       820.70000  1.29257e-06  5.72739e+07
       820.80000  1.29257e-06  5.73773e+07
       820.90000  1.29257e-06  5.74937e+07
       821.00000  1.29257e-06  5.76229e+07
       821.10000  1.29257e-06  5.75971e+07
       821.20000  1.29257e-06  5.75841e+07
       821.30000  1.26276e-06  5.62309e+07
       821.40000  1.26276e-06  5.62182e+07
       821.50000  1.25360e-06  5.57850e+07
       821.60000  1.25360e-06  5.57725e+07
       821.70000  1.25360e-06  5.57599e+07
       821.80000  1.25360e-06  5.57349e+07
       821.90000  1.25360e-06  5.57223e+07
       822.00000  1.25360e-06  5.57098e+07
       822.10000  1.25360e-06  5.57098e+07
       822.20000  1.25360e-06  5.56973e+07
       822.30000  1.25360e-06  5.56847e+07
       822.40000  1.25360e-06  5.56847e+07
       822.50000  1.86893e-06  8.29992e+07
       822.60000  1.86893e-06  8.29992e+07
       822.70000  1.86893e-06  8.29805e+07
       822.80000  1.86893e-06  8.29805e+07
       822.90000  1.86893e-06  8.29805e+07
       823.00000  1.86893e-06  8.29805e+07
       823.10000  1.86893e-06  8.29805e+07
       823.20000  1.86893e-06  8.29805e+07
       823.30000  1.86893e-06  8.29805e+07
       823.40000  1.86893e-06  8.29805e+07
       823.50000  3.09228e-06  1.37328e+08
       823.60000  3.09228e-06  1.37328e+08
       823.70000  3.09228e-06  1.37359e+08
       823.80000  3.02354e-06  1.34306e+08
       823.90000  3.02354e-06  1.34336e+08
       824.00000  3.02354e-06  1.34366e+08
       824.10000  3.02354e-06  1.34396e+08
       824.20000  3.02354e-06  1.34427e+08
       824.30000  3.02354e-06  1.34457e+08
       824.40000  3.02354e-06  1.34517e+08
       824.50000  1.80235e-06  8.02045e+07
       824.60000  1.80235e-06  8.02405e+07
       824.70000  1.80235e-06  8.02585e+07
       824.80000  1.80235e-06  8.02946e+07
       824.90000  1.80235e-06  8.03306e+07
       825.00000  1.80235e-06  8.03667e+07
       825.10000  1.80235e-06  8.04027e+07
       825.20000  1.80235e-06  8.04388e+07
       825.30000  1.80235e-06  8.04928e+07
       825.40000  1.80235e-06  8.05289e+07
       825.50000  3.57888e-06  1.60012e+08
       825.60000  3.57888e-06  1.60083e+08
       825.70000  3.57888e-06  1.60190e+08
       825.80000  3.57888e-06  1.60298e+08
       825.90000  3.57888e-06  1.60405e+08
       826.00000  3.57888e-06  1.60513e+08
       826.10000  3.57888e-06  1.60620e+08
       826.20000  3.57888e-06  1.60692e+08
       826.30000  3.50603e-06  1.57526e+08
       826.40000  3.50603e-06  1.57596e+08
       826.50000  2.32062e-06  1.04335e+08
       826.60000  2.32062e-06  1.04381e+08
       826.70000  2.32062e-06  1.04428e+08
       826.80000  2.32062e-06  1.04451e+08
       826.90000  2.32062e-06  1.04474e+08
       827.00000  2.32062e-06  1.04498e+08
       827.10000  2.32062e-06  1.04498e+08
       827.20000  2.32062e-06  1.04521e+08
       827.30000  2.32062e-06  1.04521e+08
       827.40000  2.32062e-06  1.04521e+08
       827.50000  2.88023e-06  1.29725e+08
       827.60000  2.88023e-06  1.29725e+08
       827.70000  2.88023e-06  1.29697e+08
       827.80000  2.88023e-06  1.29668e+08
       827.90000  2.88023e-06  1.29639e+08
       828.00000  2.88023e-06  1.29610e+08
       828.10000  2.88023e-06  1.29524e+08
       828.20000  2.88023e-06  1.29409e+08
       828.30000  2.88023e-06  1.29293e+08
       828.40000  2.88023e-06  1.29178e+08
       828.50000  2.85978e-06  1.28175e+08
       828.60000  2.85978e-06  1.28061e+08
       828.70000  2.85978e-06  1.27975e+08
       828.80000  2.80362e-06  1.25378e+08
       828.90000  2.80362e-06  1.25266e+08
       829.00000  2.80362e-06  1.25182e+08
       829.10000  2.80362e-06  1.25098e+08
       829.20000  2.80362e-06  1.25014e+08
       829.30000  2.80362e-06  1.24930e+08
       829.40000  2.80362e-06  1.24845e+08
       829.50000  2.78354e-06  1.23868e+08
       829.60000  2.78354e-06  1.23784e+08
       829.70000  2.78354e-06  1.23701e+08
       829.80000  2.78354e-06  1.23617e+08
       829.90000  2.78354e-06  1.23562e+08
       830.00000  2.78354e-06  1.23478e+08
       830.10000  2.78354e-06  1.23422e+08
       830.20000  2.78354e-06  1.23339e+08
       830.30000  2.78354e-06  1.23283e+08
       830.40000  2.78354e-06  1.23200e+08
       830.50000  2.21148e-06  9.78357e+07
       830.60000  2.21148e-06  9.77915e+07
       830.70000  2.21148e-06  9.77252e+07
       830.80000  2.21148e-06  9.76809e+07
       830.90000  2.21148e-06  9.76367e+07
       831.00000  2.21148e-06  9.75925e+07
       831.10000  2.21148e-06  9.75482e+07
       831.20000  2.21148e-06  9.75040e+07
       831.30000  2.16741e-06  9.55394e+07
       831.40000  2.16741e-06  9.54960e+07
       831.50000  2.68900e-06  1.18423e+08
       831.60000  2.68900e-06  1.18396e+08
       831.70000  2.68900e-06  1.18343e+08
       831.80000  2.68900e-06  1.18289e+08
       831.90000  2.68900e-06  1.18262e+08
       832.00000  2.68900e-06  1.18235e+08
       832.10000  2.68900e-06  1.18128e+08
       832.20000  2.68900e-06  1.18020e+08
       832.30000  2.68900e-06  1.17939e+08
       832.40000  2.68900e-06  1.17859e+08
       832.50000  3.20409e-06  1.40339e+08
       832.60000  3.20409e-06  1.40275e+08
       832.70000  3.20409e-06  1.40211e+08
       832.80000  3.20409e-06  1.40115e+08
       832.90000  3.20409e-06  1.40083e+08
       833.00000  3.20409e-06  1.40019e+08
       833.10000  3.20409e-06  1.39955e+08
       833.20000  3.20409e-06  1.39923e+08
       833.30000  3.20409e-06  1.39891e+08
       833.40000  3.20409e-06  1.39859e+08
       833.50000  3.17983e-06  1.38799e+08
       833.60000  3.17983e-06  1.38768e+08
       833.70000  3.17983e-06  1.38768e+08
       833.80000  3.12048e-06  1.36178e+08
       833.90000  3.12048e-06  1.36209e+08
       834.00000  3.12048e-06  1.36209e+08
       834.10000  3.12048e-06  1.36365e+08
       834.20000  3.12048e-06  1.36490e+08
       834.30000  3.12048e-06  1.36646e+08
       834.40000  3.12048e-06  1.36771e+08
       834.50000  3.09986e-06  1.35991e+08
       834.60000  3.09986e-06  1.36115e+08
       834.70000  3.09986e-06  1.36208e+08
       834.80000  3.09986e-06  1.36301e+08
       834.90000  3.09986e-06  1.36425e+08
       835.00000  3.09986e-06  1.36518e+08
       835.10000  3.09986e-06  1.36580e+08
       835.20000  3.09986e-06  1.36673e+08
       835.30000  3.09986e-06  1.36735e+08
       835.40000  3.09986e-06  1.36797e+08
       835.50000  3.59174e-06  1.58575e+08
       835.60000  3.59174e-06  1.58647e+08
       835.70000  3.59174e-06  1.58683e+08
       835.80000  3.59174e-06  1.58755e+08
       835.90000  3.59174e-06  1.58791e+08
       836.00000  3.59174e-06  1.58827e+08
       836.10000  3.59174e-06  1.58755e+08
       836.20000  3.59174e-06  1.58719e+08
       836.30000  3.53369e-06  1.56083e+08
       836.40000  3.53369e-06  1.56048e+08
       836.50000  3.00344e-06  1.32602e+08
       836.60000  3.00344e-06  1.32542e+08
       836.70000  3.00344e-06  1.32512e+08
       836.80000  3.00344e-06  1.32482e+08
       836.90000  3.00344e-06  1.32421e+08
       837.00000  3.00344e-06  1.32391e+08
       837.10000  3.00344e-06  1.32361e+08
       837.20000  3.00344e-06  1.32331e+08
       837.30000  3.00344e-06  1.32301e+08
       837.40000  3.00344e-06  1.32271e+08
       837.50000  3.97455e-06  1.74999e+08
       837.60000  3.97455e-06  1.74959e+08
       837.70000  3.97455e-06  1.74920e+08
       837.80000  3.97455e-06  1.74880e+08
       837.90000  3.97455e-06  1.74880e+08
       838.00000  3.97455e-06  1.74840e+08
       838.10000  3.97455e-06  1.74800e+08
       838.20000  3.97455e-06  1.74800e+08
       838.30000  3.97455e-06  1.74800e+08
       838.40000  3.97455e-06  1.74800e+08
       838.50000  3.94463e-06  1.73446e+08
       838.60000  3.94463e-06  1.73446e+08
       838.70000  3.94463e-06  1.73446e+08
       838.80000  3.88664e-06  1.70857e+08
       838.90000  3.88664e-06  1.70857e+08
       839.00000  3.88664e-06  1.70857e+08
       839.10000  3.88664e-06  1.70818e+08
       839.20000  3.88664e-06  1.70818e+08
       839.30000  3.88664e-06  1.70818e+08
       839.40000  3.88664e-06  1.70779e+08
       839.50000  4.82380e-06  2.11958e+08
       839.60000  4.82380e-06  2.11958e+08
       839.70000  4.82380e-06  2.11910e+08
       839.80000  4.82380e-06  2.11910e+08
       839.90000  4.82380e-06  2.11910e+08
       840.00000  4.82380e-06  2.11862e+08
       840.10000  4.82380e-06  2.11862e+08
       840.20000  4.82380e-06  2.11862e+08
       840.30000  4.82380e-06  2.11813e+08
       840.40000  4.82380e-06  2.11813e+08
       840.50000  5.74204e-06  2.52133e+08
       840.60000  5.74204e-06  2.52076e+08
       840.70000  5.74204e-06  2.52076e+08
       840.80000  5.74204e-06  2.52076e+08
       840.90000  5.74204e-06  2.52018e+08
       841.00000  5.74204e-06  2.52018e+08
       841.10000  5.74204e-06  2.52018e+08
       841.20000  5.74204e-06  2.52018e+08
       841.30000  5.64906e-06  2.47881e+08
       841.40000  5.64906e-06  2.47881e+08
       841.50000  5.60599e-06  2.45991e+08
       841.60000  5.60599e-06  2.45935e+08
       841.70000  5.60599e-06  2.45935e+08
       841.80000  5.60599e-06  2.45935e+08
       841.90000  5.60599e-06  2.45879e+08
       842.00000  5.60599e-06  2.45879e+08
       842.10000  5.60599e-06  2.45654e+08
       842.20000  5.60599e-06  2.45486e+08
       842.30000  5.60599e-06  2.45318e+08
       842.40000  5.60599e-06  2.45094e+08
       842.50000  6.49113e-06  2.83597e+08
       842.60000  6.49113e-06  2.83468e+08
       842.70000  6.49113e-06  2.83273e+08
       842.80000  6.49113e-06  2.83143e+08
       842.90000  6.49113e-06  2.82948e+08
       843.00000  6.49113e-06  2.82818e+08
       843.10000  6.49113e-06  2.82689e+08
       843.20000  6.49113e-06  2.82559e+08
       843.30000  6.49113e-06  2.82494e+08
       843.40000  6.49113e-06  2.82364e+08
       843.50000  7.81437e-06  3.39847e+08
       843.60000  7.81437e-06  3.39769e+08
       843.70000  7.81437e-06  3.39690e+08
       843.80000  7.67808e-06  3.33689e+08
       843.90000  7.67808e-06  3.33689e+08
       844.00000  7.67808e-06  3.33612e+08
       844.10000  7.67808e-06  3.33843e+08
       844.20000  7.67808e-06  3.33996e+08
       844.30000  7.67808e-06  3.34150e+08
       844.40000  7.67808e-06  3.34303e+08
       844.50000  8.07257e-06  3.51641e+08
       844.60000  8.07257e-06  3.51803e+08
       844.70000  8.07257e-06  3.51884e+08
       844.80000  8.07257e-06  3.52045e+08
       844.90000  8.07257e-06  3.52126e+08
       845.00000  8.07257e-06  3.52287e+08
       845.10000  8.07257e-06  3.52368e+08
       845.20000  8.07257e-06  3.52449e+08
       845.30000  8.07257e-06  3.52610e+08
       845.40000  8.07257e-06  3.52691e+08
       845.50000  8.89562e-06  3.88650e+08
       845.60000  8.89562e-06  3.88739e+08
       845.70000  8.89562e-06  3.88828e+08
       845.80000  8.89562e-06  3.88917e+08
       845.90000  8.89562e-06  3.88917e+08
       846.00000  8.89562e-06  3.89006e+08
       846.10000  8.89562e-06  3.89006e+08
       846.20000  8.89562e-06  3.89006e+08
       846.30000  8.72909e-06  3.81723e+08
       846.40000  8.72909e-06  3.81810e+08
       846.50000  8.65616e-06  3.78620e+08
       846.60000  8.65616e-06  3.78534e+08
       846.70000  8.65616e-06  3.78534e+08
       846.80000  8.65616e-06  3.78534e+08
       846.90000  8.65616e-06  3.78447e+08
       847.00000  8.65616e-06  3.78447e+08
       847.10000  8.65616e-06  3.78361e+08
       847.20000  8.65616e-06  3.78361e+08
       847.30000  8.65616e-06  3.78274e+08
       847.40000  8.65616e-06  3.78187e+08
       847.50000  1.15915e-05  5.06319e+08
       847.60000  1.15915e-05  5.06203e+08
       847.70000  1.15915e-05  5.06087e+08
       847.80000  1.15915e-05  5.05971e+08
       847.90000  1.15915e-05  5.05739e+08
       848.00000  1.15915e-05  5.05623e+08
       848.10000  1.15915e-05  5.03189e+08
       848.20000  1.15915e-05  5.00986e+08
       848.30000  1.15915e-05  4.98784e+08
       848.40000  1.15915e-05  4.96698e+08
       848.50000  1.27895e-05  5.45856e+08
       848.60000  1.27895e-05  5.43938e+08
       848.70000  1.27895e-05  5.42019e+08
       848.80000  1.25556e-05  5.30348e+08
       848.90000  1.25556e-05  5.28716e+08
       849.00000  1.25556e-05  5.27209e+08
       849.10000  1.25556e-05  5.25702e+08
       849.20000  1.25556e-05  5.24447e+08
       849.30000  1.25556e-05  5.23317e+08
       849.40000  1.25556e-05  5.22187e+08
       849.50000  4.98032e-05  2.06783e+09
       849.60000  4.98032e-05  2.06434e+09
       849.70000  4.98032e-05  2.06185e+09
       849.80000  4.98032e-05  2.05936e+09
       849.90000  4.98032e-05  2.05737e+09
       850.00000  4.98032e-05  2.05587e+09
       850.10000  4.98032e-05  2.06683e+09
       850.20000  4.98032e-05  2.07729e+09
       850.30000  4.98032e-05  2.08675e+09
       850.40000  4.98032e-05  2.09522e+09
       850.50000  4.85676e-05  2.05101e+09
       850.60000  4.85676e-05  2.05781e+09
       850.70000  4.85676e-05  2.06364e+09
       850.80000  4.85676e-05  2.06898e+09
       850.90000  4.85676e-05  2.07335e+09
       851.00000  4.85676e-05  2.07724e+09
       851.10000  4.85676e-05  2.08015e+09
       851.20000  4.85676e-05  2.08258e+09
       851.30000  4.77307e-05  2.04812e+09
       851.40000  4.77307e-05  2.04860e+09
       851.50000  5.01384e-05  2.15194e+09
       851.60000  5.01384e-05  2.15094e+09
       851.70000  5.01384e-05  2.14943e+09
       851.80000  5.01384e-05  2.14693e+09
       851.90000  5.01384e-05  2.14342e+09
       852.00000  5.01384e-05  2.13941e+09
       852.10000  5.01384e-05  2.13439e+09
       852.20000  5.01384e-05  2.12888e+09
       852.30000  5.01384e-05  2.12236e+09
       852.40000  5.01384e-05  2.11534e+09
       852.50000  5.53027e-05  2.32382e+09
       852.60000  5.53027e-05  2.31442e+09
       852.70000  5.53027e-05  2.30336e+09
       852.80000  5.53027e-05  2.29230e+09
       852.90000  5.53027e-05  2.27958e+09
       853.00000  5.53027e-05  2.26630e+09
       853.10000  5.53027e-05  2.25192e+09
       853.20000  5.53027e-05  2.23699e+09
       853.30000  5.53027e-05  2.22096e+09
       853.40000  5.53027e-05  2.20436e+09
       853.50000  5.84024e-05  2.30923e+09
       853.60000  5.84024e-05  2.28937e+09
       853.70000  5.84024e-05  2.26893e+09
       853.80000  5.74029e-05  2.20886e+09
       853.90000  5.74029e-05  2.18705e+09
       854.00000  5.74029e-05  2.16409e+09
       854.10000  5.74029e-05  2.18016e+09
       854.20000  5.74029e-05  2.19624e+09
       854.30000  5.74029e-05  2.21173e+09
       854.40000  5.74029e-05  2.22666e+09
       854.50000  6.00251e-05  2.34338e+09
       854.60000  6.00251e-05  2.35839e+09
       854.70000  6.00251e-05  2.37279e+09
       854.80000  6.00251e-05  2.38660e+09
       854.90000  6.00251e-05  2.40041e+09
       855.00000  6.00251e-05  2.41361e+09
       855.10000  6.00251e-05  2.42622e+09
       855.20000  6.00251e-05  2.43822e+09
       855.30000  6.00251e-05  2.45023e+09
       855.40000  6.00251e-05  2.46103e+09
       855.50000  7.40107e-05  3.04850e+09
       855.60000  7.40107e-05  3.06108e+09
       855.70000  7.40107e-05  3.07366e+09
       855.80000  7.40107e-05  3.08550e+09
       855.90000  7.40107e-05  3.09661e+09
       856.00000  7.40107e-05  3.10697e+09
       856.10000  7.40107e-05  3.11511e+09
       856.20000  7.40107e-05  3.12251e+09
       856.30000  7.25156e-05  3.06669e+09
       856.40000  7.25156e-05  3.07394e+09
       856.50000  7.19299e-05  3.05558e+09
       856.60000  7.19299e-05  3.06205e+09
       856.70000  7.19299e-05  3.06781e+09
       856.80000  7.19299e-05  3.07356e+09
       856.90000  7.19299e-05  3.07860e+09
       857.00000  7.19299e-05  3.08363e+09
       857.10000  7.19299e-05  3.08867e+09
       857.20000  7.19299e-05  3.09298e+09
       857.30000  7.19299e-05  3.09730e+09
       857.40000  7.19299e-05  3.10090e+09
       857.50000  8.56493e-05  3.69662e+09
       857.60000  8.56493e-05  3.70091e+09
       857.70000  8.56493e-05  3.70433e+09
       857.80000  8.56493e-05  3.70776e+09
       857.90000  8.56493e-05  3.71033e+09
       858.00000  8.56493e-05  3.71375e+09
       858.10000  8.56493e-05  3.71547e+09
       858.20000  8.56493e-05  3.71718e+09
       858.30000  8.56493e-05  3.71889e+09
       858.40000  8.56493e-05  3.71975e+09
       858.50000  9.47879e-05  4.11759e+09
       858.60000  9.47879e-05  4.11853e+09
       858.70000  9.47879e-05  4.11853e+09
       858.80000  9.27607e-05  4.03045e+09
       858.90000  9.27607e-05  4.02952e+09
       859.00000  9.27607e-05  4.02860e+09
       859.10000  9.27607e-05  4.02767e+09
       859.20000  9.27607e-05  4.02581e+09
       859.30000  9.27607e-05  4.02396e+09
       859.40000  9.27607e-05  4.02117e+09
       859.50000  0.000123428  5.34688e+09
       859.60000  0.000123428  5.34318e+09
       859.70000  0.000123428  5.33824e+09
       859.80000  0.000123428  5.33207e+09
       859.90000  0.000123428  5.32713e+09
       860.00000  0.000123428  5.32096e+09
       860.10000  0.000123428  5.31973e+09
       860.20000  0.000123428  5.31849e+09
       860.30000  0.000123428  5.31849e+09
       860.40000  0.000123428  5.31849e+09
       860.50000  0.000134353  5.78793e+09
       860.60000  0.000134353  5.78793e+09
       860.70000  0.000134353  5.78793e+09
       860.80000  0.000134353  5.78793e+09
       860.90000  0.000134353  5.78793e+09
       861.00000  0.000134353  5.78793e+09
       861.10000  0.000134353  5.78793e+09
       861.20000  0.000134353  5.78793e+09
       861.30000  0.000131497  5.66489e+09
       861.40000  0.000131497  5.66620e+09
       861.50000  0.000161300  6.95041e+09
       861.60000  0.000161300  6.95041e+09
       861.70000  0.000161300  6.95202e+09
       861.80000  0.000161300  6.95363e+09
       861.90000  0.000161300  6.95363e+09
       862.00000  0.000161300  6.95524e+09
       862.10000  0.000161300  6.97783e+09
       862.20000  0.000161300  6.99718e+09
       862.30000  0.000161300  7.01492e+09
       862.40000  0.000161300  7.03105e+09
       862.50000  0.000193598  8.45441e+09
       862.60000  0.000193598  8.46796e+09
       862.70000  0.000193598  8.47958e+09
       862.80000  0.000193598  8.48925e+09
       862.90000  0.000193598  8.49506e+09
       863.00000  0.000193598  8.49894e+09
       863.10000  0.000193598  8.50087e+09
       863.20000  0.000193598  8.50087e+09
       863.30000  0.000193598  8.49700e+09
       863.40000  0.000193598  8.49119e+09
       863.50000  0.000236519  1.03643e+10
       863.60000  0.000236519  1.03501e+10
       863.70000  0.000236519  1.03335e+10
       863.80000  0.000231462  1.00941e+10
       863.90000  0.000231462  1.00732e+10
       864.00000  0.000231462  1.00478e+10
       864.10000  0.000231462  1.00200e+10
       864.20000  0.000231462  9.98992e+09
       864.30000  0.000231462  9.95520e+09
       864.40000  0.000231462  9.92048e+09
       864.50000  0.000283341  1.20930e+10
       864.60000  0.000283341  1.20420e+10
       864.70000  0.000283341  1.19853e+10
       864.80000  0.000283341  1.19286e+10
       864.90000  0.000283341  1.18635e+10
       865.00000  0.000283341  1.17983e+10
       865.10000  0.000283341  1.17275e+10
       865.20000  0.000283341  1.16538e+10
       865.30000  0.000283341  1.15773e+10
       865.40000  0.000283341  1.14951e+10
       865.50000  0.000355716  1.43247e+10
       865.60000  0.000355716  1.42144e+10
       865.70000  0.000355716  1.41006e+10
       865.80000  0.000355716  1.39796e+10
       865.90000  0.000355716  1.38551e+10
       866.00000  0.000355716  1.37271e+10
       866.10000  0.000355716  1.37769e+10
       866.20000  0.000355716  1.38231e+10
       866.30000  0.000348150  1.35778e+10
       866.40000  0.000348150  1.36231e+10
       866.50000  0.000438866  1.72299e+10
       866.60000  0.000438866  1.72869e+10
       866.70000  0.000438866  1.73440e+10
       866.80000  0.000438866  1.74010e+10
       866.90000  0.000438866  1.74537e+10
       867.00000  0.000438866  1.75064e+10
       867.10000  0.000438866  1.75590e+10
       867.20000  0.000438866  1.76117e+10
       867.30000  0.000438866  1.76644e+10
       867.40000  0.000438866  1.77126e+10
       867.50000  0.000563838  2.28185e+10
       867.60000  0.000563838  2.28805e+10
       867.70000  0.000563838  2.29426e+10
       867.80000  0.000563838  2.30046e+10
       867.90000  0.000563838  2.30610e+10
       868.00000  0.000563838  2.31173e+10
       868.10000  0.000563838  2.31794e+10
       868.20000  0.000563838  2.32414e+10
       868.30000  0.000563838  2.32978e+10
       868.40000  0.000563838  2.33542e+10
       868.50000  0.000739959  3.07231e+10
       868.60000  0.000739959  3.07897e+10
       868.70000  0.000739959  3.08637e+10
       868.80000  0.000723760  3.02459e+10
       868.90000  0.000723760  3.03111e+10
       869.00000  0.000723760  3.03690e+10
       869.10000  0.000723760  3.04269e+10
       869.20000  0.000723760  3.04848e+10
       869.30000  0.000723760  3.05427e+10
       869.40000  0.000723760  3.05933e+10
       869.50000  0.000935601  3.96133e+10
       869.60000  0.000935601  3.96695e+10
       869.70000  0.000935601  3.97256e+10
       869.80000  0.000935601  3.97818e+10
       869.90000  0.000935601  3.98379e+10
       870.00000  0.000935601  3.98940e+10
       870.10000  0.000935601  3.99408e+10
       870.20000  0.000935601  3.99876e+10
       870.30000  0.000935601  4.00250e+10
       870.40000  0.000935601  4.00624e+10
       870.50000   0.00124324  5.32853e+10
       870.60000   0.00124324  5.33350e+10
       870.70000   0.00124324  5.33724e+10
       870.80000   0.00124324  5.34221e+10
       870.90000   0.00124324  5.34469e+10
       871.00000   0.00124324  5.34842e+10
       871.10000   0.00124324  5.35091e+10
       871.20000   0.00124324  5.35340e+10
       871.30000   0.00121718  5.24359e+10
       871.40000   0.00121718  5.24481e+10
       871.50000   0.00164280  7.08047e+10
       871.60000   0.00164280  7.08212e+10
       871.70000   0.00164280  7.08212e+10
       871.80000   0.00164280  7.08376e+10
       871.90000   0.00164280  7.08212e+10
       872.00000   0.00164280  7.08212e+10
       872.10000   0.00164280  7.07719e+10
       872.20000   0.00164280  7.07390e+10
       872.30000   0.00164280  7.06897e+10
       872.40000   0.00164280  7.06569e+10
       872.50000   0.00220626  9.48252e+10
       872.60000   0.00220626  9.47811e+10
       872.70000   0.00220626  9.47370e+10
       872.80000   0.00220626  9.46928e+10
       872.90000   0.00220626  9.46266e+10
       873.00000   0.00220626  9.45825e+10
       873.10000   0.00220626  9.45384e+10
       873.20000   0.00220626  9.44943e+10
       873.30000   0.00220626  9.44501e+10
       873.40000   0.00220626  9.44060e+10
       873.50000   0.00297888  1.27407e+11
       873.60000   0.00297888  1.27347e+11
       873.70000   0.00297888  1.27288e+11
       873.80000   0.00291127  1.24370e+11
       873.90000   0.00291127  1.24311e+11
       874.00000   0.00291127  1.24253e+11
       874.10000   0.00291127  1.24166e+11
       874.20000   0.00291127  1.24079e+11
       874.30000   0.00291127  1.24020e+11
       874.40000   0.00291127  1.23933e+11
       874.50000   0.00405123  1.72380e+11
       874.60000   0.00405123  1.72299e+11
       874.70000   0.00405123  1.72218e+11
       874.80000   0.00405123  1.72177e+11
       874.90000   0.00405123  1.72096e+11
       875.00000   0.00405123  1.72056e+11
       875.10000   0.00405123  1.72015e+11
       875.20000   0.00405123  1.71975e+11
       875.30000   0.00405123  1.71975e+11
       875.40000   0.00405123  1.71934e+11
       875.50000   0.00544422  2.31053e+11
       875.60000   0.00544422  2.31053e+11
       875.70000   0.00544422  2.31053e+11
       875.80000   0.00544422  2.31107e+11
       875.90000   0.00544422  2.31107e+11
       876.00000   0.00544422  2.31162e+11
       876.10000   0.00544422  2.31216e+11
       876.20000   0.00544422  2.31271e+11
       876.30000   0.00531422  2.25801e+11
       876.40000   0.00531422  2.25908e+11
       876.50000   0.00715999  3.04514e+11
       876.60000   0.00715999  3.04658e+11
       876.70000   0.00715999  3.04801e+11
       876.80000   0.00715999  3.04944e+11
       876.90000   0.00715999  3.05159e+11
       877.00000   0.00715999  3.05374e+11
       877.10000   0.00715999  3.05588e+11
       877.20000   0.00715999  3.05803e+11
       877.30000   0.00715999  3.06018e+11
       877.40000   0.00715999  3.06304e+11
       877.50000   0.00960249  4.11179e+11
       877.60000   0.00960249  4.11563e+11
       877.70000   0.00960249  4.11947e+11
       877.80000   0.00960249  4.12331e+11
       877.90000   0.00960249  4.12811e+11
       878.00000   0.00960249  4.13291e+11
       878.10000   0.00960249  4.12715e+11
       878.20000   0.00960249  4.12235e+11
       878.30000   0.00960249  4.11755e+11
       878.40000   0.00960249  4.11275e+11
       878.50000    0.0123248  5.27254e+11
       878.60000    0.0123248  5.26761e+11
       878.70000    0.0123248  5.26144e+11
       878.80000    0.0120241  5.12827e+11
       878.90000    0.0120241  5.12346e+11
       879.00000    0.0120241  5.11865e+11
       879.10000    0.0120241  5.11384e+11
       879.20000    0.0120241  5.11023e+11
       879.30000    0.0120241  5.10542e+11
       879.40000    0.0120241  5.10181e+11
       879.50000    0.0148241  6.28541e+11
       879.60000    0.0148241  6.28096e+11
       879.70000    0.0148241  6.27651e+11
       879.80000    0.0148241  6.27355e+11
       879.90000    0.0148241  6.26910e+11
       880.00000    0.0148241  6.26613e+11
       880.10000    0.0148241  6.26465e+11
       880.20000    0.0148241  6.26169e+11
       880.30000    0.0148241  6.26020e+11
       880.40000    0.0148241  6.25724e+11
       880.50000    0.0175985  7.42656e+11
       880.60000    0.0175985  7.42480e+11
       880.70000    0.0175985  7.42304e+11
       880.80000    0.0175985  7.42304e+11
       880.90000    0.0175985  7.42128e+11
       881.00000    0.0175985  7.41952e+11
       881.10000    0.0175985  7.41952e+11
       881.20000    0.0175985  7.41952e+11
       881.30000    0.0171786  7.24251e+11
       881.40000    0.0171786  7.24079e+11
       881.50000    0.0193530  8.15921e+11
       881.60000    0.0193530  8.15921e+11
       881.70000    0.0193530  8.15921e+11
       881.80000    0.0193530  8.16114e+11
       881.90000    0.0193530  8.16114e+11
       882.00000    0.0193530  8.16308e+11
       882.10000    0.0193530  8.17275e+11
       882.20000    0.0193530  8.18049e+11
       882.30000    0.0193530  8.18823e+11
       882.40000    0.0193530  8.19598e+11
       882.50000    0.0207806  8.80888e+11
       882.60000    0.0207806  8.81511e+11
       882.70000    0.0207806  8.82135e+11
       882.80000    0.0207806  8.82758e+11
       882.90000    0.0207806  8.83174e+11
       883.00000    0.0207806  8.83589e+11
       883.10000    0.0207806  8.84005e+11
       883.20000    0.0207806  8.84421e+11
       883.30000    0.0207806  8.84628e+11
       883.40000    0.0207806  8.84836e+11
       883.50000    0.0214714  9.14467e+11
       883.60000    0.0214714  9.14467e+11
       883.70000    0.0214714  9.14467e+11
       883.80000    0.0209727  8.93227e+11
       883.90000    0.0209727  8.93017e+11
       884.00000    0.0209727  8.92807e+11
       884.10000    0.0209727  8.91549e+11
       884.20000    0.0209727  8.90291e+11
       884.30000    0.0209727  8.89032e+11
       884.40000    0.0209727  8.87774e+11
       884.50000    0.0210081  8.88012e+11
       884.60000    0.0210081  8.86961e+11
       884.70000    0.0210081  8.85911e+11
       884.80000    0.0210081  8.85071e+11
       884.90000    0.0210081  8.84020e+11
       885.00000    0.0210081  8.83180e+11
       885.10000    0.0210081  8.82550e+11
       885.20000    0.0210081  8.81710e+11
       885.30000    0.0210081  8.81079e+11
       885.40000    0.0210081  8.80449e+11
       885.50000    0.0206248  8.63973e+11
       885.60000    0.0206248  8.63355e+11
       885.70000    0.0206248  8.62942e+11
       885.80000    0.0206248  8.62736e+11
       885.90000    0.0206248  8.62323e+11
       886.00000    0.0206248  8.62117e+11
       886.10000    0.0206248  8.61911e+11
       886.20000    0.0206248  8.61704e+11
       886.30000    0.0201649  8.42487e+11
       886.40000    0.0201649  8.42487e+11
       886.50000    0.0196209  8.19762e+11
       886.60000    0.0196209  8.19959e+11
       886.70000    0.0196209  8.20155e+11
       886.80000    0.0196209  8.20351e+11
       886.90000    0.0196209  8.20547e+11
       887.00000    0.0196209  8.20940e+11
       887.10000    0.0196209  8.21332e+11
       887.20000    0.0196209  8.21725e+11
       887.30000    0.0196209  8.22117e+11
       887.40000    0.0196209  8.22706e+11
       887.50000    0.0190233  7.98216e+11
       887.60000    0.0190233  7.98977e+11
       887.70000    0.0190233  7.99548e+11
       887.80000    0.0190233  8.00309e+11
       887.90000    0.0190233  8.01260e+11
       888.00000    0.0190233  8.02021e+11
       888.10000    0.0190233  8.02972e+11
       888.20000    0.0190233  8.03733e+11
       888.30000    0.0190233  8.04684e+11
       888.40000    0.0190233  8.05445e+11
       888.50000    0.0184882  7.83532e+11
       888.60000    0.0184882  7.84086e+11
       888.70000    0.0184882  7.84641e+11
       888.80000    0.0181195  7.69536e+11
       888.90000    0.0181195  7.70080e+11
       889.00000    0.0181195  7.70623e+11
       889.10000    0.0181195  7.70986e+11
       889.20000    0.0181195  7.71348e+11
       889.30000    0.0181195  7.71710e+11
       889.40000    0.0181195  7.71892e+11
       889.50000    0.0176820  7.53605e+11
       889.60000    0.0176820  7.53782e+11
       889.70000    0.0176820  7.53958e+11
       889.80000    0.0176820  7.53958e+11
       889.90000    0.0176820  7.53958e+11
       890.00000    0.0176820  7.53958e+11
       890.10000    0.0176820  7.53428e+11
       890.20000    0.0176820  7.52897e+11
       890.30000    0.0176820  7.52367e+11
       890.40000    0.0176820  7.51837e+11
       890.50000    0.0173289  7.36306e+11
       890.60000    0.0173289  7.35787e+11
       890.70000    0.0173289  7.35267e+11
       890.80000    0.0173289  7.34747e+11
       890.90000    0.0173289  7.34227e+11
       891.00000    0.0173289  7.33880e+11
       891.10000    0.0173289  7.33360e+11
       891.20000    0.0173289  7.33014e+11
       891.30000    0.0170207  7.19465e+11
       891.40000    0.0170207  7.19124e+11
       891.50000    0.0167579  7.07685e+11
       891.60000    0.0167579  7.07350e+11
       891.70000    0.0167579  7.07014e+11
       891.80000    0.0167579  7.06679e+11
       891.90000    0.0167579  7.06344e+11
       892.00000    0.0167579  7.06009e+11
       892.10000    0.0167579  7.05674e+11
       892.20000    0.0167579  7.05506e+11
       892.30000    0.0167579  7.05171e+11
       892.40000    0.0167579  7.05003e+11
       892.50000    0.0165762  6.97029e+11
       892.60000    0.0165762  6.96863e+11
       892.70000    0.0165762  6.96698e+11
       892.80000    0.0165762  6.96532e+11
       892.90000    0.0165762  6.96366e+11
       893.00000    0.0165762  6.96200e+11
       893.10000    0.0165762  6.96035e+11
       893.20000    0.0165762  6.95869e+11
       893.30000    0.0165762  6.95703e+11
       893.40000    0.0165762  6.95703e+11
       893.50000    0.0164307  6.89434e+11
       893.60000    0.0164307  6.89434e+11
       893.70000    0.0164307  6.89269e+11
       893.80000    0.0161473  6.77378e+11
       893.90000    0.0161473  6.77378e+11
       894.00000    0.0161473  6.77378e+11
       894.10000    0.0161473  6.77862e+11
       894.20000    0.0161473  6.78185e+11
       894.30000    0.0161473  6.78669e+11
       894.40000    0.0161473  6.78992e+11
       894.50000    0.0160584  6.75737e+11
       894.60000    0.0160584  6.76058e+11
       894.70000    0.0160584  6.76380e+11
       894.80000    0.0160584  6.76701e+11
       894.90000    0.0160584  6.77022e+11
       895.00000    0.0160584  6.77343e+11
       895.10000    0.0160584  6.77504e+11
       895.20000    0.0160584  6.77825e+11
       895.30000    0.0160584  6.77985e+11
       895.40000    0.0160584  6.78146e+11
       895.50000    0.0159797  6.75140e+11
       895.60000    0.0159797  6.75300e+11
       895.70000    0.0159797  6.75460e+11
       895.80000    0.0159797  6.75460e+11
       895.90000    0.0159797  6.75620e+11
       896.00000    0.0159797  6.75780e+11
       896.10000    0.0159797  6.75939e+11
       896.20000    0.0159797  6.75939e+11
       896.30000    0.0157446  6.66154e+11
       896.40000    0.0157446  6.66154e+11
       896.50000    0.0156942  6.64020e+11
       896.60000    0.0156942  6.64020e+11
       896.70000    0.0156942  6.64020e+11
       896.80000    0.0156942  6.64020e+11
       896.90000    0.0156942  6.64020e+11
       897.00000    0.0156942  6.63863e+11
       897.10000    0.0156942  6.63863e+11
       897.20000    0.0156942  6.63706e+11
       897.30000    0.0156942  6.63549e+11
       897.40000    0.0156942  6.63392e+11
       897.50000    0.0156416  6.60858e+11
       897.60000    0.0156416  6.60701e+11
       897.70000    0.0156416  6.60388e+11
       897.80000    0.0156416  6.60232e+11
       897.90000    0.0156416  6.59919e+11
       898.00000    0.0156416  6.59606e+11
       898.10000    0.0156416  6.59137e+11
       898.20000    0.0156416  6.58824e+11
       898.30000    0.0156416  6.58511e+11
       898.40000    0.0156416  6.58042e+11
       898.50000    0.0155789  6.54939e+11
       898.60000    0.0155789  6.54471e+11
       898.70000    0.0155789  6.54004e+11
       898.80000    0.0153488  6.43881e+11
       898.90000    0.0153488  6.43267e+11
       899.00000    0.0153488  6.42806e+11
       899.10000    0.0153488  6.42193e+11
       899.20000    0.0153488  6.41579e+11
       899.30000    0.0153488  6.40965e+11
       899.40000    0.0153488  6.40351e+11
       899.50000    0.0152899  6.37282e+11
       899.60000    0.0152899  6.36517e+11
       899.70000    0.0152899  6.35906e+11
       899.80000    0.0152899  6.35141e+11
       899.90000    0.0152899  6.34377e+11
       900.00000    0.0152899  6.33612e+11
       900.10000    0.0152899  6.31777e+11
       900.20000    0.0152899  6.30248e+11
       900.30000    0.0152899  6.28566e+11
       900.40000    0.0152899  6.27190e+11
       900.50000    0.0152605  6.24612e+11
       900.60000    0.0152605  6.23392e+11
       900.70000    0.0152605  6.22171e+11
       900.80000    0.0152605  6.21255e+11
       900.90000    0.0152605  6.20340e+11
       901.00000    0.0152605  6.19424e+11
       901.10000    0.0152605  6.18813e+11
       901.20000    0.0152605  6.18203e+11
       901.30000    0.0150438  6.08821e+11
       901.40000    0.0150438  6.08520e+11
       901.50000    0.0150072  6.06743e+11
       901.60000    0.0150072  6.06593e+11
       901.70000    0.0150072  6.06442e+11
       901.80000    0.0150072  6.06442e+11
       901.90000    0.0150072  6.06593e+11
       902.00000    0.0150072  6.06893e+11
       902.10000    0.0150072  6.08994e+11
       902.20000    0.0150072  6.10945e+11
       902.30000    0.0150072  6.12896e+11
       902.40000    0.0150072  6.14696e+11
       902.50000    0.0149537  6.14299e+11
       902.60000    0.0149537  6.15944e+11
       902.70000    0.0149537  6.17589e+11
       902.80000    0.0149537  6.19085e+11
       902.90000    0.0149537  6.20580e+11
       903.00000    0.0149537  6.21926e+11
       903.10000    0.0149537  6.23272e+11
       903.20000    0.0149537  6.24468e+11
       903.30000    0.0149537  6.25515e+11
       903.40000    0.0149537  6.26562e+11
       903.50000    0.0148847  6.24561e+11
       903.60000    0.0148847  6.25454e+11
       903.70000    0.0148847  6.26348e+11
       903.80000    0.0146773  6.18206e+11
       903.90000    0.0146773  6.18940e+11
       904.00000    0.0146773  6.19380e+11
       904.10000    0.0146773  6.19821e+11
       904.20000    0.0146773  6.20261e+11
       904.30000    0.0146773  6.20555e+11
       904.40000    0.0146773  6.20701e+11
       904.50000    0.0145827  6.16848e+11
       904.60000    0.0145827  6.16994e+11
       904.70000    0.0145827  6.16994e+11
       904.80000    0.0145827  6.16848e+11
       904.90000    0.0145827  6.16702e+11
       905.00000    0.0145827  6.16411e+11
       905.10000    0.0145827  6.16119e+11
       905.20000    0.0145827  6.15682e+11
       905.30000    0.0145827  6.15244e+11
       905.40000    0.0145827  6.14661e+11
       905.50000    0.0144875  6.09922e+11
       905.60000    0.0144875  6.09198e+11
       905.70000    0.0144875  6.08473e+11
       905.80000    0.0144875  6.07604e+11
       905.90000    0.0144875  6.06590e+11
       906.00000    0.0144875  6.05576e+11
       906.10000    0.0144875  6.04996e+11
       906.20000    0.0144875  6.04562e+11
       906.30000    0.0142781  5.95398e+11
       906.40000    0.0142781  5.94827e+11
       906.50000    0.0141729  5.90018e+11
       906.60000    0.0141729  5.89593e+11
       906.70000    0.0141729  5.89168e+11
       906.80000    0.0141729  5.88743e+11
       906.90000    0.0141729  5.88318e+11
       907.00000    0.0141729  5.87892e+11
       907.10000    0.0141729  5.87467e+11
       907.20000    0.0141729  5.87042e+11
       907.30000    0.0141729  5.86617e+11
       907.40000    0.0141729  5.86192e+11
       907.50000    0.0140592  5.81067e+11
       907.60000    0.0140592  5.80786e+11
       907.70000    0.0140592  5.80364e+11
       907.80000    0.0140592  5.79942e+11
       907.90000    0.0140592  5.79661e+11
       908.00000    0.0140592  5.79239e+11
       908.10000    0.0140592  5.78677e+11
       908.20000    0.0140592  5.78255e+11
       908.30000    0.0140592  5.77693e+11
       908.40000    0.0140592  5.77271e+11
       908.50000    0.0139440  5.72123e+11
       908.60000    0.0139440  5.71705e+11
       908.70000    0.0139440  5.71426e+11
       908.80000    0.0137336  5.62390e+11
       908.90000    0.0137336  5.62115e+11
       909.00000    0.0137336  5.61841e+11
       909.10000    0.0137336  5.61566e+11
       909.20000    0.0137336  5.61291e+11
       909.30000    0.0137336  5.61017e+11
       909.40000    0.0137336  5.60879e+11
       909.50000    0.0136176  5.56008e+11
       909.60000    0.0136176  5.55872e+11
       909.70000    0.0136176  5.55736e+11
       909.80000    0.0136176  5.55600e+11
       909.90000    0.0136176  5.55600e+11
       910.00000    0.0136176  5.55464e+11
       910.10000    0.0136176  5.55464e+11
       910.20000    0.0136176  5.55464e+11
       910.30000    0.0136176  5.55600e+11
       910.40000    0.0136176  5.55600e+11
       910.50000    0.0134829  5.50237e+11
       910.60000    0.0134829  5.50237e+11
       910.70000    0.0134829  5.50372e+11
       910.80000    0.0134829  5.50641e+11
       910.90000    0.0134829  5.50776e+11
       911.00000    0.0134829  5.50911e+11
       911.10000    0.0134829  5.51181e+11
       911.20000    0.0134829  5.51450e+11
       911.30000    0.0132679  5.42924e+11
       911.40000    0.0132679  5.43190e+11
       911.50000    0.0131432  5.38478e+11
       911.60000    0.0131432  5.38741e+11
       911.70000    0.0131432  5.39135e+11
       911.80000    0.0131432  5.39529e+11
       911.90000    0.0131432  5.39924e+11
       912.00000    0.0131432  5.40449e+11
       912.10000    0.0131432  5.41107e+11
       912.20000    0.0131432  5.41632e+11
       912.30000    0.0131432  5.42158e+11
       912.40000    0.0131432  5.42684e+11
       912.50000    0.0130273  5.38420e+11
       912.60000    0.0130273  5.38941e+11
       912.70000    0.0130273  5.39462e+11
       912.80000    0.0130273  5.39853e+11
       912.90000    0.0130273  5.40244e+11
       913.00000    0.0130273  5.40635e+11
       913.10000    0.0130273  5.41026e+11
       913.20000    0.0130273  5.41286e+11
       913.30000    0.0130273  5.41677e+11
       913.40000    0.0130273  5.41937e+11
       913.50000    0.0129038  5.37058e+11
       913.60000    0.0129038  5.37316e+11
       913.70000    0.0129038  5.37445e+11
       913.80000    0.0126827  5.28361e+11
       913.90000    0.0126827  5.28614e+11
       914.00000    0.0126827  5.28741e+11
       914.10000    0.0126827  5.28487e+11
       914.20000    0.0126827  5.28361e+11
       914.30000    0.0126827  5.28234e+11
       914.40000    0.0126827  5.28107e+11
       914.50000    0.0125641  5.23043e+11
       914.60000    0.0125641  5.22791e+11
       914.70000    0.0125641  5.22666e+11
       914.80000    0.0125641  5.22540e+11
       914.90000    0.0125641  5.22414e+11
       915.00000    0.0125641  5.22289e+11
       915.10000    0.0125641  5.22163e+11
       915.20000    0.0125641  5.22037e+11
       915.30000    0.0125641  5.21912e+11
       915.40000    0.0125641  5.21786e+11
       915.50000    0.0124393  5.16481e+11
       915.60000    0.0124393  5.16357e+11
       915.70000    0.0124393  5.16232e+11
       915.80000    0.0124393  5.16108e+11
       915.90000    0.0124393  5.15984e+11
       916.00000    0.0124393  5.15859e+11
       916.10000    0.0124393  5.15735e+11
       916.20000    0.0124393  5.15610e+11
       916.30000    0.0122081  5.05904e+11
       916.40000    0.0122081  5.05782e+11
       916.50000    0.0120971  5.01061e+11
       916.60000    0.0120971  5.01061e+11
       916.70000    0.0120971  5.00940e+11
       916.80000    0.0120971  5.00819e+11
       916.90000    0.0120971  5.00698e+11
       917.00000    0.0120971  5.00577e+11
       917.10000    0.0120971  5.00577e+11
       917.20000    0.0120971  5.00456e+11
       917.30000    0.0120971  5.00335e+11
       917.40000    0.0120971  5.00214e+11
       917.50000    0.0119749  4.95162e+11
       917.60000    0.0119749  4.95043e+11
       917.70000    0.0119749  4.94923e+11
       917.80000    0.0119749  4.94923e+11
       917.90000    0.0119749  4.94803e+11
       918.00000    0.0119749  4.94683e+11
       918.10000    0.0119749  4.94923e+11
       918.20000    0.0119749  4.95162e+11
       918.30000    0.0119749  4.95402e+11
       918.40000    0.0119749  4.95522e+11
       918.50000    0.0118674  4.91193e+11
       918.60000    0.0118674  4.91311e+11
       918.70000    0.0118674  4.91311e+11
       918.80000    0.0116454  4.82121e+11
       918.90000    0.0116454  4.82121e+11
       919.00000    0.0116454  4.82121e+11
       919.10000    0.0116454  4.82005e+11
       919.20000    0.0116454  4.81888e+11
       919.30000    0.0116454  4.81772e+11
       919.40000    0.0116454  4.81539e+11
       919.50000    0.0115274  4.76426e+11
       919.60000    0.0115274  4.76195e+11
       919.70000    0.0115274  4.75965e+11
       919.80000    0.0115274  4.75619e+11
       919.90000    0.0115274  4.75388e+11
       920.00000    0.0115274  4.75043e+11
       920.10000    0.0115274  4.74005e+11
       920.20000    0.0115274  4.73083e+11
       920.30000    0.0115274  4.72161e+11
       920.40000    0.0115274  4.71239e+11
       920.50000    0.0114104  4.65546e+11
       920.60000    0.0114104  4.64747e+11
       920.70000    0.0114104  4.63948e+11
       920.80000    0.0114104  4.63264e+11
       920.90000    0.0114104  4.62465e+11
       921.00000    0.0114104  4.61780e+11
       921.10000    0.0114104  4.61096e+11
       921.20000    0.0114104  4.60525e+11
       921.30000    0.0111913  4.51010e+11
       921.40000    0.0111913  4.50450e+11
       921.50000    0.0110770  4.45297e+11
       921.60000    0.0110770  4.44853e+11
       921.70000    0.0110770  4.44410e+11
       921.80000    0.0110770  4.43967e+11
       921.90000    0.0110770  4.43524e+11
       922.00000    0.0110770  4.43192e+11
       922.10000    0.0110770  4.42749e+11
       922.20000    0.0110770  4.42527e+11
       922.30000    0.0110770  4.42195e+11
       922.40000    0.0110770  4.41973e+11
       922.50000    0.0109573  4.36868e+11
       922.60000    0.0109573  4.36759e+11
       922.70000    0.0109573  4.36539e+11
       922.80000    0.0109573  4.36430e+11
       922.90000    0.0109573  4.36320e+11
       923.00000    0.0109573  4.36211e+11
       923.10000    0.0109573  4.36211e+11
       923.20000    0.0109573  4.36101e+11
       923.30000    0.0109573  4.36101e+11
       923.40000    0.0109573  4.36211e+11
       923.50000    0.0108392  4.31509e+11
       923.60000    0.0108392  4.31618e+11
       923.70000    0.0108392  4.31726e+11
       923.80000    0.0106283  4.23538e+11
       923.90000    0.0106283  4.23644e+11
       924.00000    0.0106283  4.23857e+11
       924.10000    0.0106283  4.23857e+11
       924.20000    0.0106283  4.23857e+11
       924.30000    0.0106283  4.23857e+11
       924.40000    0.0106283  4.23857e+11
       924.50000    0.0105037  4.18887e+11
       924.60000    0.0105037  4.18887e+11
       924.70000    0.0105037  4.18992e+11
       924.80000    0.0105037  4.19097e+11
       924.90000    0.0105037  4.19097e+11
       925.00000    0.0105037  4.19202e+11
       925.10000    0.0105037  4.19412e+11
       925.20000    0.0105037  4.19517e+11
       925.30000    0.0105037  4.19622e+11
       925.40000    0.0105037  4.19832e+11
       925.50000    0.0103749  4.14894e+11
       925.60000    0.0103749  4.15101e+11
       925.70000    0.0103749  4.15309e+11
       925.80000    0.0103749  4.15516e+11
       925.90000    0.0103749  4.15724e+11
       926.00000    0.0103749  4.16035e+11
       926.10000    0.0103749  4.16658e+11
       926.20000    0.0103749  4.17384e+11
       926.30000    0.0101728  4.09860e+11
       926.40000    0.0101728  4.10471e+11
       926.50000    0.0100504  4.06138e+11
       926.60000    0.0100504  4.06640e+11
       926.70000    0.0100504  4.07143e+11
       926.80000    0.0100504  4.07645e+11
       926.90000    0.0100504  4.08148e+11
       927.00000    0.0100504  4.08550e+11
       927.10000    0.0100504  4.08952e+11
       927.20000    0.0100504  4.09354e+11
       927.30000    0.0100504  4.09655e+11
       927.40000    0.0100504  4.09957e+11
       927.50000   0.00992315  4.05063e+11
       927.60000   0.00992315  4.05262e+11
       927.70000   0.00992315  4.05559e+11
       927.80000   0.00992315  4.05758e+11
       927.90000   0.00992315  4.05857e+11
       928.00000   0.00992315  4.05956e+11
       928.10000   0.00992315  4.05758e+11
       928.20000   0.00992315  4.05559e+11
       928.30000   0.00992315  4.05262e+11
       928.40000   0.00992315  4.05063e+11
       928.50000   0.00979130  3.99485e+11
       928.60000   0.00979130  3.99289e+11
       928.70000   0.00979130  3.99094e+11
       928.80000   0.00960189  3.91181e+11
       928.90000   0.00960189  3.90989e+11
       929.00000   0.00960189  3.90893e+11
       929.10000   0.00960189  3.90701e+11
       929.20000   0.00960189  3.90509e+11
       929.30000   0.00960189  3.90413e+11
       929.40000   0.00960189  3.90221e+11
       929.50000   0.00946975  3.84756e+11
       929.60000   0.00946975  3.84661e+11
       929.70000   0.00946975  3.84472e+11
       929.80000   0.00946975  3.84377e+11
       929.90000   0.00946975  3.84282e+11
       930.00000   0.00946975  3.84188e+11
       930.10000   0.00946975  3.84188e+11
       930.20000   0.00946975  3.84188e+11
       930.30000   0.00946975  3.84093e+11
       930.40000   0.00946975  3.84093e+11
       930.50000   0.00933471  3.78616e+11
       930.60000   0.00933471  3.78616e+11
       930.70000   0.00933471  3.78522e+11
       930.80000   0.00933471  3.78522e+11
       930.90000   0.00933471  3.78522e+11
       931.00000   0.00933471  3.78522e+11
       931.10000   0.00933471  3.78522e+11
       931.20000   0.00933471  3.78429e+11
       931.30000   0.00916397  3.71507e+11
       931.40000   0.00916397  3.71507e+11
       931.50000   0.00903331  3.66211e+11
       931.60000   0.00903331  3.66211e+11
       931.70000   0.00903331  3.66211e+11
       931.80000   0.00903331  3.66211e+11
       931.90000   0.00903331  3.66211e+11
       932.00000   0.00903331  3.66211e+11
       932.10000   0.00903331  3.66211e+11
       932.20000   0.00903331  3.66211e+11
       932.30000   0.00903331  3.66211e+11
       932.40000   0.00903331  3.66211e+11
       932.50000   0.00889826  3.60736e+11
       932.60000   0.00889826  3.60736e+11
       932.70000   0.00889826  3.60736e+11
       932.80000   0.00889826  3.60825e+11
       932.90000   0.00889826  3.60825e+11
       933.00000   0.00889826  3.60825e+11
       933.10000   0.00889826  3.60825e+11
       933.20000   0.00889826  3.60825e+11
       933.30000   0.00889826  3.60914e+11
       933.40000   0.00889826  3.60914e+11
       933.50000   0.00876346  3.55446e+11
       933.60000   0.00876346  3.55534e+11
       933.70000   0.00876346  3.55534e+11
       933.80000   0.00861488  3.49506e+11
       933.90000   0.00861488  3.49592e+11
       934.00000   0.00861488  3.49592e+11
       934.10000   0.00861488  3.49333e+11
       934.20000   0.00861488  3.49075e+11
       934.30000   0.00861488  3.48816e+11
       934.40000   0.00861488  3.48558e+11
       934.50000   0.00848196  3.42926e+11
       934.60000   0.00848196  3.42756e+11
       934.70000   0.00848196  3.42586e+11
       934.80000   0.00848196  3.42332e+11
       934.90000   0.00848196  3.42162e+11
       935.00000   0.00848196  3.42078e+11
       935.10000   0.00848196  3.41908e+11
       935.20000   0.00848196  3.41738e+11
       935.30000   0.00848196  3.41653e+11
       935.40000   0.00848196  3.41569e+11
       935.50000   0.00834769  3.36078e+11
       935.60000   0.00834769  3.35994e+11
       935.70000   0.00834769  3.35911e+11
       935.80000   0.00834769  3.35827e+11
       935.90000   0.00834769  3.35827e+11
       936.00000   0.00834769  3.35744e+11
       936.10000   0.00834769  3.35994e+11
       936.20000   0.00834769  3.36245e+11
       936.30000   0.00821041  3.30962e+11
       936.40000   0.00821041  3.31208e+11
       936.50000   0.00808319  3.26238e+11
       936.60000   0.00808319  3.26399e+11
       936.70000   0.00808319  3.26561e+11
       936.80000   0.00808319  3.26723e+11
       936.90000   0.00808319  3.26803e+11
       937.00000   0.00808319  3.26965e+11
       937.10000   0.00808319  3.27046e+11
       937.20000   0.00808319  3.27127e+11
       937.30000   0.00808319  3.27127e+11
       937.40000   0.00808319  3.27208e+11
       937.50000   0.00795140  3.21873e+11
       937.60000   0.00795140  3.21873e+11
       937.70000   0.00795140  3.21873e+11
       937.80000   0.00795140  3.21873e+11
       937.90000   0.00795140  3.21793e+11
       938.00000   0.00795140  3.21793e+11
       938.10000   0.00795140  3.21714e+11
       938.20000   0.00795140  3.21555e+11
       938.30000   0.00795140  3.21475e+11
       938.40000   0.00795140  3.21316e+11
       938.50000   0.00782453  3.16111e+11
       938.60000   0.00782453  3.15954e+11
       938.70000   0.00782453  3.15720e+11
       938.80000   0.00770255  3.10644e+11
       938.90000   0.00770255  3.10413e+11
       939.00000   0.00770255  3.10259e+11
       939.10000   0.00770255  3.10028e+11
       939.20000   0.00770255  3.09720e+11
       939.30000   0.00770255  3.09489e+11
       939.40000   0.00770255  3.09180e+11
       939.50000   0.00757366  3.03704e+11
       939.60000   0.00757366  3.03401e+11
       939.70000   0.00757366  3.03098e+11
       939.80000   0.00757366  3.02795e+11
       939.90000   0.00757366  3.02416e+11
       940.00000   0.00757366  3.02038e+11
       940.10000   0.00757366  3.01507e+11
       940.20000   0.00757366  3.00977e+11
       940.30000   0.00757366  3.00523e+11
       940.40000   0.00757366  3.00068e+11
       940.50000   0.00744920  2.94690e+11
       940.60000   0.00744920  2.94318e+11
       940.70000   0.00744920  2.93945e+11
       940.80000   0.00744920  2.93573e+11
       940.90000   0.00744920  2.93200e+11
       941.00000   0.00744920  2.92903e+11
       941.10000   0.00744920  2.92605e+11
       941.20000   0.00744920  2.92381e+11
       941.30000   0.00733818  2.87804e+11
       941.40000   0.00733818  2.87583e+11
       941.50000   0.00721978  2.82727e+11
       941.60000   0.00721978  2.82582e+11
       941.70000   0.00721978  2.82438e+11
       941.80000   0.00721978  2.82293e+11
       941.90000   0.00721978  2.82149e+11
       942.00000   0.00721978  2.82077e+11
       942.10000   0.00721978  2.82293e+11
       942.20000   0.00721978  2.82438e+11
       942.30000   0.00721978  2.82654e+11
       942.40000   0.00721978  2.82799e+11
       942.50000   0.00710737  2.78538e+11
       942.60000   0.00710737  2.78751e+11
       942.70000   0.00710737  2.78893e+11
       942.80000   0.00710737  2.79035e+11
       942.90000   0.00710737  2.79178e+11
       943.00000   0.00710737  2.79320e+11
       943.10000   0.00710737  2.79533e+11
       943.20000   0.00710737  2.79675e+11
       943.30000   0.00710737  2.79817e+11
       943.40000   0.00710737  2.79959e+11
       943.50000   0.00698907  2.75439e+11
       943.60000   0.00698907  2.75579e+11
       943.70000   0.00698907  2.75719e+11
       943.80000   0.00688248  2.71652e+11
       943.90000   0.00688248  2.71789e+11
       944.00000   0.00688248  2.71927e+11
       944.10000   0.00688248  2.72064e+11
       944.20000   0.00688248  2.72202e+11
       944.30000   0.00688248  2.72271e+11
       944.40000   0.00688248  2.72409e+11
       944.50000   0.00677183  2.68164e+11
       944.60000   0.00677183  2.68300e+11
       944.70000   0.00677183  2.68368e+11
       944.80000   0.00677183  2.68503e+11
       944.90000   0.00677183  2.68638e+11
       945.00000   0.00677183  2.68706e+11
       945.10000   0.00677183  2.68842e+11
       945.20000   0.00677183  2.68977e+11
       945.30000   0.00677183  2.69045e+11
       945.40000   0.00677183  2.69180e+11
       945.50000   0.00666453  2.64982e+11
       945.60000   0.00666453  2.65115e+11
       945.70000   0.00666453  2.65182e+11
       945.80000   0.00666453  2.65315e+11
       945.90000   0.00666453  2.65382e+11
       946.00000   0.00666453  2.65448e+11
       946.10000   0.00666453  2.65581e+11
       946.20000   0.00666453  2.65715e+11
       946.30000   0.00656451  2.61858e+11
       946.40000   0.00656451  2.61990e+11
       946.50000   0.00645655  2.57810e+11
       946.60000   0.00645655  2.57875e+11
       946.70000   0.00645655  2.58004e+11
       946.80000   0.00645655  2.58068e+11
       946.90000   0.00645655  2.58133e+11
       947.00000   0.00645655  2.58262e+11
       947.10000   0.00645655  2.58327e+11
       947.20000   0.00645655  2.58391e+11
       947.30000   0.00645655  2.58456e+11
       947.40000   0.00645655  2.58520e+11
       947.50000   0.00635337  2.54389e+11
       947.60000   0.00635337  2.54453e+11
       947.70000   0.00635337  2.54516e+11
       947.80000   0.00635337  2.54516e+11
       947.90000   0.00635337  2.54580e+11
       948.00000   0.00635337  2.54580e+11
       948.10000   0.00635337  2.54580e+11
       948.20000   0.00635337  2.54580e+11
       948.30000   0.00635337  2.54516e+11
       948.40000   0.00635337  2.54516e+11
       948.50000   0.00625237  2.50407e+11
       948.60000   0.00625237  2.50407e+11
       948.70000   0.00625237  2.50407e+11
       948.80000   0.00615196  2.46325e+11
       948.90000   0.00615196  2.46325e+11
       949.00000   0.00615196  2.46263e+11
       949.10000   0.00615196  2.46263e+11
       949.20000   0.00615196  2.46202e+11
       949.30000   0.00615196  2.46202e+11
       949.40000   0.00615196  2.46140e+11
       949.50000   0.00604963  2.42046e+11
       949.60000   0.00604963  2.41985e+11
       949.70000   0.00604963  2.41925e+11
       949.80000   0.00604963  2.41925e+11
       949.90000   0.00604963  2.41864e+11
       950.00000   0.00604963  2.41804e+11
       950.10000   0.00604963  2.41804e+11
       950.20000   0.00604963  2.41743e+11
       950.30000   0.00604963  2.41683e+11
       950.40000   0.00604963  2.41683e+11
       950.50000   0.00597242  2.38538e+11
       950.60000   0.00597242  2.38479e+11
       950.70000   0.00597242  2.38419e+11
       950.80000   0.00597242  2.38419e+11
       950.90000   0.00597242  2.38359e+11
       951.00000   0.00597242  2.38299e+11
       951.10000   0.00597242  2.38240e+11
       951.20000   0.00597242  2.38180e+11
       951.30000   0.00587687  2.34369e+11
       951.40000   0.00587687  2.34311e+11
       951.50000   0.00580662  2.31452e+11
       951.60000   0.00580662  2.31394e+11
       951.70000   0.00580662  2.31336e+11
       951.80000   0.00580662  2.31278e+11
       951.90000   0.00580662  2.31220e+11
       952.00000   0.00580662  2.31161e+11
       952.10000   0.00580662  2.30697e+11
       952.20000   0.00580662  2.30232e+11
       952.30000   0.00580662  2.29826e+11
       952.40000   0.00580662  2.29419e+11
       952.50000   0.00573592  2.26225e+11
       952.60000   0.00573592  2.25823e+11
       952.70000   0.00573592  2.25479e+11
       952.80000   0.00573592  2.25135e+11
       952.90000   0.00573592  2.24791e+11
       953.00000   0.00573592  2.24504e+11
       953.10000   0.00573592  2.24217e+11
       953.20000   0.00573592  2.23930e+11
       953.30000   0.00573592  2.23701e+11
       953.40000   0.00573592  2.23414e+11
       953.50000   0.00566409  2.20390e+11
       953.60000   0.00566409  2.20220e+11
       953.70000   0.00566409  2.19993e+11
       953.80000   0.00557005  2.16173e+11
       953.90000   0.00557005  2.16006e+11
       954.00000   0.00557005  2.15895e+11
       954.10000   0.00557005  2.15839e+11
       954.20000   0.00557005  2.15784e+11
       954.30000   0.00557005  2.15784e+11
       954.40000   0.00557005  2.15784e+11
       954.50000   0.00550092  2.13051e+11
       954.60000   0.00550092  2.13051e+11
       954.70000   0.00550092  2.13051e+11
       954.80000   0.00550092  2.13051e+11
       954.90000   0.00550092  2.13106e+11
       955.00000   0.00550092  2.13106e+11
       955.10000   0.00550092  2.13161e+11
       955.20000   0.00550092  2.13161e+11
       955.30000   0.00550092  2.13216e+11
       955.40000   0.00550092  2.13271e+11
       955.50000   0.00542982  2.10568e+11
       955.60000   0.00542982  2.10623e+11
       955.70000   0.00542982  2.10677e+11
       955.80000   0.00542982  2.10786e+11
       955.90000   0.00542982  2.10840e+11
       956.00000   0.00542982  2.10948e+11
       956.10000   0.00542982  2.11057e+11
       956.20000   0.00542982  2.11111e+11
       956.30000   0.00534118  2.07772e+11
       956.40000   0.00534118  2.07932e+11
       956.50000   0.00527230  2.05356e+11
       956.60000   0.00527230  2.05461e+11
       956.70000   0.00527230  2.05620e+11
       956.80000   0.00527230  2.05725e+11
       956.90000   0.00527230  2.05883e+11
       957.00000   0.00527230  2.06041e+11
       957.10000   0.00527230  2.06200e+11
       957.20000   0.00527230  2.06358e+11
       957.30000   0.00527230  2.06569e+11
       957.40000   0.00527230  2.06727e+11
       957.50000   0.00520043  2.04065e+11
       957.60000   0.00520043  2.04273e+11
       957.70000   0.00520043  2.04481e+11
       957.80000   0.00520043  2.04689e+11
       957.90000   0.00520043  2.04897e+11
       958.00000   0.00520043  2.05105e+11
       958.10000   0.00520043  2.05105e+11
       958.20000   0.00520043  2.05053e+11
       958.30000   0.00520043  2.05053e+11
       958.40000   0.00520043  2.05053e+11
       958.50000   0.00512615  2.02124e+11
       958.60000   0.00512615  2.02073e+11
       958.70000   0.00512615  2.02073e+11
       958.80000   0.00503579  1.98511e+11
       958.90000   0.00503579  1.98461e+11
       959.00000   0.00503579  1.98461e+11
       959.10000   0.00503579  1.98410e+11
       959.20000   0.00503579  1.98410e+11
       959.30000   0.00503579  1.98360e+11
       959.40000   0.00503579  1.98309e+11
       959.50000   0.00496247  1.95422e+11
       959.60000   0.00496247  1.95373e+11
       959.70000   0.00496247  1.95373e+11
       959.80000   0.00496247  1.95323e+11
       959.90000   0.00496247  1.95273e+11
       960.00000   0.00496247  1.95224e+11
       960.10000   0.00496247  1.95174e+11
       960.20000   0.00496247  1.95124e+11
       960.30000   0.00496247  1.95075e+11
       960.40000   0.00496247  1.95025e+11
       960.50000   0.00488689  1.92006e+11
       960.60000   0.00488689  1.91957e+11
       960.70000   0.00488689  1.91908e+11
       960.80000   0.00488689  1.91859e+11
       960.90000   0.00488689  1.91810e+11
       961.00000   0.00488689  1.91761e+11
       961.10000   0.00488689  1.91713e+11
       961.20000   0.00488689  1.91664e+11
       961.30000   0.00480198  1.88286e+11
       961.40000   0.00480198  1.88238e+11
       961.50000   0.00472719  1.85259e+11
       961.60000   0.00472719  1.85164e+11
       961.70000   0.00472719  1.85117e+11
       961.80000   0.00472719  1.85070e+11
       961.90000   0.00472719  1.85022e+11
       962.00000   0.00472719  1.84975e+11
       962.10000   0.00472719  1.84881e+11
       962.20000   0.00472719  1.84833e+11
       962.30000   0.00472719  1.84786e+11
       962.40000   0.00472719  1.84691e+11
       962.50000   0.00465094  1.81666e+11
       962.60000   0.00465094  1.81619e+11
       962.70000   0.00465094  1.81526e+11
       962.80000   0.00465094  1.81480e+11
       962.90000   0.00465094  1.81387e+11
       963.00000   0.00465094  1.81340e+11
       963.10000   0.00465094  1.81294e+11
       963.20000   0.00465094  1.81201e+11
       963.30000   0.00465094  1.81154e+11
       963.40000   0.00465094  1.81061e+11
       963.50000   0.00457450  1.78040e+11
       963.60000   0.00457450  1.77948e+11
       963.70000   0.00457450  1.77902e+11
       963.80000   0.00449143  1.74582e+11
       963.90000   0.00449143  1.74492e+11
       964.00000   0.00449143  1.74447e+11
       964.10000   0.00449143  1.74357e+11
       964.20000   0.00449143  1.74222e+11
       964.30000   0.00449143  1.74133e+11
       964.40000   0.00449143  1.74088e+11
       964.50000   0.00441504  1.71039e+11
       964.60000   0.00441504  1.70950e+11
       964.70000   0.00441504  1.70906e+11
       964.80000   0.00441504  1.70818e+11
       964.90000   0.00441504  1.70774e+11
       965.00000   0.00441504  1.70685e+11
       965.10000   0.00441504  1.70641e+11
       965.20000   0.00441504  1.70597e+11
       965.30000   0.00441504  1.70553e+11
       965.40000   0.00441504  1.70553e+11
       965.50000   0.00433797  1.67532e+11
       965.60000   0.00433797  1.67489e+11
       965.70000   0.00433797  1.67489e+11
       965.80000   0.00433797  1.67446e+11
       965.90000   0.00433797  1.67446e+11
       966.00000   0.00433797  1.67446e+11
       966.10000   0.00433797  1.67489e+11
       966.20000   0.00433797  1.67532e+11
       966.30000   0.00425775  1.64519e+11
       966.40000   0.00425775  1.64562e+11
       966.50000   0.00418126  1.61647e+11
       966.60000   0.00418126  1.61689e+11
       966.70000   0.00418126  1.61731e+11
       966.80000   0.00418126  1.61773e+11
       966.90000   0.00418126  1.61815e+11
       967.00000   0.00418126  1.61857e+11
       967.10000   0.00418126  1.61898e+11
       967.20000   0.00418126  1.61940e+11
       967.30000   0.00418126  1.61982e+11
       967.40000   0.00418126  1.62024e+11
       967.50000   0.00410312  1.58996e+11
       967.60000   0.00410312  1.59037e+11
       967.70000   0.00410312  1.59078e+11
       967.80000   0.00410312  1.59078e+11
       967.90000   0.00410312  1.59119e+11
       968.00000   0.00410312  1.59160e+11
       968.10000   0.00410312  1.59160e+11
       968.20000   0.00410312  1.59201e+11
       968.30000   0.00410312  1.59201e+11
       968.40000   0.00410312  1.59201e+11
       968.50000   0.00402596  1.56248e+11
       968.60000   0.00402596  1.56248e+11
       968.70000   0.00402596  1.56248e+11
       968.80000   0.00395136  1.53392e+11
       968.90000   0.00395136  1.53392e+11
       969.00000   0.00395136  1.53392e+11
       969.10000   0.00395136  1.53392e+11
       969.20000   0.00395136  1.53392e+11
       969.30000   0.00395136  1.53392e+11
       969.40000   0.00395136  1.53392e+11
       969.50000   0.00387020  1.50241e+11
       969.60000   0.00387020  1.50241e+11
       969.70000   0.00387020  1.50241e+11
       969.80000   0.00387020  1.50241e+11
       969.90000   0.00387020  1.50241e+11
       970.00000   0.00387020  1.50241e+11
       970.10000   0.00387020  1.50280e+11
       970.20000   0.00387020  1.50319e+11
       970.30000   0.00387020  1.50319e+11
       970.40000   0.00387020  1.50357e+11
       970.50000   0.00379240  1.47335e+11
       970.60000   0.00379240  1.47373e+11
       970.70000   0.00379240  1.47373e+11
       970.80000   0.00379240  1.47373e+11
       970.90000   0.00379240  1.47373e+11
       971.00000   0.00379240  1.47373e+11
       971.10000   0.00379240  1.47373e+11
       971.20000   0.00379240  1.47335e+11
       971.30000   0.00372229  1.44611e+11
       971.40000   0.00372229  1.44574e+11
       971.50000   0.00364404  1.41535e+11
       971.60000   0.00364404  1.41498e+11
       971.70000   0.00364404  1.41462e+11
       971.80000   0.00364404  1.41425e+11
       971.90000   0.00364404  1.41389e+11
       972.00000   0.00364404  1.41316e+11
       972.10000   0.00364404  1.41170e+11
       972.20000   0.00364404  1.41024e+11
       972.30000   0.00364404  1.40915e+11
       972.40000   0.00364404  1.40769e+11
       972.50000   0.00356719  1.37694e+11
       972.60000   0.00356719  1.37551e+11
       972.70000   0.00356719  1.37444e+11
       972.80000   0.00356719  1.37337e+11
       972.90000   0.00356719  1.37230e+11
       973.00000   0.00356719  1.37159e+11
       973.10000   0.00356719  1.37052e+11
       973.20000   0.00356719  1.36980e+11
       973.30000   0.00356719  1.36909e+11
       973.40000   0.00356719  1.36838e+11
       973.50000   0.00349098  1.33844e+11
       973.60000   0.00349098  1.33774e+11
       973.70000   0.00349098  1.33740e+11
       973.80000   0.00342298  1.31066e+11
       973.90000   0.00342298  1.31032e+11
       974.00000   0.00342298  1.30998e+11
       974.10000   0.00342298  1.31032e+11
       974.20000   0.00342298  1.31100e+11
       974.30000   0.00342298  1.31134e+11
       974.40000   0.00342298  1.31169e+11
       974.50000   0.00334724  1.28300e+11
       974.60000   0.00334724  1.28333e+11
       974.70000   0.00334724  1.28367e+11
       974.80000   0.00334724  1.28400e+11
       974.90000   0.00334724  1.28400e+11
       975.00000   0.00334724  1.28434e+11
       975.10000   0.00334724  1.28467e+11
       975.20000   0.00334724  1.28467e+11
       975.30000   0.00334724  1.28501e+11
       975.40000   0.00334724  1.28501e+11
       975.50000   0.00327166  1.25599e+11
       975.60000   0.00327166  1.25632e+11
       975.70000   0.00327166  1.25632e+11
       975.80000   0.00327166  1.25632e+11
       975.90000   0.00327166  1.25632e+11
       976.00000   0.00327166  1.25632e+11
       976.10000   0.00327166  1.25599e+11
       976.20000   0.00327166  1.25566e+11
       976.30000   0.00320909  1.23133e+11
       976.40000   0.00320909  1.23101e+11
       976.50000   0.00313701  1.20336e+11
       976.60000   0.00313701  1.20304e+11
       976.70000   0.00313701  1.20273e+11
       976.80000   0.00313701  1.20242e+11
       976.90000   0.00313701  1.20242e+11
       977.00000   0.00313701  1.20210e+11
       977.10000   0.00313701  1.20179e+11
       977.20000   0.00313701  1.20147e+11
       977.30000   0.00313701  1.20147e+11
       977.40000   0.00313701  1.20116e+11
       977.50000   0.00306484  1.17322e+11
       977.60000   0.00306484  1.17322e+11
       977.70000   0.00306484  1.17291e+11
       977.80000   0.00306484  1.17261e+11
       977.90000   0.00306484  1.17261e+11
       978.00000   0.00306484  1.17230e+11
       978.10000   0.00306484  1.17230e+11
       978.20000   0.00306484  1.17199e+11
       978.30000   0.00306484  1.17199e+11
       978.40000   0.00306484  1.17169e+11
       978.50000   0.00299374  1.14421e+11
       978.60000   0.00299374  1.14421e+11
       978.70000   0.00299374  1.14421e+11
       978.80000   0.00293547  1.12164e+11
       978.90000   0.00293547  1.12164e+11
       979.00000   0.00293547  1.12135e+11
       979.10000   0.00293547  1.12135e+11
       979.20000   0.00293547  1.12106e+11
       979.30000   0.00293547  1.12106e+11
       979.40000   0.00293547  1.12106e+11
       979.50000   0.00286616  1.09430e+11
       979.60000   0.00286616  1.09430e+11
       979.70000   0.00286616  1.09430e+11
       979.80000   0.00286616  1.09401e+11
       979.90000   0.00286616  1.09401e+11
       980.00000   0.00286616  1.09401e+11
       980.10000   0.00286616  1.09459e+11
       980.20000   0.00286616  1.09487e+11
       980.30000   0.00286616  1.09545e+11
       980.40000   0.00286616  1.09573e+11
       980.50000   0.00279658  1.06969e+11
       980.60000   0.00279658  1.06997e+11
       980.70000   0.00279658  1.07025e+11
       980.80000   0.00279658  1.07053e+11
       980.90000   0.00279658  1.07081e+11
       981.00000   0.00279658  1.07109e+11
       981.10000   0.00279658  1.07137e+11
       981.20000   0.00279658  1.07165e+11
       981.30000   0.00273999  1.04996e+11
       981.40000   0.00273999  1.05024e+11
       981.50000   0.00267340  1.02471e+11
       981.60000   0.00267340  1.02471e+11
       981.70000   0.00267340  1.02498e+11
       981.80000   0.00267340  1.02498e+11
       981.90000   0.00267340  1.02498e+11
       982.00000   0.00267340  1.02471e+11
       982.10000   0.00267340  1.02445e+11
       982.20000   0.00267340  1.02391e+11
       982.30000   0.00267340  1.02364e+11
       982.40000   0.00267340  1.02311e+11
       982.50000   0.00260424  9.96382e+10
       982.60000   0.00260424  9.95861e+10
       982.70000   0.00260424  9.95601e+10
       982.80000   0.00260424  9.95340e+10
       982.90000   0.00260424  9.94819e+10
       983.00000   0.00260424  9.94559e+10
       983.10000   0.00260424  9.94299e+10
       983.20000   0.00260424  9.94038e+10
       983.30000   0.00260424  9.93778e+10
       983.40000   0.00260424  9.93257e+10
       983.50000   0.00253751  9.67551e+10
       983.60000   0.00253751  9.67297e+10
       983.70000   0.00253751  9.67044e+10
       983.80000   0.00248746  9.47722e+10
       983.90000   0.00248746  9.47473e+10
       984.00000   0.00248746  9.47224e+10
       984.10000   0.00248746  9.47224e+10
       984.20000   0.00248746  9.46975e+10
       984.30000   0.00248746  9.46727e+10
       984.40000   0.00248746  9.46478e+10
       984.50000   0.00242086  9.21136e+10
       984.60000   0.00242086  9.20893e+10
       984.70000   0.00242086  9.20651e+10
       984.80000   0.00242086  9.20651e+10
       984.90000   0.00242086  9.20409e+10
       985.00000   0.00242086  9.20167e+10
       985.10000   0.00242086  9.20167e+10
       985.20000   0.00242086  9.19925e+10
       985.30000   0.00242086  9.19925e+10
       985.40000   0.00242086  9.19925e+10
       985.50000   0.00235478  8.94582e+10
       985.60000   0.00235478  8.94582e+10
       985.70000   0.00235478  8.94582e+10
       985.80000   0.00235478  8.94346e+10
       985.90000   0.00235478  8.94346e+10
       986.00000   0.00235478  8.94346e+10
       986.10000   0.00235478  8.94111e+10
       986.20000   0.00235478  8.94111e+10
       986.30000   0.00230837  8.76489e+10
       986.40000   0.00230837  8.76258e+10
       986.50000   0.00224472  8.51873e+10
       986.60000   0.00224472  8.51873e+10
       986.70000   0.00224472  8.51649e+10
       986.80000   0.00224472  8.51649e+10
       986.90000   0.00224472  8.51424e+10
       987.00000   0.00224472  8.51200e+10
       987.10000   0.00224472  8.50975e+10
       987.20000   0.00224472  8.50975e+10
       987.30000   0.00224472  8.50751e+10
       987.40000   0.00224472  8.50526e+10
       987.50000   0.00217982  8.25717e+10
       987.60000   0.00217982  8.25499e+10
       987.70000   0.00217982  8.25281e+10
       987.80000   0.00217982  8.25063e+10
       987.90000   0.00217982  8.24845e+10
       988.00000   0.00217982  8.24627e+10
       988.10000   0.00217982  8.23973e+10
       988.20000   0.00217982  8.23537e+10
       988.30000   0.00217982  8.22883e+10
       988.40000   0.00217982  8.22447e+10
       988.50000   0.00211504  7.97580e+10
       988.60000   0.00211504  7.97157e+10
       988.70000   0.00211504  7.96734e+10
       988.80000   0.00207383  7.80796e+10
       988.90000   0.00207383  7.80381e+10
       989.00000   0.00207383  7.80173e+10
       989.10000   0.00207383  7.79966e+10
       989.20000   0.00207383  7.79551e+10
       989.30000   0.00207383  7.79344e+10
       989.40000   0.00207383  7.79136e+10
       989.50000   0.00201163  7.55567e+10
       989.60000   0.00201163  7.55366e+10
       989.70000   0.00201163  7.55366e+10
       989.80000   0.00201163  7.55164e+10
       989.90000   0.00201163  7.55164e+10
       990.00000   0.00201163  7.55164e+10
       990.10000   0.00201163  7.54963e+10
       990.20000   0.00201163  7.54963e+10
       990.30000   0.00201163  7.55164e+10
       990.40000   0.00201163  7.55164e+10
       990.50000   0.00194940  7.31806e+10
       990.60000   0.00194940  7.32001e+10
       990.70000   0.00194940  7.32001e+10
       990.80000   0.00194940  7.32196e+10
       990.90000   0.00194940  7.32391e+10
       991.00000   0.00194940  7.32586e+10
       991.10000   0.00194940  7.32781e+10
       991.20000   0.00194940  7.32976e+10
       991.30000   0.00191328  7.19584e+10
       991.40000   0.00191328  7.19967e+10
       991.50000   0.00185257  6.97308e+10
       991.60000   0.00185257  6.97678e+10
       991.70000   0.00185257  6.98049e+10
       991.80000   0.00185257  6.98419e+10
       991.90000   0.00185257  6.98790e+10
       992.00000   0.00185257  6.99160e+10
       992.10000   0.00185257  6.99346e+10
       992.20000   0.00185257  6.99346e+10
       992.30000   0.00185257  6.99346e+10
       992.40000   0.00185257  6.99346e+10
       992.50000   0.00179259  6.76880e+10
       992.60000   0.00179259  6.76880e+10
       992.70000   0.00179259  6.76880e+10
       992.80000   0.00179259  6.76880e+10
       992.90000   0.00179259  6.76880e+10
       993.00000   0.00179259  6.77060e+10
       993.10000   0.00179259  6.77060e+10
       993.20000   0.00179259  6.77060e+10
       993.30000   0.00179259  6.77060e+10
       993.40000   0.00179259  6.77060e+10
       993.50000   0.00173303  6.54566e+10
       993.60000   0.00173303  6.54566e+10
       993.70000   0.00173303  6.54566e+10
       993.80000   0.00170312  6.43269e+10
       993.90000   0.00170312  6.43099e+10
       994.00000   0.00170312  6.43099e+10
       994.10000   0.00170312  6.43099e+10
       994.20000   0.00170312  6.42929e+10
       994.30000   0.00170312  6.42929e+10
       994.40000   0.00170312  6.42758e+10
       994.50000   0.00164468  6.20700e+10
       994.60000   0.00164468  6.20536e+10
       994.70000   0.00164468  6.20536e+10
       994.80000   0.00164468  6.20371e+10
       994.90000   0.00164468  6.20371e+10
       995.00000   0.00164468  6.20207e+10
       995.10000   0.00164468  6.20207e+10
       995.20000   0.00164468  6.20207e+10
       995.30000   0.00164468  6.20042e+10
       995.40000   0.00164468  6.20042e+10
       995.50000   0.00158780  5.98600e+10
       995.60000   0.00158780  5.98441e+10
       995.70000   0.00158780  5.98441e+10
       995.80000   0.00158780  5.98441e+10
       995.90000   0.00158780  5.98441e+10
       996.00000   0.00158780  5.98282e+10
       996.10000   0.00158780  5.98441e+10
       996.20000   0.00158780  5.98441e+10
       996.30000   0.00156118  5.88411e+10
       996.40000   0.00156118  5.88411e+10
       996.50000   0.00150522  5.67319e+10
       996.60000   0.00150522  5.67319e+10
       996.70000   0.00150522  5.67319e+10
       996.80000   0.00150522  5.67319e+10
       996.90000   0.00150522  5.67319e+10
       997.00000   0.00150522  5.67319e+10
       997.10000   0.00150522  5.67319e+10
       997.20000   0.00150522  5.67319e+10
       997.30000   0.00150522  5.67319e+10
       997.40000   0.00150522  5.67319e+10
       997.50000   0.00144985  5.46450e+10
       997.60000   0.00144985  5.46450e+10
       997.70000   0.00144985  5.46450e+10
       997.80000   0.00144985  5.46450e+10
       997.90000   0.00144985  5.46450e+10
       998.00000   0.00144985  5.46305e+10
       998.10000   0.00144985  5.46305e+10
       998.20000   0.00144985  5.46160e+10
       998.30000   0.00144985  5.46160e+10
       998.40000   0.00144985  5.46015e+10
       998.50000   0.00139627  5.25697e+10
       998.60000   0.00139627  5.25697e+10
       998.70000   0.00139627  5.25557e+10
       998.80000   0.00137499  5.17547e+10
       998.90000   0.00137499  5.17547e+10
       999.00000   0.00137499  5.17409e+10
       999.10000   0.00137499  5.17409e+10
       999.20000   0.00137499  5.17272e+10
       999.30000   0.00137499  5.17272e+10
       999.40000   0.00137499  5.17272e+10
       999.50000   0.00132196  4.97187e+10
       999.60000   0.00132196  4.97187e+10
       999.70000   0.00132196  4.97187e+10
       999.80000   0.00132196  4.97187e+10
       999.90000   0.00132196  4.97187e+10
       1000.0000   0.00132196  4.97055e+10
       1000.1000   0.00132196  4.97055e+10
       1000.2000   0.00132196  4.97055e+10
       1000.3000   0.00132196  4.97055e+10
       1000.4000   0.00132196  4.97055e+10
       1000.5000   0.00130029  4.88908e+10
       1000.6000   0.00130029  4.88908e+10
       1000.7000   0.00130029  4.88908e+10
       1000.8000   0.00130029  4.88908e+10
       1000.9000   0.00130029  4.88908e+10
       1001.0000   0.00130029  4.88908e+10
       1001.1000   0.00130029  4.88908e+10
       1001.2000   0.00130029  4.89038e+10
       1001.3000   0.00128110  4.81820e+10
       1001.4000   0.00128110  4.81820e+10
       1001.5000   0.00126031  4.74003e+10
       1001.6000   0.00126031  4.74003e+10
       1001.7000   0.00126031  4.74130e+10
       1001.8000   0.00126031  4.74130e+10
       1001.9000   0.00126031  4.74130e+10
       1002.0000   0.00126031  4.74256e+10
       1002.1000   0.00126031  4.73499e+10
       1002.2000   0.00126031  4.72743e+10
       1002.3000   0.00126031  4.72113e+10
       1002.4000   0.00126031  4.71357e+10
       1002.5000   0.00123974  4.63043e+10
       1002.6000   0.00123974  4.62299e+10
       1002.7000   0.00123974  4.61679e+10
       1002.8000   0.00123974  4.61059e+10
       1002.9000   0.00123974  4.60439e+10
       1003.0000   0.00123974  4.59819e+10
       1003.1000   0.00123974  4.59200e+10
       1003.2000   0.00123974  4.58580e+10
       1003.3000   0.00123974  4.58084e+10
       1003.4000   0.00123974  4.57464e+10
       1003.5000   0.00121958  4.49539e+10
       1003.6000   0.00121958  4.49051e+10
       1003.7000   0.00121958  4.48441e+10
       1003.8000   0.00120297  4.41852e+10
       1003.9000   0.00120297  4.41371e+10
       1004.0000   0.00120297  4.40890e+10
       1004.1000   0.00120297  4.40168e+10
       1004.2000   0.00120297  4.39326e+10
       1004.3000   0.00120297  4.38724e+10
       1004.4000   0.00120297  4.38002e+10
       1004.5000   0.00118352  4.30327e+10
       1004.6000   0.00118352  4.29735e+10
       1004.7000   0.00118352  4.29262e+10
       1004.8000   0.00118352  4.28789e+10
       1004.9000   0.00118352  4.28434e+10
       1005.0000   0.00118352  4.28078e+10
       1005.1000   0.00118352  4.27723e+10
       1005.2000   0.00118352  4.27487e+10
       1005.3000   0.00118352  4.27250e+10
       1005.4000   0.00118352  4.27132e+10
       1005.5000   0.00116469  4.20220e+10
       1005.6000   0.00116469  4.20104e+10
       1005.7000   0.00116469  4.20104e+10
       1005.8000   0.00116469  4.20220e+10
       1005.9000   0.00116469  4.20220e+10
       1006.0000   0.00116469  4.20337e+10
       1006.1000   0.00116469  4.20570e+10
       1006.2000   0.00116469  4.20803e+10
       1006.3000   0.00114987  4.15679e+10
       1006.4000   0.00114987  4.16024e+10
       1006.5000   0.00113126  4.09628e+10
       1006.6000   0.00113126  4.10081e+10
       1006.7000   0.00113126  4.10533e+10
       1006.8000   0.00113126  4.10986e+10
       1006.9000   0.00113126  4.11552e+10
       1007.0000   0.00113126  4.12117e+10
       1007.1000   0.00113126  4.12796e+10
       1007.2000   0.00113126  4.13475e+10
       1007.3000   0.00113126  4.14153e+10
       1007.4000   0.00113126  4.14945e+10
       1007.5000   0.00111277  4.08945e+10
       1007.6000   0.00111277  4.09835e+10
       1007.7000   0.00111277  4.10725e+10
       1007.8000   0.00111277  4.11615e+10
       1007.9000   0.00111277  4.12617e+10
       1008.0000   0.00111277  4.13618e+10
       1008.1000   0.00111277  4.13730e+10
       1008.2000   0.00111277  4.13730e+10
       1008.3000   0.00111277  4.13730e+10
       1008.4000   0.00111277  4.13730e+10
       1008.5000   0.00109341  4.06531e+10
       1008.6000   0.00109341  4.06531e+10
       1008.7000   0.00109341  4.06531e+10
       1008.8000   0.00108062  4.01773e+10
       1008.9000   0.00108062  4.01773e+10
       1009.0000   0.00108062  4.01665e+10
       1009.1000   0.00108062  4.01665e+10
       1009.2000   0.00108062  4.01665e+10
       1009.3000   0.00108062  4.01665e+10
       1009.4000   0.00108062  4.01557e+10
       1009.5000   0.00105870  3.93414e+10
       1009.6000   0.00105870  3.93414e+10
       1009.7000   0.00105870  3.93308e+10
       1009.8000   0.00105870  3.93308e+10
       1009.9000   0.00105870  3.93202e+10
       1010.0000   0.00105870  3.93202e+10
       1010.1000   0.00105870  3.93096e+10
       1010.2000   0.00105870  3.92991e+10
       1010.3000   0.00105870  3.92885e+10
       1010.4000   0.00105870  3.92779e+10
       1010.5000   0.00103420  3.83584e+10
       1010.6000   0.00103420  3.83481e+10
       1010.7000   0.00103420  3.83377e+10
       1010.8000   0.00103420  3.83274e+10
       1010.9000   0.00103420  3.83170e+10
       1011.0000   0.00103420  3.83067e+10
       1011.1000   0.00103420  3.83067e+10
       1011.2000   0.00103420  3.82964e+10
       1011.3000   0.00102279  3.78637e+10
       1011.4000   0.00102279  3.78535e+10
       1011.5000  0.000993973  3.67770e+10
       1011.6000  0.000993973  3.67671e+10
       1011.7000  0.000993973  3.67571e+10
       1011.8000  0.000993973  3.67472e+10
       1011.9000  0.000993973  3.67372e+10
       1012.0000  0.000993973  3.67273e+10
       1012.1000  0.000993973  3.67174e+10
       1012.2000  0.000993973  3.67074e+10
       1012.3000  0.000993973  3.66975e+10
       1012.4000  0.000993973  3.66875e+10
       1012.5000  0.000957329  3.53254e+10
       1012.6000  0.000957329  3.53159e+10
       1012.7000  0.000957329  3.53063e+10
       1012.8000  0.000957329  3.52967e+10
       1012.9000  0.000957329  3.52967e+10
       1013.0000  0.000957329  3.52872e+10
       1013.1000  0.000957329  3.52776e+10
       1013.2000  0.000957329  3.52680e+10
       1013.3000  0.000957329  3.52584e+10
       1013.4000  0.000957329  3.52489e+10
       1013.5000  0.000911635  3.35573e+10
       1013.6000  0.000911635  3.35482e+10
       1013.7000  0.000911635  3.35391e+10
       1013.8000  0.000902261  3.31851e+10
       1013.9000  0.000902261  3.31761e+10
       1014.0000  0.000902261  3.31671e+10
       1014.1000  0.000902261  3.31491e+10
       1014.2000  0.000902261  3.31310e+10
       1014.3000  0.000902261  3.31130e+10
       1014.4000  0.000902261  3.30949e+10
       1014.5000  0.000849016  3.11334e+10
       1014.6000  0.000849016  3.11164e+10
       1014.7000  0.000849016  3.10995e+10
       1014.8000  0.000849016  3.10910e+10
       1014.9000  0.000849016  3.10740e+10
       1015.0000  0.000849016  3.10655e+10
       1015.1000  0.000849016  3.10485e+10
       1015.2000  0.000849016  3.10400e+10
       1015.3000  0.000849016  3.10315e+10
       1015.4000  0.000849016  3.10146e+10
       1015.5000  0.000784751  2.86591e+10
       1015.6000  0.000784751  2.86512e+10
       1015.7000  0.000784751  2.86434e+10
       1015.8000  0.000784751  2.86356e+10
       1015.9000  0.000784751  2.86277e+10
       1016.0000  0.000784751  2.86199e+10
       1016.1000  0.000784751  2.86199e+10
       1016.2000  0.000784751  2.86199e+10
       1016.3000  0.000777294  2.83479e+10
       1016.4000  0.000777294  2.83401e+10
       1016.5000  0.000702007  2.55952e+10
       1016.6000  0.000702007  2.55952e+10
       1016.7000  0.000702007  2.55952e+10
       1016.8000  0.000702007  2.55882e+10
       1016.9000  0.000702007  2.55882e+10
       1017.0000  0.000702007  2.55811e+10
       1017.1000  0.000702007  2.55811e+10
       1017.2000  0.000702007  2.55741e+10
       1017.3000  0.000702007  2.55741e+10
       1017.4000  0.000702007  2.55671e+10
       1017.5000  0.000624030  2.27272e+10
       1017.6000  0.000624030  2.27209e+10
       1017.7000  0.000624030  2.27147e+10
       1017.8000  0.000624030  2.27085e+10
       1017.9000  0.000624030  2.27022e+10
       1018.0000  0.000624030  2.27022e+10
       1018.1000  0.000624030  2.26897e+10
       1018.2000  0.000624030  2.26773e+10
       1018.3000  0.000624030  2.26648e+10
       1018.4000  0.000624030  2.26523e+10
       1018.5000  0.000541936  1.96669e+10
       1018.6000  0.000541936  1.96560e+10
       1018.7000  0.000541936  1.96506e+10
       1018.8000  0.000536974  1.94599e+10
       1018.9000  0.000536974  1.94546e+10
       1019.0000  0.000536974  1.94438e+10
       1019.1000  0.000536974  1.94385e+10
       1019.2000  0.000536974  1.94331e+10
       1019.3000  0.000536974  1.94277e+10
       1019.4000  0.000536974  1.94170e+10
       1019.5000  0.000455582  1.64693e+10
       1019.6000  0.000455582  1.64647e+10
       1019.7000  0.000455582  1.64602e+10
       1019.8000  0.000455582  1.64602e+10
       1019.9000  0.000455582  1.64556e+10
       1020.0000  0.000455582  1.64511e+10
       1020.1000  0.000455582  1.64465e+10
       1020.2000  0.000455582  1.64420e+10
       1020.3000  0.000455582  1.64420e+10
       1020.4000  0.000455582  1.64374e+10
       1020.5000  0.000378972  1.36733e+10
       1020.6000  0.000378972  1.36695e+10
       1020.7000  0.000378972  1.36695e+10
       1020.8000  0.000378972  1.36657e+10
       1020.9000  0.000378972  1.36657e+10
       1021.0000  0.000378972  1.36657e+10
       1021.1000  0.000378972  1.36657e+10
       1021.2000  0.000378972  1.36657e+10
       1021.3000  0.000376156  1.35642e+10
       1021.4000  0.000376156  1.35642e+10
       1021.5000  0.000310145  1.11838e+10
       1021.6000  0.000310145  1.11838e+10
       1021.7000  0.000310145  1.11838e+10
       1021.8000  0.000310145  1.11869e+10
       1021.9000  0.000310145  1.11869e+10
       1022.0000  0.000310145  1.11900e+10
       1022.1000  0.000310145  1.11900e+10
       1022.2000  0.000310145  1.11931e+10
       1022.3000  0.000310145  1.11962e+10
       1022.4000  0.000310145  1.11962e+10
       1022.5000  0.000249710  9.01702e+09
       1022.6000  0.000249710  9.01952e+09
       1022.7000  0.000249710  9.02202e+09
       1022.8000  0.000249710  9.02452e+09
       1022.9000  0.000249710  9.02701e+09
       1023.0000  0.000249710  9.02951e+09
       1023.1000  0.000249710  9.03450e+09
       1023.2000  0.000249710  9.03700e+09
       1023.3000  0.000249710  9.03950e+09
       1023.4000  0.000249710  9.04449e+09
       1023.5000  0.000199316  7.22122e+09
       1023.6000  0.000199316  7.22520e+09
       1023.7000  0.000199316  7.22720e+09
       1023.8000  0.000198065  7.18581e+09
       1023.9000  0.000198065  7.18977e+09
       1024.0000  0.000198065  7.19373e+09
       1024.1000  0.000198065  7.19373e+09
       1024.2000  0.000198065  7.19175e+09
       1024.3000  0.000198065  7.19175e+09
       1024.4000  0.000198065  7.19175e+09
       1024.5000  0.000158359  5.75002e+09
       1024.6000  0.000158359  5.74843e+09
       1024.7000  0.000158359  5.74843e+09
       1024.8000  0.000158359  5.74843e+09
       1024.9000  0.000158359  5.74685e+09
       1025.0000  0.000158359  5.74685e+09
       1025.1000  0.000158359  5.74685e+09
       1025.2000  0.000158359  5.74527e+09
       1025.3000  0.000158359  5.74527e+09
       1025.4000  0.000158359  5.74527e+09
       1025.5000  0.000125269  4.54352e+09
       1025.6000  0.000125269  4.54352e+09
       1025.7000  0.000125269  4.54226e+09
       1025.8000  0.000125269  4.54226e+09
       1025.9000  0.000125269  4.54101e+09
       1026.0000  0.000125269  4.54101e+09
       1026.1000  0.000125269  4.54101e+09
       1026.2000  0.000125269  4.53976e+09
       1026.3000  0.000124488  4.51145e+09
       1026.4000  0.000124488  4.51020e+09
       1026.5000  9.75253e-05  3.53334e+09
       1026.6000  9.75253e-05  3.53237e+09
       1026.7000  9.75253e-05  3.53139e+09
       1026.8000  9.75253e-05  3.53139e+09
       1026.9000  9.75253e-05  3.53042e+09
       1027.0000  9.75253e-05  3.53042e+09
       1027.1000  9.75253e-05  3.52944e+09
       1027.2000  9.75253e-05  3.52847e+09
       1027.3000  9.75253e-05  3.52847e+09
       1027.4000  9.75253e-05  3.52749e+09
       1027.5000  7.77410e-05  2.81112e+09
       1027.6000  7.77410e-05  2.81112e+09
       1027.7000  7.77410e-05  2.81034e+09
       1027.8000  7.77410e-05  2.80956e+09
       1027.9000  7.77410e-05  2.80878e+09
       1028.0000  7.77410e-05  2.80801e+09
       1028.1000  7.77410e-05  2.80801e+09
       1028.2000  7.77410e-05  2.80723e+09
       1028.3000  7.77410e-05  2.80645e+09
       1028.4000  7.77410e-05  2.80567e+09
       1028.5000  6.14714e-05  2.21789e+09
       1028.6000  6.14714e-05  2.21727e+09
       1028.7000  6.14714e-05  2.21666e+09
       1028.8000  6.09442e-05  2.19704e+09
       1028.9000  6.09442e-05  2.19643e+09
       1029.0000  6.09442e-05  2.19582e+09
       1029.1000  6.09442e-05  2.19521e+09
       1029.2000  6.09442e-05  2.19460e+09
       1029.3000  6.09442e-05  2.19399e+09
       1029.4000  6.09442e-05  2.19338e+09
       1029.5000  4.79574e-05  1.72551e+09
       1029.6000  4.79574e-05  1.72503e+09
       1029.7000  4.79574e-05  1.72455e+09
       1029.8000  4.79574e-05  1.72407e+09
       1029.9000  4.79574e-05  1.72359e+09
       1030.0000  4.79574e-05  1.72263e+09
       1030.1000  4.79574e-05  1.72311e+09
       1030.2000  4.79574e-05  1.72311e+09
       1030.3000  4.79574e-05  1.72311e+09
       1030.4000  4.79574e-05  1.72311e+09
       1030.5000  3.82938e-05  1.37589e+09
       1030.6000  3.82938e-05  1.37589e+09
       1030.7000  3.82938e-05  1.37551e+09
       1030.8000  3.82938e-05  1.37551e+09
       1030.9000  3.82938e-05  1.37551e+09
       1031.0000  3.82938e-05  1.37513e+09
       1031.1000  3.82938e-05  1.37513e+09
       1031.2000  3.82938e-05  1.37475e+09
       1031.3000  3.77727e-05  1.35604e+09
       1031.4000  3.77727e-05  1.35566e+09
       1031.5000  3.02523e-05  1.08545e+09
       1031.6000  3.02523e-05  1.08515e+09
       1031.7000  3.02523e-05  1.08485e+09
       1031.8000  3.02523e-05  1.08455e+09
       1031.9000  3.02523e-05  1.08424e+09
       1032.0000  3.02523e-05  1.08394e+09
       1032.1000  3.02523e-05  1.08303e+09
       1032.2000  3.02523e-05  1.08182e+09
       1032.3000  3.02523e-05  1.08092e+09
       1032.4000  3.02523e-05  1.08031e+09
       1032.5000  2.38464e-05  8.50840e+08
       1032.6000  2.38464e-05  8.50124e+08
       1032.7000  2.38464e-05  8.49647e+08
       1032.8000  2.38464e-05  8.48932e+08
       1032.9000  2.38464e-05  8.48455e+08
       1033.0000  2.38464e-05  8.47978e+08
       1033.1000  2.38464e-05  8.47501e+08
       1033.2000  2.38464e-05  8.47263e+08
       1033.3000  2.38464e-05  8.46786e+08
       1033.4000  2.38464e-05  8.46548e+08
       1033.5000  1.92894e-05  6.84387e+08
       1033.6000  1.92894e-05  6.84194e+08
       1033.7000  1.92894e-05  6.84001e+08
       1033.8000  1.89222e-05  6.70792e+08
       1033.9000  1.89222e-05  6.70792e+08
       1034.0000  1.89222e-05  6.70602e+08
       1034.1000  1.89222e-05  6.70602e+08
       1034.2000  1.89222e-05  6.70413e+08
       1034.3000  1.89222e-05  6.70413e+08
       1034.4000  1.89222e-05  6.70413e+08
       1034.5000  1.51275e-05  5.35968e+08
       1034.6000  1.51275e-05  5.36119e+08
       1034.7000  1.51275e-05  5.36119e+08
       1034.8000  1.51275e-05  5.36271e+08
       1034.9000  1.51275e-05  5.36271e+08
       1035.0000  1.51275e-05  5.36422e+08
       1035.1000  1.51275e-05  5.36573e+08
       1035.2000  1.51275e-05  5.36725e+08
       1035.3000  1.51275e-05  5.37027e+08
       1035.4000  1.51275e-05  5.37178e+08
       1035.5000  1.21915e-05  4.33163e+08
       1035.6000  1.21915e-05  4.33407e+08
       1035.7000  1.21915e-05  4.33529e+08
       1035.8000  1.21915e-05  4.33772e+08
       1035.9000  1.21915e-05  4.34138e+08
       1036.0000  1.21915e-05  4.34382e+08
       1036.1000  1.21915e-05  4.34138e+08
       1036.2000  1.21915e-05  4.33894e+08
       1036.3000  1.19068e-05  4.23525e+08
       1036.4000  1.19068e-05  4.23287e+08
       1036.5000  9.48864e-06  3.37131e+08
       1036.6000  9.48864e-06  3.36942e+08
       1036.7000  9.48864e-06  3.36847e+08
       1036.8000  9.48864e-06  3.36657e+08
       1036.9000  9.48864e-06  3.36467e+08
       1037.0000  9.48864e-06  3.36372e+08
       1037.1000  9.48864e-06  3.36278e+08
       1037.2000  9.48864e-06  3.36088e+08
       1037.3000  9.48864e-06  3.35993e+08
       1037.4000  9.48864e-06  3.35898e+08
       1037.5000  7.64436e-06  2.70534e+08
       1037.6000  7.64436e-06  2.70457e+08
       1037.7000  7.64436e-06  2.70381e+08
       1037.8000  7.64436e-06  2.70305e+08
       1037.9000  7.64436e-06  2.70228e+08
       1038.0000  7.64436e-06  2.70152e+08
       1038.1000  7.64436e-06  2.70152e+08
       1038.2000  7.64436e-06  2.70152e+08
       1038.3000  7.64436e-06  2.70228e+08
       1038.4000  7.64436e-06  2.70228e+08
       1038.5000  6.24589e-06  2.20792e+08
       1038.6000  6.24589e-06  2.20792e+08
       1038.7000  6.24589e-06  2.20792e+08
       1038.8000  6.08338e-06  2.15047e+08
       1038.9000  6.08338e-06  2.15047e+08
       1039.0000  6.08338e-06  2.15047e+08
       1039.1000  6.08338e-06  2.15047e+08
       1039.2000  6.08338e-06  2.15047e+08
       1039.3000  6.08338e-06  2.15047e+08
       1039.4000  6.08338e-06  2.15047e+08
       1039.5000  4.95005e-06  1.74984e+08
       1039.6000  4.95005e-06  1.74984e+08
       1039.7000  4.95005e-06  1.74984e+08
       1039.8000  4.95005e-06  1.74984e+08
       1039.9000  4.95005e-06  1.74984e+08
       1040.0000  4.95005e-06  1.74984e+08
       1040.1000  4.95005e-06  1.74984e+08
       1040.2000  4.95005e-06  1.74984e+08
       1040.3000  4.95005e-06  1.74984e+08
       1040.4000  4.95005e-06  1.74984e+08
       1040.5000  3.91472e-06  1.38385e+08
       1040.6000  3.91472e-06  1.38385e+08
       1040.7000  3.91472e-06  1.38385e+08
       1040.8000  3.91472e-06  1.38385e+08
       1040.9000  3.91472e-06  1.38385e+08
       1041.0000  3.91472e-06  1.38385e+08
       1041.1000  3.91472e-06  1.38385e+08
       1041.2000  3.91472e-06  1.38385e+08
       1041.3000  3.80260e-06  1.34422e+08
       1041.4000  3.80260e-06  1.34422e+08
       1041.5000  3.14089e-06  1.11030e+08
       1041.6000  3.14089e-06  1.11030e+08
       1041.7000  3.14089e-06  1.11030e+08
       1041.8000  3.14089e-06  1.10999e+08
       1041.9000  3.14089e-06  1.10999e+08
       1042.0000  3.14089e-06  1.10999e+08
       1042.1000  3.14089e-06  1.11030e+08
       1042.2000  3.14089e-06  1.11030e+08
       1042.3000  3.14089e-06  1.11062e+08
       1042.4000  3.14089e-06  1.11062e+08
       1042.5000  2.56700e-06  9.07691e+07
       1042.6000  2.56700e-06  9.07691e+07
       1042.7000  2.56700e-06  9.07691e+07
       1042.8000  2.56700e-06  9.07435e+07
       1042.9000  2.56700e-06  9.07435e+07
       1043.0000  2.56700e-06  9.07435e+07
       1043.1000  2.56700e-06  9.07178e+07
       1043.2000  2.56700e-06  9.06921e+07
       1043.3000  2.56700e-06  9.06921e+07
       1043.4000  2.56700e-06  9.06664e+07
       1043.5000  2.06048e-06  7.27555e+07
       1043.6000  2.06048e-06  7.27349e+07
       1043.7000  2.06048e-06  7.27143e+07
       1043.8000  2.00154e-06  7.05942e+07
       1043.9000  2.00154e-06  7.05742e+07
       1044.0000  2.00154e-06  7.05342e+07
       1044.1000  2.00154e-06  7.04541e+07
       1044.2000  2.00154e-06  7.03540e+07
       1044.3000  2.00154e-06  7.02740e+07
       1044.4000  2.00154e-06  7.01939e+07
       1044.5000  1.58673e-06  5.55832e+07
       1044.6000  1.58673e-06  5.55356e+07
       1044.7000  1.58673e-06  5.54721e+07
       1044.8000  1.58673e-06  5.54245e+07
       1044.9000  1.58673e-06  5.53769e+07
       1045.0000  1.58673e-06  5.53293e+07
       1045.1000  1.58673e-06  5.52975e+07
       1045.2000  1.58673e-06  5.52499e+07
       1045.3000  1.58673e-06  5.52182e+07
       1045.4000  1.58673e-06  5.51865e+07
       1045.5000  1.34838e-06  4.68831e+07
       1045.6000  1.34838e-06  4.68561e+07
       1045.7000  1.34838e-06  4.68426e+07
       1045.8000  1.34838e-06  4.68291e+07
       1045.9000  1.34838e-06  4.68156e+07
       1046.0000  1.34838e-06  4.68022e+07
       1046.1000  1.34838e-06  4.68022e+07
       1046.2000  1.34838e-06  4.67887e+07
       1046.3000  1.31010e-06  4.54605e+07
       1046.4000  1.31010e-06  4.54605e+07
       1046.5000  1.07479e-06  3.73059e+07
       1046.6000  1.07479e-06  3.73059e+07
       1046.7000  1.07479e-06  3.73166e+07
       1046.8000  1.07479e-06  3.73274e+07
       1046.9000  1.07479e-06  3.73381e+07
       1047.0000  1.07479e-06  3.73596e+07
       1047.1000  1.07479e-06  3.73704e+07
       1047.2000  1.07479e-06  3.73919e+07
       1047.3000  1.07479e-06  3.74134e+07
       1047.4000  1.07479e-06  3.74349e+07
       1047.5000  8.48002e-07  2.95613e+07
       1047.6000  8.48002e-07  2.95783e+07
       1047.7000  8.48002e-07  2.96037e+07
       1047.8000  8.48002e-07  2.96292e+07
       1047.9000  8.48002e-07  2.96546e+07
       1048.0000  8.48002e-07  2.96885e+07
       1048.1000  8.48002e-07  2.96885e+07
       1048.2000  8.48002e-07  2.96885e+07
       1048.3000  8.48002e-07  2.96885e+07
       1048.4000  8.48002e-07  2.96801e+07
       1048.5000  6.95896e-07  2.43564e+07
       1048.6000  6.95896e-07  2.43564e+07
       1048.7000  6.95896e-07  2.43564e+07
       1048.8000  6.77696e-07  2.37194e+07
       1048.9000  6.77696e-07  2.37194e+07
       1049.0000  6.77696e-07  2.37126e+07
       1049.1000  6.77696e-07  2.37126e+07
       1049.2000  6.77696e-07  2.37126e+07
       1049.3000  6.77696e-07  2.37058e+07
       1049.4000  6.77696e-07  2.37058e+07
       1049.5000  5.58680e-07  1.95426e+07
       1049.6000  5.58680e-07  1.95370e+07
       1049.7000  5.58680e-07  1.95370e+07
       1049.8000  5.58680e-07  1.95370e+07
       1049.9000  5.58680e-07  1.95315e+07
       1050.0000  5.58680e-07  1.95315e+07
       1050.1000  5.58680e-07  1.95259e+07
       1050.2000  5.58680e-07  1.95259e+07
       1050.3000  5.58680e-07  1.95203e+07
       1050.4000  5.58680e-07  1.95147e+07
       1050.5000  4.59655e-07  1.60558e+07
       1050.6000  4.59655e-07  1.60512e+07
       1050.7000  4.59655e-07  1.60512e+07
       1050.8000  4.59655e-07  1.60466e+07
       1050.9000  4.59655e-07  1.60420e+07
       1051.0000  4.59655e-07  1.60420e+07
       1051.1000  4.59655e-07  1.60374e+07
       1051.2000  4.59655e-07  1.60374e+07
       1051.3000  4.49369e-07  1.56740e+07
       1051.4000  4.49369e-07  1.56695e+07
       1051.5000  3.71262e-07  1.29459e+07
       1051.6000  3.71262e-07  1.29422e+07
       1051.7000  3.71262e-07  1.29385e+07
       1051.8000  3.71262e-07  1.29385e+07
       1051.9000  3.71262e-07  1.29348e+07
       1052.0000  3.71262e-07  1.29348e+07
       1052.1000  3.71262e-07  1.29311e+07
       1052.2000  3.71262e-07  1.29273e+07
       1052.3000  3.71262e-07  1.29273e+07
       1052.4000  3.71262e-07  1.29236e+07
       1052.5000  2.76289e-07  9.61486e+06
       1052.6000  2.76289e-07  9.61486e+06
       1052.7000  2.76289e-07  9.61210e+06
       1052.8000  2.76289e-07  9.60934e+06
       1052.9000  2.76289e-07  9.60934e+06
       1053.0000  2.76289e-07  9.60658e+06
       1053.1000  2.76289e-07  9.60658e+06
       1053.2000  2.76289e-07  9.60381e+06
       1053.3000  2.76289e-07  9.60105e+06
       1053.4000  2.76289e-07  9.60105e+06
       1053.5000  2.14189e-07  7.44094e+06
       1053.6000  2.14189e-07  7.43880e+06
       1053.7000  2.14189e-07  7.43880e+06
       1053.8000  2.10189e-07  7.29775e+06
       1053.9000  2.10189e-07  7.29565e+06
       1054.0000  2.10189e-07  7.29565e+06
       1054.1000  2.10189e-07  7.29985e+06
       1054.2000  2.10189e-07  7.30195e+06
       1054.3000  2.10189e-07  7.30616e+06
       1054.4000  2.10189e-07  7.31036e+06
       1054.5000  1.54486e-07  5.37458e+06
       1054.6000  1.54486e-07  5.37612e+06
       1054.7000  1.54486e-07  5.37767e+06
       1054.8000  1.54486e-07  5.37921e+06
       1054.9000  1.54486e-07  5.38076e+06
       1055.0000  1.54486e-07  5.38230e+06
       1055.1000  1.54486e-07  5.38230e+06
       1055.2000  1.54486e-07  5.38230e+06
       1055.3000  1.54486e-07  5.38385e+06
       1055.4000  1.54486e-07  5.38385e+06
       1055.5000  1.09161e-07  3.80319e+06
       1055.6000  1.09161e-07  3.80319e+06
       1055.7000  1.09161e-07  3.80319e+06
       1055.8000  1.09161e-07  3.80209e+06
       1055.9000  1.09161e-07  3.80100e+06
       1056.0000  1.09161e-07  3.79991e+06
       1056.1000  1.09161e-07  3.79664e+06
       1056.2000  1.09161e-07  3.79336e+06
       1056.3000  1.07171e-07  3.72097e+06
       1056.4000  1.07171e-07  3.71668e+06
       1056.5000  6.07484e-08  2.10493e+06
       1056.6000  6.07484e-08  2.10372e+06
       1056.7000  6.07484e-08  2.10189e+06
       1056.8000  6.07484e-08  2.10007e+06
       1056.9000  6.07484e-08  2.09825e+06
       1057.0000  6.07484e-08  2.09703e+06
