PDS_VERSION_ID         = PDS3
RECORD_TYPE            = STREAM
OBJECT                 = TEXT
  PUBLICATION_DATE     = 2014-04-25
  INTERCHANGE_FORMAT   = ASCII
  NOTE                 = "System transmission vs. wavelength."
END_OBJECT             = TEXT
END
    
The systrans directory contains the non-wavelength-integrated system 
transmission values (QE*optics*filter1*filter2) for each filter combination. 
The naming convention for these files is as follows:

<camera><filter 1><filter 2>_systrans.tab

where <camera> is "issna" or "isswa," and <filter 1> and <filter 2> represent
the filter names. For polarized filter combinations, values are given for the
parallel orientation of the filter (full transmission), with values for the 
perpendicular (blocking) orientation provided in files with subscript 
"_b_systrans.tab". 

Columns in systrans files are as follows:

 1st column: Wavelength (nm)  
 2nd column: Transmitted Flux
 3rd column: Transmitted Flux * Solar Flux (phot per cm^2-s-angstrom at 1 AU)

The solar spectrum used for this calculation is provided in solarflux.tab.

\begindata
       600.00000  1.24473e-07  6.62944e+06
       600.10000  1.24473e-07  6.61948e+06
       600.20000  1.24473e-07  6.60828e+06
       600.30000  1.24473e-07  6.59459e+06
       600.40000  1.24473e-07  6.57841e+06
       600.50000  4.07849e-08  2.15018e+06
       600.60000  4.07849e-08  2.15304e+06
       600.70000  4.07849e-08  2.15548e+06
       600.80000  4.07849e-08  2.15793e+06
       600.90000  4.07849e-08  2.15956e+06
       601.00000  4.07849e-08  2.16078e+06
       601.10000  4.07849e-08  2.16119e+06
       601.20000  4.07849e-08  2.16160e+06
       601.30000  4.07641e-08  2.16050e+06
       601.40000  4.07641e-08  2.15968e+06
       601.50000  2.76787e-07  1.46586e+07
       601.60000  2.76787e-07  1.45950e+07
       601.70000  2.76787e-07  1.45424e+07
       601.80000  2.76787e-07  1.44953e+07
       601.90000  2.76787e-07  1.44594e+07
       602.00000  2.76787e-07  1.44317e+07
       602.10000  2.76787e-07  1.44095e+07
       602.20000  2.76787e-07  1.43985e+07
       602.30000  2.76787e-07  1.43957e+07
       602.40000  2.76787e-07  1.44012e+07
       602.50000  1.23985e-07  6.45588e+06
       602.60000  1.23985e-07  6.46580e+06
       602.70000  1.23985e-07  6.47944e+06
       602.80000  1.23985e-07  6.49680e+06
       602.90000  1.23985e-07  6.51788e+06
       603.00000  1.23985e-07  6.54267e+06
       603.10000  1.23985e-07  6.57119e+06
       603.20000  1.23985e-07  6.60343e+06
       603.30000  1.23985e-07  6.63938e+06
       603.40000  1.23985e-07  6.67906e+06
       603.50000  2.46401e-07  1.33599e+07
       603.60000  2.46401e-07  1.33549e+07
       603.70000  2.46401e-07  1.33500e+07
       603.80000  2.46528e-07  1.33519e+07
       603.90000  2.46528e-07  1.33445e+07
       604.00000  2.46528e-07  1.33396e+07
       604.10000  2.46528e-07  1.33322e+07
       604.20000  2.46528e-07  1.33273e+07
       604.30000  2.46528e-07  1.33199e+07
       604.40000  2.46528e-07  1.33150e+07
       604.50000  1.05159e-07  5.67646e+06
       604.60000  1.05159e-07  5.67225e+06
       604.70000  1.05159e-07  5.66805e+06
       604.80000  1.05159e-07  5.66384e+06
       604.90000  1.05159e-07  5.65963e+06
       605.00000  1.05159e-07  5.65648e+06
       605.10000  1.05159e-07  5.65332e+06
       605.20000  1.05159e-07  5.65122e+06
       605.30000  1.05159e-07  5.64807e+06
       605.40000  1.05159e-07  5.64596e+06
       605.50000  1.69826e-07  9.11457e+06
       605.60000  1.69826e-07  9.11287e+06
       605.70000  1.69826e-07  9.10947e+06
       605.80000  1.69826e-07  9.10778e+06
       605.90000  1.69826e-07  9.10778e+06
       606.00000  1.69826e-07  9.10608e+06
       606.10000  1.69826e-07  9.10608e+06
       606.20000  1.69826e-07  9.10608e+06
       606.30000  1.70011e-07  9.11599e+06
       606.40000  1.70011e-07  9.11769e+06
       606.50000  1.80785e-07  9.69733e+06
       606.60000  1.80785e-07  9.70094e+06
       606.70000  1.80785e-07  9.70275e+06
       606.80000  1.80785e-07  9.70637e+06
       606.90000  1.80785e-07  9.70637e+06
       607.00000  1.80785e-07  9.70818e+06
       607.10000  1.80785e-07  9.70818e+06
       607.20000  1.80785e-07  9.70818e+06
       607.30000  1.80785e-07  9.70637e+06
       607.40000  1.80785e-07  9.70456e+06
       607.50000  1.97250e-07  1.05864e+07
       607.60000  1.97250e-07  1.05746e+07
       607.70000  1.97250e-07  1.05647e+07
       607.80000  1.97250e-07  1.05568e+07
       607.90000  1.97250e-07  1.05489e+07
       608.00000  1.97250e-07  1.05410e+07
       608.10000  1.97250e-07  1.05351e+07
       608.20000  1.97250e-07  1.05292e+07
       608.30000  1.97250e-07  1.05253e+07
       608.40000  1.97250e-07  1.05213e+07
       608.50000  2.16784e-07  1.15611e+07
       608.60000  2.16784e-07  1.15589e+07
       608.70000  2.16784e-07  1.15567e+07
       608.80000  2.16879e-07  1.15618e+07
       608.90000  2.16879e-07  1.15640e+07
       609.00000  2.16879e-07  1.15662e+07
       609.10000  2.16879e-07  1.15683e+07
       609.20000  2.16879e-07  1.15727e+07
       609.30000  2.16879e-07  1.15770e+07
       609.40000  2.16879e-07  1.15835e+07
       609.50000  5.66891e-08  3.03003e+06
       609.60000  5.66891e-08  3.01643e+06
       609.70000  5.66891e-08  3.00452e+06
       609.80000  5.66891e-08  2.99432e+06
       609.90000  5.66891e-08  2.98582e+06
       610.00000  5.66891e-08  2.97845e+06
       610.10000  5.66891e-08  2.97221e+06
       610.20000  5.66891e-08  2.96767e+06
       610.30000  5.66891e-08  2.96484e+06
       610.40000  5.66891e-08  2.96371e+06
       610.50000  2.02156e-07  1.05667e+07
       610.60000  2.02156e-07  1.06193e+07
       610.70000  2.02156e-07  1.06658e+07
       610.80000  2.02156e-07  1.07082e+07
       610.90000  2.02156e-07  1.07446e+07
       611.00000  2.02156e-07  1.07749e+07
       611.10000  2.02156e-07  1.08012e+07
       611.20000  2.02156e-07  1.08214e+07
       611.30000  2.02235e-07  1.08418e+07
       611.40000  2.02235e-07  1.08519e+07
       611.50000  1.60643e-07  8.62333e+06
       611.60000  1.60643e-07  8.62333e+06
       611.70000  1.60643e-07  8.61851e+06
       611.80000  1.60643e-07  8.61048e+06
       611.90000  1.60643e-07  8.59763e+06
       612.00000  1.60643e-07  8.58156e+06
       612.10000  1.60643e-07  8.56068e+06
       612.20000  1.60643e-07  8.53498e+06
       612.30000  1.60643e-07  8.50606e+06
       612.40000  1.60643e-07  8.47232e+06
       612.50000  2.04647e-07  1.07460e+07
       612.60000  2.04647e-07  1.07194e+07
       612.70000  2.04647e-07  1.06948e+07
       612.80000  2.04647e-07  1.06744e+07
       612.90000  2.04647e-07  1.06580e+07
       613.00000  2.04647e-07  1.06437e+07
       613.10000  2.04647e-07  1.06334e+07
       613.20000  2.04647e-07  1.06252e+07
       613.30000  2.04647e-07  1.06212e+07
       613.40000  2.04647e-07  1.06212e+07
       613.50000  1.82678e-07  9.48284e+06
       613.60000  1.82678e-07  9.51024e+06
       613.70000  1.82678e-07  9.53399e+06
       613.80000  1.82640e-07  9.55390e+06
       613.90000  1.82640e-07  9.57582e+06
       614.00000  1.82640e-07  9.59591e+06
       614.10000  1.82640e-07  9.61234e+06
       614.20000  1.82640e-07  9.62878e+06
       614.30000  1.82640e-07  9.64339e+06
       614.40000  1.82640e-07  9.65618e+06
       614.50000  8.80765e-08  4.66189e+06
       614.60000  8.80765e-08  4.66630e+06
       614.70000  8.80765e-08  4.66982e+06
       614.80000  8.80765e-08  4.67246e+06
       614.90000  8.80765e-08  4.67422e+06
       615.00000  8.80765e-08  4.67510e+06
       615.10000  8.80765e-08  4.67598e+06
       615.20000  8.80765e-08  4.67510e+06
       615.30000  8.80765e-08  4.67422e+06
       615.40000  8.80765e-08  4.67246e+06
       615.50000  3.53765e-07  1.87531e+07
       615.60000  3.53765e-07  1.85444e+07
       615.70000  3.53765e-07  1.83533e+07
       615.80000  3.53765e-07  1.81871e+07
       615.90000  3.53765e-07  1.80456e+07
       616.00000  3.53765e-07  1.79217e+07
       616.10000  3.53765e-07  1.78227e+07
       616.20000  3.53765e-07  1.77449e+07
       616.30000  3.54317e-07  1.77159e+07
       616.40000  3.54317e-07  1.76840e+07
       616.50000  2.91218e-07  1.45230e+07
       616.60000  2.91218e-07  1.46483e+07
       616.70000  2.91218e-07  1.47648e+07
       616.80000  2.91218e-07  1.48725e+07
       616.90000  2.91218e-07  1.49744e+07
       617.00000  2.91218e-07  1.50705e+07
       617.10000  2.91218e-07  1.51579e+07
       617.20000  2.91218e-07  1.52365e+07
       617.30000  2.91218e-07  1.53093e+07
       617.40000  2.91218e-07  1.53763e+07
       617.50000  3.70891e-07  1.96572e+07
       617.60000  3.70891e-07  1.97203e+07
       617.70000  3.70891e-07  1.97759e+07
       617.80000  3.70891e-07  1.98241e+07
       617.90000  3.70891e-07  1.98575e+07
       618.00000  3.70891e-07  1.98872e+07
       618.10000  3.70891e-07  1.99057e+07
       618.20000  3.70891e-07  1.99131e+07
       618.30000  3.70891e-07  1.99131e+07
       618.40000  3.70891e-07  1.99020e+07
       618.50000  6.49873e-08  3.48397e+06
       618.60000  6.49873e-08  3.47747e+06
       618.70000  6.49873e-08  3.47097e+06
       618.80000  6.50531e-08  3.46993e+06
       618.90000  6.50531e-08  3.46538e+06
       619.00000  6.50531e-08  3.46213e+06
       619.10000  6.50531e-08  3.45953e+06
       619.20000  6.50531e-08  3.45822e+06
       619.30000  6.50531e-08  3.45757e+06
       619.40000  6.50531e-08  3.45757e+06
       619.50000  9.92919e-08  5.27935e+06
       619.60000  9.92919e-08  5.29821e+06
       619.70000  9.92919e-08  5.31509e+06
       619.80000  9.92919e-08  5.32999e+06
       619.90000  9.92919e-08  5.34290e+06
       620.00000  9.92919e-08  5.35282e+06
       620.10000  9.92919e-08  5.36077e+06
       620.20000  9.92919e-08  5.36672e+06
       620.30000  9.92919e-08  5.37070e+06
       620.40000  9.92919e-08  5.37169e+06
       620.50000  2.80135e-07  1.51553e+07
       620.60000  2.80135e-07  1.50937e+07
       620.70000  2.80135e-07  1.50348e+07
       620.80000  2.80135e-07  1.49844e+07
       620.90000  2.80135e-07  1.49396e+07
       621.00000  2.80135e-07  1.49004e+07
       621.10000  2.80135e-07  1.48668e+07
       621.20000  2.80135e-07  1.48415e+07
       621.30000  2.80232e-07  1.48243e+07
       621.40000  2.80232e-07  1.48075e+07
       621.50000  1.37549e-07  7.26398e+06
       621.60000  1.37549e-07  7.28874e+06
       621.70000  1.37549e-07  7.31074e+06
       621.80000  1.37549e-07  7.32863e+06
       621.90000  1.37549e-07  7.34513e+06
       622.00000  1.37549e-07  7.35751e+06
       622.10000  1.37549e-07  7.36714e+06
       622.20000  1.37549e-07  7.37264e+06
       622.30000  1.37549e-07  7.37677e+06
       622.40000  1.37549e-07  7.37677e+06
       622.50000  2.05563e-07  1.10202e+07
       622.60000  2.05563e-07  1.10120e+07
       622.70000  2.05563e-07  1.09997e+07
       622.80000  2.05563e-07  1.09832e+07
       622.90000  2.05563e-07  1.09606e+07
       623.00000  2.05563e-07  1.09359e+07
       623.10000  2.05563e-07  1.09051e+07
       623.20000  2.05563e-07  1.08681e+07
       623.30000  2.05563e-07  1.08290e+07
       623.40000  2.05563e-07  1.07838e+07
       623.50000  1.58672e-07  8.28744e+06
       623.60000  1.58672e-07  8.28585e+06
       623.70000  1.58672e-07  8.28585e+06
       623.80000  1.58596e-07  8.27874e+06
       623.90000  1.58596e-07  8.27715e+06
       624.00000  1.58596e-07  8.27398e+06
       624.10000  1.58596e-07  8.26922e+06
       624.20000  1.58596e-07  8.26446e+06
       624.30000  1.58596e-07  8.25970e+06
       624.40000  1.58596e-07  8.25336e+06
       624.50000  1.97747e-07  1.02828e+07
       624.60000  1.97747e-07  1.02433e+07
       624.70000  1.97747e-07  1.02117e+07
       624.80000  1.97747e-07  1.01840e+07
       624.90000  1.97747e-07  1.01622e+07
       625.00000  1.97747e-07  1.01464e+07
       625.10000  1.97747e-07  1.01365e+07
       625.20000  1.97747e-07  1.01306e+07
       625.30000  1.97747e-07  1.01326e+07
       625.40000  1.97747e-07  1.01385e+07
       625.50000  1.85073e-07  9.49981e+06
       625.60000  1.85073e-07  9.51462e+06
       625.70000  1.85073e-07  9.53683e+06
       625.80000  1.85073e-07  9.56274e+06
       625.90000  1.85073e-07  9.59420e+06
       626.00000  1.85073e-07  9.63121e+06
       626.10000  1.85073e-07  9.67378e+06
       626.20000  1.85073e-07  9.72005e+06
       626.30000  1.84860e-07  9.76247e+06
       626.40000  1.84860e-07  9.81978e+06
       626.50000  9.26596e-08  4.95265e+06
       626.60000  9.26596e-08  4.95358e+06
       626.70000  9.26596e-08  4.95451e+06
       626.80000  9.26596e-08  4.95543e+06
       626.90000  9.26596e-08  4.95636e+06
       627.00000  9.26596e-08  4.95729e+06
       627.10000  9.26596e-08  4.95821e+06
       627.20000  9.26596e-08  4.95821e+06
       627.30000  9.26596e-08  4.95914e+06
       627.40000  9.26596e-08  4.96007e+06
       627.50000  2.30641e-07  1.23485e+07
       627.60000  2.30641e-07  1.23577e+07
       627.70000  2.30641e-07  1.23647e+07
       627.80000  2.30641e-07  1.23693e+07
       627.90000  2.30641e-07  1.23739e+07
       628.00000  2.30641e-07  1.23762e+07
       628.10000  2.30641e-07  1.23785e+07
       628.20000  2.30641e-07  1.23785e+07
       628.30000  2.30641e-07  1.23762e+07
       628.40000  2.30641e-07  1.23739e+07
       628.50000  5.24442e-08  2.81258e+06
       628.60000  5.24442e-08  2.81101e+06
       628.70000  5.24442e-08  2.80943e+06
       628.80000  5.23267e-08  2.80105e+06
       628.90000  5.23267e-08  2.79843e+06
       629.00000  5.23267e-08  2.79581e+06
       629.10000  5.23267e-08  2.79267e+06
       629.20000  5.23267e-08  2.78953e+06
       629.30000  5.23267e-08  2.78587e+06
       629.40000  5.23267e-08  2.78169e+06
       629.50000  1.58860e-07  8.43229e+06
       629.60000  1.58860e-07  8.41481e+06
       629.70000  1.58860e-07  8.39734e+06
       629.80000  1.58860e-07  8.38145e+06
       629.90000  1.58860e-07  8.36715e+06
       630.00000  1.58860e-07  8.35286e+06
       630.10000  1.58860e-07  8.33856e+06
       630.20000  1.58860e-07  8.32744e+06
       630.30000  1.58860e-07  8.31473e+06
       630.40000  1.58860e-07  8.30520e+06
       630.50000  1.91885e-07  1.00203e+07
       630.60000  1.91885e-07  1.00087e+07
       630.70000  1.91885e-07  9.99914e+06
       630.80000  1.91885e-07  9.99147e+06
       630.90000  1.91885e-07  9.98379e+06
       631.00000  1.91885e-07  9.97804e+06
       631.10000  1.91885e-07  9.98379e+06
       631.20000  1.91885e-07  9.98955e+06
       631.30000  1.91364e-07  9.97008e+06
       631.40000  1.91364e-07  9.97582e+06
       631.50000  2.33654e-07  1.21874e+07
       631.60000  2.33654e-07  1.21944e+07
       631.70000  2.33654e-07  1.22014e+07
       631.80000  2.33654e-07  1.22061e+07
       631.90000  2.33654e-07  1.22131e+07
       632.00000  2.33654e-07  1.22201e+07
       632.10000  2.33654e-07  1.22271e+07
       632.20000  2.33654e-07  1.22318e+07
       632.30000  2.33654e-07  1.22388e+07
       632.40000  2.33654e-07  1.22458e+07
       632.50000  1.86648e-07  9.78593e+06
       632.60000  1.86648e-07  9.78967e+06
       632.70000  1.86648e-07  9.79527e+06
       632.80000  1.86648e-07  9.79900e+06
       632.90000  1.86648e-07  9.80273e+06
       633.00000  1.86648e-07  9.80833e+06
       633.10000  1.86648e-07  9.81206e+06
       633.20000  1.86648e-07  9.81580e+06
       633.30000  1.86648e-07  9.81953e+06
       633.40000  1.86648e-07  9.82326e+06
       633.50000  1.53765e-07  8.09572e+06
       633.60000  1.53765e-07  8.09879e+06
       633.70000  1.53765e-07  8.10187e+06
       633.80000  1.53353e-07  8.08171e+06
       633.90000  1.53353e-07  8.08478e+06
       634.00000  1.53353e-07  8.08785e+06
       634.10000  1.53353e-07  8.08938e+06
       634.20000  1.53353e-07  8.09245e+06
       634.30000  1.53353e-07  8.09398e+06
       634.40000  1.53353e-07  8.09705e+06
       634.50000  3.13442e-07  1.65529e+07
       634.60000  3.13442e-07  1.65560e+07
       634.70000  3.13442e-07  1.65623e+07
       634.80000  3.13442e-07  1.65654e+07
       634.90000  3.13442e-07  1.65686e+07
       635.00000  3.13442e-07  1.65717e+07
       635.10000  3.13442e-07  1.65748e+07
       635.20000  3.13442e-07  1.65748e+07
       635.30000  3.13442e-07  1.65780e+07
       635.40000  3.13442e-07  1.65780e+07
       635.50000  2.19056e-07  1.15881e+07
       635.60000  2.19056e-07  1.15903e+07
       635.70000  2.19056e-07  1.15903e+07
       635.80000  2.19056e-07  1.15924e+07
       635.90000  2.19056e-07  1.15924e+07
       636.00000  2.19056e-07  1.15946e+07
       636.10000  2.19056e-07  1.15946e+07
       636.20000  2.19056e-07  1.15968e+07
       636.30000  2.18266e-07  1.15550e+07
       636.40000  2.18266e-07  1.15572e+07
       636.50000  3.58884e-07  1.90029e+07
       636.60000  3.58884e-07  1.90065e+07
       636.70000  3.58884e-07  1.90065e+07
       636.80000  3.58884e-07  1.90101e+07
       636.90000  3.58884e-07  1.90101e+07
       637.00000  3.58884e-07  1.90101e+07
       637.10000  3.58884e-07  1.90137e+07
       637.20000  3.58884e-07  1.90137e+07
       637.30000  3.58884e-07  1.90173e+07
       637.40000  3.58884e-07  1.90173e+07
       637.50000  2.73131e-07  1.44732e+07
       637.60000  2.73131e-07  1.44759e+07
       637.70000  2.73131e-07  1.44759e+07
       637.80000  2.73131e-07  1.44787e+07
       637.90000  2.73131e-07  1.44787e+07
       638.00000  2.73131e-07  1.44787e+07
       638.10000  2.73131e-07  1.44814e+07
       638.20000  2.73131e-07  1.44814e+07
       638.30000  2.73131e-07  1.44814e+07
       638.40000  2.73131e-07  1.44841e+07
       638.50000  4.20008e-08  2.22730e+06
       638.60000  4.20008e-08  2.22730e+06
       638.70000  4.20008e-08  2.22772e+06
       638.80000  4.18824e-08  2.22144e+06
       638.90000  4.18824e-08  2.22144e+06
       639.00000  4.18824e-08  2.22144e+06
       639.10000  4.18824e-08  2.21809e+06
       639.20000  4.18824e-08  2.21474e+06
       639.30000  4.18824e-08  2.21139e+06
       639.40000  4.18824e-08  2.20846e+06
       639.50000  2.79637e-07  1.47229e+07
       639.60000  2.79637e-07  1.47061e+07
       639.70000  2.79637e-07  1.46866e+07
       639.80000  2.79637e-07  1.46698e+07
       639.90000  2.79637e-07  1.46558e+07
       640.00000  2.79637e-07  1.46390e+07
       640.10000  2.79637e-07  1.46250e+07
       640.20000  2.79637e-07  1.46139e+07
       640.30000  2.79637e-07  1.46027e+07
       640.40000  2.79637e-07  1.45915e+07
       640.50000  2.65074e-07  1.38209e+07
       640.60000  2.65074e-07  1.38130e+07
       640.70000  2.65074e-07  1.38050e+07
       640.80000  2.65074e-07  1.37997e+07
       640.90000  2.65074e-07  1.37918e+07
       641.00000  2.65074e-07  1.37891e+07
       641.10000  2.65074e-07  1.37944e+07
       641.20000  2.65074e-07  1.37997e+07
       641.30000  2.64240e-07  1.37616e+07
       641.40000  2.64240e-07  1.37669e+07
       641.50000  2.93254e-07  1.52844e+07
       641.60000  2.93254e-07  1.52903e+07
       641.70000  2.93254e-07  1.52961e+07
       641.80000  2.93254e-07  1.53020e+07
       641.90000  2.93254e-07  1.53079e+07
       642.00000  2.93254e-07  1.53137e+07
       642.10000  2.93254e-07  1.53167e+07
       642.20000  2.93254e-07  1.53225e+07
       642.30000  2.93254e-07  1.53284e+07
       642.40000  2.93254e-07  1.53343e+07
       642.50000  2.36614e-07  1.23773e+07
       642.60000  2.36614e-07  1.23820e+07
       642.70000  2.36614e-07  1.23868e+07
       642.80000  2.36614e-07  1.23915e+07
       642.90000  2.36614e-07  1.23962e+07
       643.00000  2.36614e-07  1.24010e+07
       643.10000  2.36614e-07  1.24033e+07
       643.20000  2.36614e-07  1.24081e+07
       643.30000  2.36614e-07  1.24128e+07
       643.40000  2.36614e-07  1.24175e+07
       643.50000  1.86118e-07  9.77121e+06
       643.60000  1.86118e-07  9.77494e+06
       643.70000  1.86118e-07  9.77680e+06
       643.80000  1.85422e-07  9.74394e+06
       643.90000  1.85422e-07  9.74765e+06
       644.00000  1.85422e-07  9.75136e+06
       644.10000  1.85422e-07  9.75507e+06
       644.20000  1.85422e-07  9.75692e+06
       644.30000  1.85422e-07  9.76063e+06
       644.40000  1.85422e-07  9.76434e+06
       644.50000  3.08144e-07  1.62330e+07
       644.60000  3.08144e-07  1.62361e+07
       644.70000  3.08144e-07  1.62423e+07
       644.80000  3.08144e-07  1.62484e+07
       644.90000  3.08144e-07  1.62546e+07
       645.00000  3.08144e-07  1.62577e+07
       645.10000  3.08144e-07  1.62546e+07
       645.20000  3.08144e-07  1.62484e+07
       645.30000  3.08144e-07  1.62454e+07
       645.40000  3.08144e-07  1.62392e+07
       645.50000  1.68151e-07  8.85650e+06
       645.60000  1.68151e-07  8.85314e+06
       645.70000  1.68151e-07  8.84978e+06
       645.80000  1.68151e-07  8.84473e+06
       645.90000  1.68151e-07  8.83969e+06
       646.00000  1.68151e-07  8.83464e+06
       646.10000  1.68151e-07  8.82960e+06
       646.20000  1.68151e-07  8.82455e+06
       646.30000  1.67454e-07  8.78127e+06
       646.40000  1.67454e-07  8.77457e+06
       646.50000  3.24777e-07  1.70086e+07
       646.60000  3.24777e-07  1.69923e+07
       646.70000  3.24777e-07  1.69794e+07
       646.80000  3.24777e-07  1.69664e+07
       646.90000  3.24777e-07  1.69501e+07
       647.00000  3.24777e-07  1.69371e+07
       647.10000  3.24777e-07  1.68917e+07
       647.20000  3.24777e-07  1.68494e+07
       647.30000  3.24777e-07  1.68105e+07
       647.40000  3.24777e-07  1.67715e+07
       647.50000  2.50026e-07  1.28839e+07
       647.60000  2.50026e-07  1.28614e+07
       647.70000  2.50026e-07  1.28364e+07
       647.80000  2.50026e-07  1.28164e+07
       647.90000  2.50026e-07  1.27964e+07
       648.00000  2.50026e-07  1.27789e+07
       648.10000  2.50026e-07  1.27638e+07
       648.20000  2.50026e-07  1.27514e+07
       648.30000  2.50026e-07  1.27388e+07
       648.40000  2.50026e-07  1.27288e+07
       648.50000  2.80741e-07  1.42841e+07
       648.60000  2.80741e-07  1.42785e+07
       648.70000  2.80741e-07  1.42729e+07
       648.80000  2.79588e-07  1.42115e+07
       648.90000  2.79588e-07  1.42115e+07
       649.00000  2.79588e-07  1.42142e+07
       649.10000  2.79588e-07  1.42170e+07
       649.20000  2.79588e-07  1.42254e+07
       649.30000  2.79588e-07  1.42310e+07
       649.40000  2.79588e-07  1.42422e+07
       649.50000  2.41920e-07  1.23355e+07
       649.60000  2.41920e-07  1.23476e+07
       649.70000  2.41920e-07  1.23621e+07
       649.80000  2.41920e-07  1.23790e+07
       649.90000  2.41920e-07  1.23960e+07
       650.00000  2.41920e-07  1.24153e+07
       650.10000  2.41920e-07  1.24371e+07
       650.20000  2.41920e-07  1.24613e+07
       650.30000  2.41920e-07  1.24879e+07
       650.40000  2.41920e-07  1.25145e+07
       650.50000  3.62814e-07  1.88119e+07
       650.60000  3.62814e-07  1.88591e+07
       650.70000  3.62814e-07  1.89062e+07
       650.80000  3.62814e-07  1.89607e+07
       650.90000  3.62814e-07  1.90151e+07
       651.00000  3.62814e-07  1.90731e+07
       651.10000  3.62814e-07  1.90876e+07
       651.20000  3.62814e-07  1.91022e+07
       651.30000  3.61209e-07  1.90285e+07
       651.40000  3.61209e-07  1.90393e+07
       651.50000  1.21436e-07  6.40453e+06
       651.60000  1.21436e-07  6.40574e+06
       651.70000  1.21436e-07  6.40817e+06
       651.80000  1.21436e-07  6.40938e+06
       651.90000  1.21436e-07  6.40938e+06
       652.00000  1.21436e-07  6.40938e+06
       652.10000  1.21436e-07  6.40817e+06
       652.20000  1.21436e-07  6.40696e+06
       652.30000  1.21436e-07  6.40574e+06
       652.40000  1.21436e-07  6.40331e+06
       652.50000  1.89270e-07  9.97454e+06
       652.60000  1.89270e-07  9.96886e+06
       652.70000  1.89270e-07  9.96318e+06
       652.80000  1.89270e-07  9.95372e+06
       652.90000  1.89270e-07  9.94615e+06
       653.00000  1.89270e-07  9.93668e+06
       653.10000  1.89270e-07  9.92911e+06
       653.20000  1.89270e-07  9.92154e+06
       653.30000  1.89270e-07  9.91019e+06
       653.40000  1.89270e-07  9.89883e+06
       653.50000  2.03064e-07  1.06080e+07
       653.60000  2.03064e-07  1.05938e+07
       653.70000  2.03064e-07  1.05776e+07
       653.80000  2.02590e-07  1.05347e+07
       653.90000  2.02590e-07  1.05165e+07
       654.00000  2.02590e-07  1.04962e+07
       654.10000  2.02590e-07  1.04759e+07
       654.20000  2.02590e-07  1.04516e+07
       654.30000  2.02590e-07  1.04273e+07
       654.40000  2.02590e-07  1.04030e+07
       654.50000  1.38020e-07  7.06939e+06
       654.60000  1.38020e-07  7.05007e+06
       654.70000  1.38020e-07  7.02937e+06
       654.80000  1.38020e-07  7.00866e+06
       654.90000  1.38020e-07  6.98658e+06
       655.00000  1.38020e-07  6.96312e+06
       655.10000  1.38020e-07  6.89687e+06
       655.20000  1.38020e-07  6.83338e+06
       655.30000  1.38020e-07  6.77403e+06
       655.40000  1.38020e-07  6.71882e+06
       655.50000  2.43910e-07  1.17809e+07
       655.60000  2.43910e-07  1.16955e+07
       655.70000  2.43910e-07  1.16150e+07
       655.80000  2.43910e-07  1.15418e+07
       655.90000  2.43910e-07  1.14735e+07
       656.00000  2.43910e-07  1.14125e+07
       656.10000  2.43910e-07  1.13589e+07
       656.20000  2.43910e-07  1.13101e+07
       656.30000  2.43599e-07  1.12543e+07
       656.40000  2.43599e-07  1.12177e+07
       656.50000  1.31307e-07  6.03092e+06
       656.60000  1.31307e-07  6.01910e+06
       656.70000  1.31307e-07  6.00991e+06
       656.80000  1.31307e-07  6.00466e+06
       656.90000  1.31307e-07  6.00203e+06
       657.00000  1.31307e-07  6.00334e+06
       657.10000  1.31307e-07  6.05456e+06
       657.20000  1.31307e-07  6.10445e+06
       657.30000  1.31307e-07  6.15304e+06
       657.40000  1.31307e-07  6.20030e+06
       657.50000  2.17848e-07  1.03608e+07
       657.60000  2.17848e-07  1.04349e+07
       657.70000  2.17848e-07  1.05046e+07
       657.80000  2.17848e-07  1.05721e+07
       657.90000  2.17848e-07  1.06353e+07
       658.00000  2.17848e-07  1.06985e+07
       658.10000  2.17848e-07  1.07595e+07
       658.20000  2.17848e-07  1.08161e+07
       658.30000  2.17848e-07  1.08706e+07
       658.40000  2.17848e-07  1.09229e+07
       658.50000  2.90160e-07  1.46124e+07
       658.60000  2.90160e-07  1.46763e+07
       658.70000  2.90160e-07  1.47343e+07
       658.80000  2.89190e-07  1.47429e+07
       658.90000  2.89190e-07  1.47950e+07
       659.00000  2.89190e-07  1.48412e+07
       659.10000  2.89190e-07  1.48875e+07
       659.20000  2.89190e-07  1.49309e+07
       659.30000  2.89190e-07  1.49685e+07
       659.40000  2.89190e-07  1.50032e+07
       659.50000  3.39297e-07  1.76401e+07
       659.60000  3.39297e-07  1.76740e+07
       659.70000  3.39297e-07  1.77011e+07
       659.80000  3.39297e-07  1.77283e+07
       659.90000  3.39297e-07  1.77486e+07
       660.00000  3.39297e-07  1.77656e+07
       660.10000  3.39297e-07  1.77792e+07
       660.20000  3.39297e-07  1.77860e+07
       660.30000  3.39297e-07  1.77927e+07
       660.40000  3.39297e-07  1.77927e+07
       660.50000  1.29518e-07  6.79062e+06
       660.60000  1.29518e-07  6.78803e+06
       660.70000  1.29518e-07  6.78414e+06
       660.80000  1.29518e-07  6.77767e+06
       660.90000  1.29518e-07  6.77119e+06
       661.00000  1.29518e-07  6.76212e+06
       661.10000  1.29518e-07  6.75824e+06
       661.20000  1.29518e-07  6.75306e+06
       661.30000  1.28570e-07  6.69976e+06
       661.40000  1.28570e-07  6.69590e+06
       661.50000  1.79123e-07  9.32338e+06
       661.60000  1.79123e-07  9.31980e+06
       661.70000  1.79123e-07  9.31442e+06
       661.80000  1.79123e-07  9.31084e+06
       661.90000  1.79123e-07  9.30726e+06
       662.00000  1.79123e-07  9.30367e+06
       662.10000  1.79123e-07  9.30009e+06
       662.20000  1.79123e-07  9.29651e+06
       662.30000  1.79123e-07  9.29472e+06
       662.40000  1.79123e-07  9.29293e+06
       662.50000  2.16905e-07  1.12487e+07
       662.60000  2.16905e-07  1.12487e+07
       662.70000  2.16905e-07  1.12465e+07
       662.80000  2.16905e-07  1.12443e+07
       662.90000  2.16905e-07  1.12443e+07
       663.00000  2.16905e-07  1.12443e+07
       663.10000  2.16905e-07  1.12530e+07
       663.20000  2.16905e-07  1.12595e+07
       663.30000  2.16905e-07  1.12682e+07
       663.40000  2.16905e-07  1.12747e+07
       663.50000  2.07325e-07  1.07830e+07
       663.60000  2.07325e-07  1.07892e+07
       663.70000  2.07325e-07  1.07934e+07
       663.80000  2.05620e-07  1.07108e+07
       663.90000  2.05620e-07  1.07149e+07
       664.00000  2.05620e-07  1.07169e+07
       664.10000  2.05620e-07  1.07210e+07
       664.20000  2.05620e-07  1.07231e+07
       664.30000  2.05620e-07  1.07252e+07
       664.40000  2.05620e-07  1.07272e+07
       664.50000  1.46272e-07  7.63100e+06
       664.60000  1.46272e-07  7.63100e+06
       664.70000  1.46272e-07  7.63100e+06
       664.80000  1.46272e-07  7.63100e+06
       664.90000  1.46272e-07  7.63100e+06
       665.00000  1.46272e-07  7.62954e+06
       665.10000  1.46272e-07  7.62807e+06
       665.20000  1.46272e-07  7.62661e+06
       665.30000  1.46272e-07  7.62369e+06
       665.40000  1.46272e-07  7.62076e+06
       665.50000  4.20829e-08  2.19168e+06
       665.60000  4.20829e-08  2.19084e+06
       665.70000  4.20829e-08  2.18957e+06
       665.80000  4.20829e-08  2.18873e+06
       665.90000  4.20829e-08  2.18747e+06
       666.00000  4.20829e-08  2.18579e+06
       666.10000  4.20829e-08  2.18452e+06
       666.20000  4.20829e-08  2.18284e+06
       666.30000  4.18109e-08  2.16706e+06
       666.40000  4.18109e-08  2.16539e+06
       666.50000  2.49549e-07  1.29117e+07
       666.60000  2.49549e-07  1.28992e+07
       666.70000  2.49549e-07  1.28867e+07
       666.80000  2.49549e-07  1.28743e+07
       666.90000  2.49549e-07  1.28618e+07
       667.00000  2.49549e-07  1.28468e+07
       667.10000  2.49549e-07  1.28618e+07
       667.20000  2.49549e-07  1.28743e+07
       667.30000  2.49549e-07  1.28867e+07
       667.40000  2.49549e-07  1.28992e+07
       667.50000  3.05198e-07  1.57910e+07
       667.60000  3.05198e-07  1.58032e+07
       667.70000  3.05198e-07  1.58154e+07
       667.80000  3.05198e-07  1.58245e+07
       667.90000  3.05198e-07  1.58337e+07
       668.00000  3.05198e-07  1.58428e+07
       668.10000  3.05198e-07  1.58520e+07
       668.20000  3.05198e-07  1.58581e+07
       668.30000  3.05198e-07  1.58642e+07
       668.40000  3.05198e-07  1.58673e+07
       668.50000  2.21958e-07  1.15418e+07
       668.60000  2.21958e-07  1.15440e+07
       668.70000  2.21958e-07  1.15440e+07
       668.80000  2.20684e-07  1.14778e+07
       668.90000  2.20684e-07  1.14778e+07
       669.00000  2.20684e-07  1.14756e+07
       669.10000  2.20684e-07  1.14601e+07
       669.20000  2.20684e-07  1.14447e+07
       669.30000  2.20684e-07  1.14314e+07
       669.40000  2.20684e-07  1.14182e+07
       669.50000  9.34303e-08  4.82848e+06
       669.60000  9.34303e-08  4.82287e+06
       669.70000  9.34303e-08  4.81820e+06
       669.80000  9.34303e-08  4.81353e+06
       669.90000  9.34303e-08  4.80886e+06
       670.00000  9.34303e-08  4.80512e+06
       670.10000  9.34303e-08  4.80139e+06
       670.20000  9.34303e-08  4.79765e+06
       670.30000  9.34303e-08  4.79391e+06
       670.40000  9.34303e-08  4.79111e+06
       670.50000  8.98765e-08  4.60617e+06
       670.60000  8.98765e-08  4.60347e+06
       670.70000  8.98765e-08  4.60168e+06
       670.80000  8.98765e-08  4.59988e+06
       670.90000  8.98765e-08  4.59808e+06
       671.00000  8.98765e-08  4.59718e+06
       671.10000  8.98765e-08  4.59538e+06
       671.20000  8.98765e-08  4.59538e+06
       671.30000  8.93673e-08  4.56846e+06
       671.40000  8.93673e-08  4.56846e+06
       671.50000  2.73030e-07  1.39573e+07
       671.60000  2.73030e-07  1.39573e+07
       671.70000  2.73030e-07  1.39573e+07
       671.80000  2.73030e-07  1.39600e+07
       671.90000  2.73030e-07  1.39628e+07
       672.00000  2.73030e-07  1.39682e+07
       672.10000  2.73030e-07  1.39737e+07
       672.20000  2.73030e-07  1.39791e+07
       672.30000  2.73030e-07  1.39846e+07
       672.40000  2.73030e-07  1.39928e+07
       672.50000  1.54272e-07  7.91109e+06
       672.60000  1.54272e-07  7.91572e+06
       672.70000  1.54272e-07  7.92034e+06
       672.80000  1.54272e-07  7.92652e+06
       672.90000  1.54272e-07  7.93269e+06
       673.00000  1.54272e-07  7.94040e+06
       673.10000  1.54272e-07  7.93732e+06
       673.20000  1.54272e-07  7.93423e+06
       673.30000  1.54272e-07  7.93114e+06
       673.40000  1.54272e-07  7.92960e+06
       673.50000  1.02536e-07  5.26831e+06
       673.60000  1.02536e-07  5.26728e+06
       673.70000  1.02536e-07  5.26626e+06
       673.80000  1.01898e-07  5.23146e+06
       673.90000  1.01898e-07  5.23044e+06
       674.00000  1.01898e-07  5.22942e+06
       674.10000  1.01898e-07  5.22840e+06
       674.20000  1.01898e-07  5.22738e+06
       674.30000  1.01898e-07  5.22636e+06
       674.40000  1.01898e-07  5.22534e+06
       674.50000  6.09918e-08  3.12705e+06
       674.60000  6.09918e-08  3.12705e+06
       674.70000  6.09918e-08  3.12644e+06
       674.80000  6.09918e-08  3.12644e+06
       674.90000  6.09918e-08  3.12583e+06
       675.00000  6.09918e-08  3.12583e+06
       675.10000  6.09918e-08  3.12644e+06
       675.20000  6.09918e-08  3.12705e+06
       675.30000  6.09918e-08  3.12766e+06
       675.40000  6.09918e-08  3.12827e+06
       675.50000  2.31661e-07  1.18819e+07
       675.60000  2.31661e-07  1.18842e+07
       675.70000  2.31661e-07  1.18865e+07
       675.80000  2.31661e-07  1.18865e+07
       675.90000  2.31661e-07  1.18888e+07
       676.00000  2.31661e-07  1.18888e+07
       676.10000  2.31661e-07  1.18912e+07
       676.20000  2.31661e-07  1.18912e+07
       676.30000  2.29910e-07  1.18013e+07
       676.40000  2.29910e-07  1.18013e+07
       676.50000  1.55366e-07  7.97647e+06
       676.60000  1.55366e-07  7.97647e+06
       676.70000  1.55366e-07  7.97647e+06
       676.80000  1.55366e-07  7.97492e+06
       676.90000  1.55366e-07  7.97492e+06
       677.00000  1.55366e-07  7.97492e+06
       677.10000  1.55366e-07  7.97492e+06
       677.20000  1.55366e-07  7.97336e+06
       677.30000  1.55366e-07  7.97336e+06
       677.40000  1.55366e-07  7.97181e+06
       677.50000  1.89399e-07  9.71804e+06
       677.60000  1.89399e-07  9.71614e+06
       677.70000  1.89399e-07  9.71614e+06
       677.80000  1.89399e-07  9.71425e+06
       677.90000  1.89399e-07  9.71236e+06
       678.00000  1.89399e-07  9.71046e+06
       678.10000  1.89399e-07  9.70857e+06
       678.20000  1.89399e-07  9.70667e+06
       678.30000  1.89399e-07  9.70478e+06
       678.40000  1.89399e-07  9.70289e+06
       678.50000  9.57205e-08  4.90185e+06
       678.60000  9.57205e-08  4.90089e+06
       678.70000  9.57205e-08  4.89993e+06
       678.80000  9.49991e-08  4.86110e+06
       678.90000  9.49991e-08  4.86015e+06
       679.00000  9.49991e-08  4.85825e+06
       679.10000  9.49991e-08  4.85825e+06
       679.20000  9.49991e-08  4.85920e+06
       679.30000  9.49991e-08  4.85920e+06
       679.40000  9.49991e-08  4.85920e+06
       679.50000  1.19221e-07  6.09817e+06
       679.60000  1.19221e-07  6.09817e+06
       679.70000  1.19221e-07  6.09817e+06
       679.80000  1.19221e-07  6.09817e+06
       679.90000  1.19221e-07  6.09817e+06
       680.00000  1.19221e-07  6.09698e+06
       680.10000  1.19221e-07  6.09698e+06
       680.20000  1.19221e-07  6.09698e+06
       680.30000  1.19221e-07  6.09579e+06
       680.40000  1.19221e-07  6.09579e+06
       680.50000  2.09233e-07  1.06960e+07
       680.60000  2.09233e-07  1.06960e+07
       680.70000  2.09233e-07  1.06939e+07
       680.80000  2.09233e-07  1.06918e+07
       680.90000  2.09233e-07  1.06897e+07
       681.00000  2.09233e-07  1.06897e+07
       681.10000  2.09233e-07  1.06876e+07
       681.20000  2.09233e-07  1.06855e+07
       681.30000  2.07466e-07  1.05953e+07
       681.40000  2.07466e-07  1.05932e+07
       681.50000  2.93380e-07  1.49771e+07
       681.60000  2.93380e-07  1.49741e+07
       681.70000  2.93380e-07  1.49712e+07
       681.80000  2.93380e-07  1.49653e+07
       681.90000  2.93380e-07  1.49624e+07
       682.00000  2.93380e-07  1.49595e+07
       682.10000  2.93380e-07  1.49536e+07
       682.20000  2.93380e-07  1.49477e+07
       682.30000  2.93380e-07  1.49448e+07
       682.40000  2.93380e-07  1.49389e+07
       682.50000  2.30508e-07  1.17328e+07
       682.60000  2.30508e-07  1.17282e+07
       682.70000  2.30508e-07  1.17236e+07
       682.80000  2.30508e-07  1.17190e+07
       682.90000  2.30508e-07  1.17121e+07
       683.00000  2.30508e-07  1.17075e+07
       683.10000  2.30508e-07  1.17029e+07
       683.20000  2.30508e-07  1.16960e+07
       683.30000  2.30508e-07  1.16890e+07
       683.40000  2.30508e-07  1.16821e+07
       683.50000  3.15412e-07  1.59788e+07
       683.60000  3.15412e-07  1.59693e+07
       683.70000  3.15412e-07  1.59599e+07
       683.80000  3.12418e-07  1.57958e+07
       683.90000  3.12418e-07  1.57865e+07
       684.00000  3.12418e-07  1.57771e+07
       684.10000  3.12418e-07  1.57646e+07
       684.20000  3.12418e-07  1.57552e+07
       684.30000  3.12418e-07  1.57427e+07
       684.40000  3.12418e-07  1.57333e+07
       684.50000  2.52478e-07  1.27047e+07
       684.60000  2.52478e-07  1.26946e+07
       684.70000  2.52478e-07  1.26845e+07
       684.80000  2.52478e-07  1.26744e+07
       684.90000  2.52478e-07  1.26618e+07
       685.00000  2.52478e-07  1.26517e+07
       685.10000  2.52478e-07  1.26618e+07
       685.20000  2.52478e-07  1.26744e+07
       685.30000  2.52478e-07  1.26845e+07
       685.40000  2.52478e-07  1.26921e+07
       685.50000  2.74747e-07  1.38225e+07
       685.60000  2.74747e-07  1.38335e+07
       685.70000  2.74747e-07  1.38417e+07
       685.80000  2.74747e-07  1.38500e+07
       685.90000  2.74747e-07  1.38582e+07
       686.00000  2.74747e-07  1.38665e+07
       686.10000  2.74747e-07  1.38747e+07
       686.20000  2.74747e-07  1.38802e+07
       686.30000  2.72152e-07  1.37573e+07
       686.40000  2.72152e-07  1.37627e+07
       686.50000  1.87493e-07  9.48528e+06
       686.60000  1.87493e-07  9.48903e+06
       686.70000  1.87493e-07  9.49278e+06
       686.80000  1.87493e-07  9.49465e+06
       686.90000  1.87493e-07  9.49840e+06
       687.00000  1.87493e-07  9.50028e+06
       687.10000  1.87493e-07  9.50215e+06
       687.20000  1.87493e-07  9.50215e+06
       687.30000  1.87493e-07  9.50215e+06
       687.40000  1.87493e-07  9.50215e+06
       687.50000  3.25884e-07  1.65158e+07
       687.60000  3.25884e-07  1.65158e+07
       687.70000  3.25884e-07  1.65158e+07
       687.80000  3.25884e-07  1.65158e+07
       687.90000  3.25884e-07  1.65158e+07
       688.00000  3.25884e-07  1.65125e+07
       688.10000  3.25884e-07  1.65125e+07
       688.20000  3.25884e-07  1.65125e+07
       688.30000  3.25884e-07  1.65093e+07
       688.40000  3.25884e-07  1.65093e+07
       688.50000  2.66870e-07  1.35170e+07
       688.60000  2.66870e-07  1.35143e+07
       688.70000  2.66870e-07  1.35143e+07
       688.80000  2.64679e-07  1.34007e+07
       688.90000  2.64679e-07  1.33980e+07
       689.00000  2.64679e-07  1.33954e+07
       689.10000  2.64679e-07  1.33928e+07
       689.20000  2.64679e-07  1.33901e+07
       689.30000  2.64679e-07  1.33875e+07
       689.40000  2.64679e-07  1.33848e+07
       689.50000  3.54300e-07  1.79134e+07
       689.60000  3.54300e-07  1.79099e+07
       689.70000  3.54300e-07  1.79028e+07
       689.80000  3.54300e-07  1.78993e+07
       689.90000  3.54300e-07  1.78957e+07
       690.00000  3.54300e-07  1.78886e+07
       690.10000  3.54300e-07  1.78815e+07
       690.20000  3.54300e-07  1.78780e+07
       690.30000  3.54300e-07  1.78709e+07
       690.40000  3.54300e-07  1.78638e+07
       690.50000  2.34378e-07  1.18150e+07
       690.60000  2.34378e-07  1.18103e+07
       690.70000  2.34378e-07  1.18056e+07
       690.80000  2.34378e-07  1.18009e+07
       690.90000  2.34378e-07  1.17962e+07
       691.00000  2.34378e-07  1.17916e+07
       691.10000  2.34378e-07  1.17962e+07
       691.20000  2.34378e-07  1.17986e+07
       691.30000  2.32603e-07  1.17139e+07
       691.40000  2.32603e-07  1.17162e+07
       691.50000  1.64996e-07  8.31248e+06
       691.60000  1.64996e-07  8.31578e+06
       691.70000  1.64996e-07  8.31743e+06
       691.80000  1.64996e-07  8.31908e+06
       691.90000  1.64996e-07  8.32073e+06
       692.00000  1.64996e-07  8.32073e+06
       692.10000  1.64996e-07  8.32238e+06
       692.20000  1.64996e-07  8.32403e+06
       692.30000  1.64996e-07  8.32403e+06
       692.40000  1.64996e-07  8.32403e+06
       692.50000  2.92980e-07  1.47838e+07
       692.60000  2.92980e-07  1.47838e+07
       692.70000  2.92980e-07  1.47838e+07
       692.80000  2.92980e-07  1.47838e+07
       692.90000  2.92980e-07  1.47838e+07
       693.00000  2.92980e-07  1.47809e+07
       693.10000  2.92980e-07  1.47809e+07
       693.20000  2.92980e-07  1.47779e+07
       693.30000  2.92980e-07  1.47750e+07
       693.40000  2.92980e-07  1.47721e+07
       693.50000  2.60745e-07  1.31442e+07
       693.60000  2.60745e-07  1.31416e+07
       693.70000  2.60745e-07  1.31390e+07
       693.80000  2.58947e-07  1.30457e+07
       693.90000  2.58947e-07  1.30406e+07
       694.00000  2.58947e-07  1.30380e+07
       694.10000  2.58947e-07  1.30354e+07
       694.20000  2.58947e-07  1.30302e+07
       694.30000  2.58947e-07  1.30276e+07
       694.40000  2.58947e-07  1.30224e+07
       694.50000  1.26673e-07  6.36784e+06
       694.60000  1.26673e-07  6.36657e+06
       694.70000  1.26673e-07  6.36404e+06
       694.80000  1.26673e-07  6.36150e+06
       694.90000  1.26673e-07  6.35897e+06
       695.00000  1.26673e-07  6.35644e+06
       695.10000  1.26673e-07  6.35390e+06
       695.20000  1.26673e-07  6.35137e+06
       695.30000  1.26673e-07  6.34757e+06
       695.40000  1.26673e-07  6.34504e+06
       695.50000  2.39761e-07  1.20048e+07
       695.60000  2.39761e-07  1.19976e+07
       695.70000  2.39761e-07  1.19928e+07
       695.80000  2.39761e-07  1.19856e+07
       695.90000  2.39761e-07  1.19784e+07
       696.00000  2.39761e-07  1.19736e+07
       696.10000  2.39761e-07  1.19665e+07
       696.20000  2.39761e-07  1.19593e+07
       696.30000  2.38358e-07  1.18821e+07
       696.40000  2.38358e-07  1.18750e+07
       696.50000  2.65232e-07  1.32059e+07
       696.60000  2.65232e-07  1.31979e+07
       696.70000  2.65232e-07  1.31873e+07
       696.80000  2.65232e-07  1.31794e+07
       696.90000  2.65232e-07  1.31714e+07
       697.00000  2.65232e-07  1.31608e+07
       697.10000  2.65232e-07  1.31794e+07
       697.20000  2.65232e-07  1.31926e+07
       697.30000  2.65232e-07  1.32085e+07
       697.40000  2.65232e-07  1.32218e+07
       697.50000  4.32155e-07  2.15646e+07
       697.60000  4.32155e-07  2.15818e+07
       697.70000  4.32155e-07  2.15991e+07
       697.80000  4.32155e-07  2.16121e+07
       697.90000  4.32155e-07  2.16251e+07
       698.00000  4.32155e-07  2.16337e+07
       698.10000  4.32155e-07  2.16423e+07
       698.20000  4.32155e-07  2.16510e+07
       698.30000  4.32155e-07  2.16553e+07
       698.40000  4.32155e-07  2.16596e+07
       698.50000  1.64510e-07  8.24689e+06
       698.60000  1.64510e-07  8.24689e+06
       698.70000  1.64510e-07  8.24525e+06
       698.80000  1.63502e-07  8.19307e+06
       698.90000  1.63502e-07  8.19143e+06
       699.00000  1.63502e-07  8.18816e+06
       699.10000  1.63502e-07  8.17345e+06
       699.20000  1.63502e-07  8.15710e+06
       699.30000  1.63502e-07  8.14402e+06
       699.40000  1.63502e-07  8.12930e+06
       699.50000  1.87329e-07  9.29899e+06
       699.60000  1.87329e-07  9.28400e+06
       699.70000  1.87329e-07  9.27089e+06
       699.80000  1.87329e-07  9.25778e+06
       699.90000  1.87329e-07  9.24467e+06
       700.00000  1.87329e-07  9.23343e+06
       700.10000  1.87329e-07  9.22219e+06
       700.20000  1.87329e-07  9.21095e+06
       700.30000  1.87329e-07  9.20158e+06
       700.40000  1.87329e-07  9.19221e+06
       700.50000  3.35775e-07  1.64597e+07
       700.60000  3.35775e-07  1.64462e+07
       700.70000  3.35775e-07  1.64328e+07
       700.80000  3.35775e-07  1.64227e+07
       700.90000  3.35775e-07  1.64127e+07
       701.00000  3.35775e-07  1.64026e+07
       701.10000  3.35775e-07  1.63992e+07
       701.20000  3.35775e-07  1.63959e+07
       701.30000  3.33287e-07  1.62711e+07
       701.40000  3.33287e-07  1.62711e+07
       701.50000  3.72490e-07  1.81850e+07
       701.60000  3.72490e-07  1.81850e+07
       701.70000  3.72490e-07  1.81850e+07
       701.80000  3.72490e-07  1.81887e+07
       701.90000  3.72490e-07  1.81887e+07
       702.00000  3.72490e-07  1.81924e+07
       702.10000  3.72490e-07  1.81999e+07
       702.20000  3.72490e-07  1.82036e+07
       702.30000  3.72490e-07  1.82110e+07
       702.40000  3.72490e-07  1.82148e+07
       702.50000  3.23734e-07  1.58370e+07
       702.60000  3.23734e-07  1.58468e+07
       702.70000  3.23734e-07  1.58532e+07
       702.80000  3.23734e-07  1.58629e+07
       702.90000  3.23734e-07  1.58727e+07
       703.00000  3.23734e-07  1.58824e+07
       703.10000  3.23734e-07  1.59115e+07
       703.20000  3.23734e-07  1.59406e+07
       703.30000  3.23734e-07  1.59665e+07
       703.40000  3.23734e-07  1.59924e+07
       703.50000  2.71790e-07  1.34455e+07
       703.60000  2.71790e-07  1.34672e+07
       703.70000  2.71790e-07  1.34835e+07
       703.80000  2.69267e-07  1.33772e+07
       703.90000  2.69267e-07  1.33934e+07
       704.00000  2.69267e-07  1.34068e+07
       704.10000  2.69267e-07  1.34230e+07
       704.20000  2.69267e-07  1.34364e+07
       704.30000  2.69267e-07  1.34472e+07
       704.40000  2.69267e-07  1.34580e+07
       704.50000  3.82983e-07  1.91568e+07
       704.60000  3.82983e-07  1.91721e+07
       704.70000  3.82983e-07  1.91836e+07
       704.80000  3.82983e-07  1.91913e+07
       704.90000  3.82983e-07  1.92028e+07
       705.00000  3.82983e-07  1.92104e+07
       705.10000  3.82983e-07  1.92142e+07
       705.20000  3.82983e-07  1.92181e+07
       705.30000  3.82983e-07  1.92219e+07
       705.40000  3.82983e-07  1.92257e+07
       705.50000  3.81328e-07  1.91427e+07
       705.60000  3.81328e-07  1.91427e+07
       705.70000  3.81328e-07  1.91389e+07
       705.80000  3.81328e-07  1.91351e+07
       705.90000  3.81328e-07  1.91312e+07
       706.00000  3.81328e-07  1.91236e+07
       706.10000  3.81328e-07  1.91160e+07
       706.20000  3.81328e-07  1.91046e+07
       706.30000  3.77567e-07  1.89048e+07
       706.40000  3.77567e-07  1.88934e+07
       706.50000  4.35256e-07  2.17628e+07
       706.60000  4.35256e-07  2.17454e+07
       706.70000  4.35256e-07  2.17280e+07
       706.80000  4.35256e-07  2.17062e+07
       706.90000  4.35256e-07  2.16845e+07
       707.00000  4.35256e-07  2.16627e+07
       707.10000  4.35256e-07  2.16453e+07
       707.20000  4.35256e-07  2.16322e+07
       707.30000  4.35256e-07  2.16148e+07
       707.40000  4.35256e-07  2.16018e+07
       707.50000  4.61025e-07  2.28668e+07
       707.60000  4.61025e-07  2.28530e+07
       707.70000  4.61025e-07  2.28438e+07
       707.80000  4.61025e-07  2.28300e+07
       707.90000  4.61025e-07  2.28207e+07
       708.00000  4.61025e-07  2.28115e+07
       708.10000  4.61025e-07  2.28023e+07
       708.20000  4.61025e-07  2.27931e+07
       708.30000  4.61025e-07  2.27838e+07
       708.40000  4.61025e-07  2.27746e+07
       708.50000  5.27020e-07  2.60295e+07
       708.60000  5.27020e-07  2.60190e+07
       708.70000  5.27020e-07  2.60137e+07
       708.80000  5.20983e-07  2.57105e+07
       708.90000  5.20983e-07  2.57053e+07
       709.00000  5.20983e-07  2.57053e+07
       709.10000  5.20983e-07  2.57157e+07
       709.20000  5.20983e-07  2.57261e+07
       709.30000  5.20983e-07  2.57313e+07
       709.40000  5.20983e-07  2.57418e+07
       709.50000  5.49169e-07  2.71400e+07
       709.60000  5.49169e-07  2.71509e+07
       709.70000  5.49169e-07  2.71564e+07
       709.80000  5.49169e-07  2.71619e+07
       709.90000  5.49169e-07  2.71674e+07
       710.00000  5.49169e-07  2.71729e+07
       710.10000  5.49169e-07  2.71784e+07
       710.20000  5.49169e-07  2.71839e+07
       710.30000  5.49169e-07  2.71839e+07
       710.40000  5.49169e-07  2.71894e+07
       710.50000  5.70875e-07  2.82640e+07
       710.60000  5.70875e-07  2.82640e+07
       710.70000  5.70875e-07  2.82640e+07
       710.80000  5.70875e-07  2.82640e+07
       710.90000  5.70875e-07  2.82640e+07
       711.00000  5.70875e-07  2.82640e+07
       711.10000  5.70875e-07  2.82640e+07
       711.20000  5.70875e-07  2.82583e+07
       711.30000  5.62535e-07  2.78455e+07
       711.40000  5.62535e-07  2.78398e+07
       711.50000  9.03256e-07  4.46931e+07
       711.60000  9.03256e-07  4.46840e+07
       711.70000  9.03256e-07  4.46750e+07
       711.80000  9.03256e-07  4.46660e+07
       711.90000  9.03256e-07  4.46570e+07
       712.00000  9.03256e-07  4.46389e+07
       712.10000  9.03256e-07  4.46299e+07
       712.20000  9.03256e-07  4.46118e+07
       712.30000  9.03256e-07  4.46028e+07
       712.40000  9.03256e-07  4.45847e+07
       712.50000  1.21084e-06  5.97430e+07
       712.60000  1.21084e-06  5.97188e+07
       712.70000  1.21084e-06  5.96825e+07
       712.80000  1.21084e-06  5.96583e+07
       712.90000  1.21084e-06  5.96341e+07
       713.00000  1.21084e-06  5.95977e+07
       713.10000  1.21084e-06  5.95977e+07
       713.20000  1.21084e-06  5.95977e+07
       713.30000  1.21084e-06  5.95977e+07
       713.40000  1.21084e-06  5.95856e+07
       713.50000  1.55145e-06  7.63467e+07
       713.60000  1.55145e-06  7.63467e+07
       713.70000  1.55145e-06  7.63312e+07
       713.80000  1.53030e-06  7.52908e+07
       713.90000  1.53030e-06  7.52755e+07
       714.00000  1.53030e-06  7.52755e+07
       714.10000  1.53030e-06  7.52602e+07
       714.20000  1.53030e-06  7.52449e+07
       714.30000  1.53030e-06  7.52449e+07
       714.40000  1.53030e-06  7.52296e+07
       714.50000  1.80429e-06  8.86807e+07
       714.60000  1.80429e-06  8.86626e+07
       714.70000  1.80429e-06  8.86626e+07
       714.80000  1.80429e-06  8.86446e+07
       714.90000  1.80429e-06  8.86265e+07
       715.00000  1.80429e-06  8.86085e+07
       715.10000  1.80429e-06  8.85904e+07
       715.20000  1.80429e-06  8.85904e+07
       715.30000  1.80429e-06  8.85904e+07
       715.40000  1.80429e-06  8.85724e+07
       715.50000  3.61160e-06  1.77257e+08
       715.60000  3.61160e-06  1.77221e+08
       715.70000  3.61160e-06  1.77185e+08
       715.80000  3.61160e-06  1.77149e+08
       715.90000  3.61160e-06  1.77113e+08
       716.00000  3.61160e-06  1.77041e+08
       716.10000  3.61160e-06  1.77005e+08
       716.20000  3.61160e-06  1.76932e+08
       716.30000  3.56335e-06  1.74497e+08
       716.40000  3.56335e-06  1.74426e+08
       716.50000  1.46208e-06  7.15396e+07
       716.60000  1.46208e-06  7.15104e+07
       716.70000  1.46208e-06  7.14812e+07
       716.80000  1.46208e-06  7.14373e+07
       716.90000  1.46208e-06  7.14081e+07
       717.00000  1.46208e-06  7.13642e+07
       717.10000  1.46208e-06  7.13203e+07
       717.20000  1.46208e-06  7.12765e+07
       717.30000  1.46208e-06  7.12326e+07
       717.40000  1.46208e-06  7.11887e+07
       717.50000  7.13853e-06  3.47361e+08
       717.60000  7.13853e-06  3.47075e+08
       717.70000  7.13853e-06  3.46861e+08
       717.80000  7.13853e-06  3.46576e+08
       717.90000  7.13853e-06  3.46290e+08
       718.00000  7.13853e-06  3.46005e+08
       718.10000  7.13853e-06  3.45719e+08
       718.20000  7.13853e-06  3.45433e+08
       718.30000  7.13853e-06  3.45148e+08
       718.40000  7.13853e-06  3.44791e+08
       718.50000  1.07245e-05  5.17566e+08
       718.60000  1.07245e-05  5.17030e+08
       718.70000  1.07245e-05  5.16494e+08
       718.80000  1.05958e-05  5.09762e+08
       718.90000  1.05958e-05  5.09232e+08
       719.00000  1.05958e-05  5.08702e+08
       719.10000  1.05958e-05  5.08702e+08
       719.20000  1.05958e-05  5.08702e+08
       719.30000  1.05958e-05  5.08702e+08
       719.40000  1.05958e-05  5.08808e+08
       719.50000  1.88435e-05  9.04865e+08
       719.60000  1.88435e-05  9.05054e+08
       719.70000  1.88435e-05  9.05054e+08
       719.80000  1.88435e-05  9.05242e+08
       719.90000  1.88435e-05  9.05430e+08
       720.00000  1.88435e-05  9.05807e+08
       720.10000  1.88435e-05  9.05996e+08
       720.20000  1.88435e-05  9.06184e+08
       720.30000  1.88435e-05  9.06561e+08
       720.40000  1.88435e-05  9.06750e+08
       720.50000  4.12275e-05  1.98469e+09
       720.60000  4.12275e-05  1.98551e+09
       720.70000  4.12275e-05  1.98634e+09
       720.80000  4.12275e-05  1.98716e+09
       720.90000  4.12275e-05  1.98840e+09
       721.00000  4.12275e-05  1.98922e+09
       721.10000  4.12275e-05  1.99129e+09
       721.20000  4.12275e-05  1.99335e+09
       721.30000  4.07625e-05  1.97290e+09
       721.40000  4.07625e-05  1.97454e+09
       721.50000  0.000103163  5.00240e+09
       721.60000  0.000103163  5.00652e+09
       721.70000  0.000103163  5.01065e+09
       721.80000  0.000103163  5.01581e+09
       721.90000  0.000103163  5.01994e+09
       722.00000  0.000103163  5.02303e+09
       722.10000  0.000103163  5.02716e+09
       722.20000  0.000103163  5.03128e+09
       722.30000  0.000103163  5.03438e+09
       722.40000  0.000103163  5.03747e+09
       722.50000  0.000284919  1.39212e+10
       722.60000  0.000284919  1.39326e+10
       722.70000  0.000284919  1.39383e+10
       722.80000  0.000284919  1.39468e+10
       722.90000  0.000284919  1.39554e+10
       723.00000  0.000284919  1.39611e+10
       723.10000  0.000284919  1.39696e+10
       723.20000  0.000284919  1.39753e+10
       723.30000  0.000284919  1.39810e+10
       723.40000  0.000284919  1.39867e+10
       723.50000   0.00109038  5.35487e+10
       723.60000   0.00109038  5.35596e+10
       723.70000   0.00109038  5.35814e+10
       723.80000   0.00107807  5.29874e+10
       723.90000   0.00107807  5.29981e+10
       724.00000   0.00107807  5.30089e+10
       724.10000   0.00107807  5.30197e+10
       724.20000   0.00107807  5.30305e+10
       724.30000   0.00107807  5.30413e+10
       724.40000   0.00107807  5.30521e+10
       724.50000   0.00563414  2.77256e+11
       724.60000   0.00563414  2.77256e+11
       724.70000   0.00563414  2.77256e+11
       724.80000   0.00563414  2.77256e+11
       724.90000   0.00563414  2.77256e+11
       725.00000   0.00563414  2.77256e+11
       725.10000   0.00563414  2.77369e+11
       725.20000   0.00563414  2.77481e+11
       725.30000   0.00563414  2.77538e+11
       725.40000   0.00563414  2.77650e+11
       725.50000    0.0376575  1.85614e+12
       725.60000    0.0376575  1.85652e+12
       725.70000    0.0376575  1.85652e+12
       725.80000    0.0376575  1.85689e+12
       725.90000    0.0376575  1.85689e+12
       726.00000    0.0376575  1.85689e+12
       726.10000    0.0376575  1.85689e+12
       726.20000    0.0376575  1.85689e+12
       726.30000    0.0372376  1.83581e+12
       726.40000    0.0372376  1.83544e+12
       726.50000     0.134906  6.64817e+12
       726.60000     0.134906  6.64682e+12
       726.70000     0.134906  6.64547e+12
       726.80000     0.134906  6.64278e+12
       726.90000     0.134906  6.64008e+12
       727.00000     0.134906  6.63738e+12
       727.10000     0.134906  6.62794e+12
       727.20000     0.134906  6.61849e+12
       727.30000     0.134906  6.60905e+12
       727.40000     0.134906  6.60096e+12
       727.50000     0.156454  7.64591e+12
       727.60000     0.156454  7.63652e+12
       727.70000     0.156454  7.62870e+12
       727.80000     0.156454  7.62088e+12
       727.90000     0.156454  7.61306e+12
       728.00000     0.156454  7.60680e+12
       728.10000     0.156454  7.60054e+12
       728.20000     0.156454  7.59428e+12
       728.30000     0.156454  7.58802e+12
       728.40000     0.156454  7.58333e+12
       728.50000     0.155424  7.52873e+12
       728.60000     0.155424  7.52562e+12
       728.70000     0.155424  7.52096e+12
       728.80000     0.153691  7.43555e+12
       728.90000     0.153691  7.43248e+12
       729.00000     0.153691  7.43094e+12
       729.10000     0.153691  7.42940e+12
       729.20000     0.153691  7.42787e+12
       729.30000     0.153691  7.42787e+12
       729.40000     0.153691  7.42633e+12
       729.50000     0.134712  6.51064e+12
       729.60000     0.134712  6.51064e+12
       729.70000     0.134712  6.51199e+12
       729.80000     0.134712  6.51333e+12
       729.90000     0.134712  6.51603e+12
       730.00000     0.134712  6.51872e+12
       730.10000     0.134712  6.52141e+12
       730.20000     0.134712  6.52411e+12
       730.30000     0.134712  6.52815e+12
       730.40000     0.134712  6.53219e+12
       730.50000    0.0352790  1.71174e+12
       730.60000    0.0352790  1.71315e+12
       730.70000    0.0352790  1.71456e+12
       730.80000    0.0352790  1.71597e+12
       730.90000    0.0352790  1.71773e+12
       731.00000    0.0352790  1.71950e+12
       731.10000    0.0352790  1.71914e+12
       731.20000    0.0352790  1.71879e+12
       731.30000    0.0348417  1.69714e+12
       731.40000    0.0348417  1.69714e+12
       731.50000   0.00468458  2.28139e+11
       731.60000   0.00468458  2.28092e+11
       731.70000   0.00468458  2.28045e+11
       731.80000   0.00468458  2.28045e+11
       731.90000   0.00468458  2.27998e+11
       732.00000   0.00468458  2.27952e+11
       732.10000   0.00468458  2.27905e+11
       732.20000   0.00468458  2.27858e+11
       732.30000   0.00468458  2.27858e+11
       732.40000   0.00468458  2.27811e+11
       732.50000  0.000952650  4.63179e+10
       732.60000  0.000952650  4.63083e+10
       732.70000  0.000952650  4.62988e+10
       732.80000  0.000952650  4.62893e+10
       732.90000  0.000952650  4.62798e+10
       733.00000  0.000952650  4.62702e+10
       733.10000  0.000952650  4.62607e+10
       733.20000  0.000952650  4.62416e+10
       733.30000  0.000952650  4.62321e+10
       733.40000  0.000952650  4.62131e+10
       733.50000  0.000269870  1.30887e+10
       733.60000  0.000269870  1.30860e+10
       733.70000  0.000269870  1.30806e+10
       733.80000  0.000266167  1.28985e+10
       733.90000  0.000266167  1.28958e+10
       734.00000  0.000266167  1.28931e+10
       734.10000  0.000266167  1.28905e+10
       734.20000  0.000266167  1.28878e+10
       734.30000  0.000266167  1.28851e+10
       734.40000  0.000266167  1.28851e+10
       734.50000  9.66123e-05  4.67604e+09
       734.60000  9.66123e-05  4.67507e+09
       734.70000  9.66123e-05  4.67507e+09
       734.80000  9.66123e-05  4.67411e+09
       734.90000  9.66123e-05  4.67411e+09
       735.00000  9.66123e-05  4.67314e+09
       735.10000  9.66123e-05  4.67314e+09
       735.20000  9.66123e-05  4.67314e+09
       735.30000  9.66123e-05  4.67314e+09
       735.40000  9.66123e-05  4.67217e+09
       735.50000  4.72773e-05  2.28633e+09
       735.60000  4.72773e-05  2.28633e+09
       735.70000  4.72773e-05  2.28633e+09
       735.80000  4.72773e-05  2.28680e+09
       735.90000  4.72773e-05  2.28680e+09
       736.00000  4.72773e-05  2.28680e+09
       736.10000  4.72773e-05  2.28680e+09
       736.20000  4.72773e-05  2.28728e+09
       736.30000  4.65330e-05  2.25127e+09
       736.40000  4.65330e-05  2.25173e+09
       736.50000  2.13512e-05  1.03318e+09
       736.60000  2.13512e-05  1.03340e+09
       736.70000  2.13512e-05  1.03361e+09
       736.80000  2.13512e-05  1.03361e+09
       736.90000  2.13512e-05  1.03383e+09
       737.00000  2.13512e-05  1.03404e+09
       737.10000  2.13512e-05  1.03297e+09
       737.20000  2.13512e-05  1.03169e+09
       737.30000  2.13512e-05  1.03062e+09
       737.40000  2.13512e-05  1.02956e+09
       737.50000  3.45219e-05  1.66258e+09
       737.60000  3.45219e-05  1.66085e+09
       737.70000  3.45219e-05  1.65912e+09
       737.80000  3.45219e-05  1.65740e+09
       737.90000  3.45219e-05  1.65602e+09
       738.00000  3.45219e-05  1.65429e+09
       738.10000  3.45219e-05  1.65256e+09
       738.20000  3.45219e-05  1.65084e+09
       738.30000  3.45219e-05  1.64946e+09
       738.40000  3.45219e-05  1.64808e+09
       738.50000  1.48146e-05  7.06509e+08
       738.60000  1.48146e-05  7.05916e+08
       738.70000  1.48146e-05  7.05324e+08
       738.80000  1.45597e-05  6.92605e+08
       738.90000  1.45597e-05  6.92023e+08
       739.00000  1.45597e-05  6.91441e+08
       739.10000  1.45597e-05  6.90276e+08
       739.20000  1.45597e-05  6.89257e+08
       739.30000  1.45597e-05  6.88383e+08
       739.40000  1.45597e-05  6.87510e+08
       739.50000  6.47510e-06  3.05366e+08
       739.60000  6.47510e-06  3.05042e+08
       739.70000  6.47510e-06  3.04783e+08
       739.80000  6.47510e-06  3.04459e+08
       739.90000  6.47510e-06  3.04265e+08
       740.00000  6.47510e-06  3.04006e+08
       740.10000  6.47510e-06  3.03876e+08
       740.20000  6.47510e-06  3.03682e+08
       740.30000  6.47510e-06  3.03553e+08
       740.40000  6.47510e-06  3.03488e+08
       740.50000  4.86315e-06  2.27887e+08
       740.60000  4.86315e-06  2.27839e+08
       740.70000  4.86315e-06  2.27839e+08
       740.80000  4.86315e-06  2.27839e+08
       740.90000  4.86315e-06  2.27887e+08
       741.00000  4.86315e-06  2.27936e+08
       741.10000  4.86315e-06  2.28033e+08
       741.20000  4.86315e-06  2.28130e+08
       741.30000  4.77908e-06  2.24282e+08
       741.40000  4.77908e-06  2.24426e+08
       741.50000  3.18814e-06  1.49811e+08
       741.60000  3.18814e-06  1.49938e+08
       741.70000  3.18814e-06  1.50097e+08
       741.80000  3.18814e-06  1.50225e+08
       741.90000  3.18814e-06  1.50416e+08
       742.00000  3.18814e-06  1.50576e+08
       742.10000  3.18814e-06  1.50767e+08
       742.20000  3.18814e-06  1.50990e+08
       742.30000  3.18814e-06  1.51213e+08
       742.40000  3.18814e-06  1.51437e+08
       742.50000  1.59438e-06  7.58605e+07
       742.60000  1.59438e-06  7.59880e+07
       742.70000  1.59438e-06  7.61315e+07
       742.80000  1.59438e-06  7.62750e+07
       742.90000  1.59438e-06  7.64344e+07
       743.00000  1.59438e-06  7.65939e+07
       743.10000  1.59438e-06  7.65620e+07
       743.20000  1.59438e-06  7.65460e+07
       743.30000  1.59438e-06  7.65301e+07
       743.40000  1.59438e-06  7.64982e+07
       743.50000  1.26268e-06  6.05710e+07
       743.60000  1.26268e-06  6.05584e+07
       743.70000  1.26268e-06  6.05457e+07
       743.80000  1.24320e-06  5.95988e+07
       743.90000  1.24320e-06  5.95864e+07
       744.00000  1.24320e-06  5.95740e+07
       744.10000  1.24320e-06  5.95740e+07
       744.20000  1.24320e-06  5.95615e+07
       744.30000  1.24320e-06  5.95615e+07
       744.40000  1.24320e-06  5.95615e+07
       744.50000  9.78755e-07  4.68824e+07
       744.60000  9.78755e-07  4.68824e+07
       744.70000  9.78755e-07  4.68824e+07
       744.80000  9.78755e-07  4.68824e+07
       744.90000  9.78755e-07  4.68922e+07
       745.00000  9.78755e-07  4.68922e+07
       745.10000  9.78755e-07  4.69215e+07
       745.20000  9.78755e-07  4.69509e+07
       745.30000  9.78755e-07  4.69705e+07
       745.40000  9.78755e-07  4.69998e+07
       745.50000  8.99096e-07  4.31926e+07
       745.60000  8.99096e-07  4.32106e+07
       745.70000  8.99096e-07  4.32286e+07
       745.80000  8.99096e-07  4.32465e+07
       745.90000  8.99096e-07  4.32555e+07
       746.00000  8.99096e-07  4.32735e+07
       746.10000  8.99096e-07  4.32825e+07
       746.20000  8.99096e-07  4.32915e+07
       746.30000  8.88773e-07  4.28033e+07
       746.40000  8.88773e-07  4.28122e+07
       746.50000  6.32424e-07  3.04702e+07
       746.60000  6.32424e-07  3.04702e+07
       746.70000  6.32424e-07  3.04765e+07
       746.80000  6.32424e-07  3.04765e+07
       746.90000  6.32424e-07  3.04765e+07
       747.00000  6.32424e-07  3.04765e+07
       747.10000  6.32424e-07  3.04575e+07
       747.20000  6.32424e-07  3.04449e+07
       747.30000  6.32424e-07  3.04322e+07
       747.40000  6.32424e-07  3.04196e+07
       747.50000  5.67205e-07  2.72712e+07
       747.60000  5.67205e-07  2.72599e+07
       747.70000  5.67205e-07  2.72485e+07
       747.80000  5.67205e-07  2.72372e+07
       747.90000  5.67205e-07  2.72258e+07
       748.00000  5.67205e-07  2.72145e+07
       748.10000  5.67205e-07  2.72088e+07
       748.20000  5.67205e-07  2.71975e+07
       748.30000  5.67205e-07  2.71861e+07
       748.40000  5.67205e-07  2.71804e+07
       748.50000  5.47782e-07  2.62387e+07
       748.60000  5.47782e-07  2.62278e+07
       748.70000  5.47782e-07  2.62223e+07
       748.80000  5.41527e-07  2.59121e+07
       748.90000  5.41527e-07  2.59066e+07
       749.00000  5.41527e-07  2.59012e+07
       749.10000  5.41527e-07  2.58904e+07
       749.20000  5.41527e-07  2.58850e+07
       749.30000  5.41527e-07  2.58796e+07
       749.40000  5.41527e-07  2.58741e+07
       749.50000  5.53732e-07  2.64518e+07
       749.60000  5.53732e-07  2.64462e+07
       749.70000  5.53732e-07  2.64352e+07
       749.80000  5.53732e-07  2.64296e+07
       749.90000  5.53732e-07  2.64296e+07
       750.00000  5.53732e-07  2.64241e+07
       750.10000  5.53732e-07  2.64186e+07
       750.20000  5.53732e-07  2.64130e+07
       750.30000  5.53732e-07  2.64075e+07
       750.40000  5.53732e-07  2.64075e+07
       750.50000  4.31930e-07  2.05944e+07
       750.60000  4.31930e-07  2.05901e+07
       750.70000  4.31930e-07  2.05901e+07
       750.80000  4.31930e-07  2.05858e+07
       750.90000  4.31930e-07  2.05858e+07
       751.00000  4.31930e-07  2.05814e+07
       751.10000  4.31930e-07  2.05814e+07
       751.20000  4.31930e-07  2.05814e+07
       751.30000  4.26390e-07  2.03132e+07
       751.40000  4.26390e-07  2.03132e+07
       751.50000  4.75227e-07  2.26398e+07
       751.60000  4.75227e-07  2.26398e+07
       751.70000  4.75227e-07  2.26398e+07
       751.80000  4.75227e-07  2.26398e+07
       751.90000  4.75227e-07  2.26398e+07
       752.00000  4.75227e-07  2.26398e+07
       752.10000  4.75227e-07  2.26398e+07
       752.20000  4.75227e-07  2.26398e+07
       752.30000  4.75227e-07  2.26398e+07
       752.40000  4.75227e-07  2.26398e+07
       752.50000  4.88147e-07  2.32602e+07
       752.60000  4.88147e-07  2.32602e+07
       752.70000  4.88147e-07  2.32602e+07
       752.80000  4.88147e-07  2.32651e+07
       752.90000  4.88147e-07  2.32651e+07
       753.00000  4.88147e-07  2.32700e+07
       753.10000  4.88147e-07  2.32700e+07
       753.20000  4.88147e-07  2.32700e+07
       753.30000  4.88147e-07  2.32700e+07
       753.40000  4.88147e-07  2.32700e+07
       753.50000  3.87069e-07  1.84516e+07
       753.60000  3.87069e-07  1.84516e+07
       753.70000  3.87069e-07  1.84516e+07
       753.80000  3.81621e-07  1.81919e+07
       753.90000  3.81621e-07  1.81919e+07
       754.00000  3.81621e-07  1.81919e+07
       754.10000  3.81621e-07  1.81919e+07
       754.20000  3.81621e-07  1.81880e+07
       754.30000  3.81621e-07  1.81880e+07
       754.40000  3.81621e-07  1.81880e+07
       754.50000  3.67852e-07  1.75318e+07
       754.60000  3.67852e-07  1.75318e+07
       754.70000  3.67852e-07  1.75282e+07
       754.80000  3.67852e-07  1.75282e+07
       754.90000  3.67852e-07  1.75245e+07
       755.00000  3.67852e-07  1.75245e+07
       755.10000  3.67852e-07  1.75208e+07
       755.20000  3.67852e-07  1.75208e+07
       755.30000  3.67852e-07  1.75171e+07
       755.40000  3.67852e-07  1.75171e+07
       755.50000  4.73181e-07  2.25282e+07
       755.60000  4.73181e-07  2.25234e+07
       755.70000  4.73181e-07  2.25234e+07
       755.80000  4.73181e-07  2.25187e+07
       755.90000  4.73181e-07  2.25140e+07
       756.00000  4.73181e-07  2.25140e+07
       756.10000  4.73181e-07  2.25092e+07
       756.20000  4.73181e-07  2.25045e+07
       756.30000  4.66374e-07  2.21761e+07
       756.40000  4.66374e-07  2.21761e+07
       756.50000  3.58284e-07  1.70328e+07
       756.60000  3.58284e-07  1.70292e+07
       756.70000  3.58284e-07  1.70256e+07
       756.80000  3.58284e-07  1.70256e+07
       756.90000  3.58284e-07  1.70221e+07
       757.00000  3.58284e-07  1.70185e+07
       757.10000  3.58284e-07  1.70149e+07
       757.20000  3.58284e-07  1.70113e+07
       757.30000  3.58284e-07  1.70113e+07
       757.40000  3.58284e-07  1.70077e+07
       757.50000  3.88496e-07  1.84380e+07
       757.60000  3.88496e-07  1.84341e+07
       757.70000  3.88496e-07  1.84302e+07
       757.80000  3.88496e-07  1.84264e+07
       757.90000  3.88496e-07  1.84225e+07
       758.00000  3.88496e-07  1.84225e+07
       758.10000  3.88496e-07  1.84186e+07
       758.20000  3.88496e-07  1.84147e+07
       758.30000  3.88496e-07  1.84108e+07
       758.40000  3.88496e-07  1.84069e+07
       758.50000  3.06287e-07  1.45088e+07
       758.60000  3.06287e-07  1.45058e+07
       758.70000  3.06287e-07  1.45027e+07
       758.80000  3.00867e-07  1.42431e+07
       758.90000  3.00867e-07  1.42400e+07
       759.00000  3.00867e-07  1.42370e+07
       759.10000  3.00867e-07  1.42370e+07
       759.20000  3.00867e-07  1.42340e+07
       759.30000  3.00867e-07  1.42340e+07
       759.40000  3.00867e-07  1.42310e+07
       759.50000  3.80634e-07  1.80040e+07
       759.60000  3.80634e-07  1.80040e+07
       759.70000  3.80634e-07  1.80002e+07
       759.80000  3.80634e-07  1.80002e+07
       759.90000  3.80634e-07  1.80002e+07
       760.00000  3.80634e-07  1.80002e+07
       760.10000  3.80634e-07  1.80002e+07
       760.20000  3.80634e-07  1.80002e+07
       760.30000  3.80634e-07  1.80040e+07
       760.40000  3.80634e-07  1.80040e+07
       760.50000  4.10981e-07  1.94394e+07
       760.60000  4.10981e-07  1.94435e+07
       760.70000  4.10981e-07  1.94435e+07
       760.80000  4.10981e-07  1.94476e+07
       760.90000  4.10981e-07  1.94476e+07
       761.00000  4.10981e-07  1.94518e+07
       761.10000  4.10981e-07  1.94682e+07
       761.20000  4.10981e-07  1.94805e+07
       761.30000  4.02512e-07  1.90911e+07
       761.40000  4.02512e-07  1.91032e+07
       761.50000  3.87708e-07  1.84122e+07
       761.60000  3.87708e-07  1.84200e+07
       761.70000  3.87708e-07  1.84277e+07
       761.80000  3.87708e-07  1.84355e+07
       761.90000  3.87708e-07  1.84433e+07
       762.00000  3.87708e-07  1.84471e+07
       762.10000  3.87708e-07  1.84549e+07
       762.20000  3.87708e-07  1.84588e+07
       762.30000  3.87708e-07  1.84626e+07
       762.40000  3.87708e-07  1.84626e+07
       762.50000  3.04293e-07  1.44904e+07
       762.60000  3.04293e-07  1.44935e+07
       762.70000  3.04293e-07  1.44935e+07
       762.80000  3.04293e-07  1.44904e+07
       762.90000  3.04293e-07  1.44904e+07
       763.00000  3.04293e-07  1.44874e+07
       763.10000  3.04293e-07  1.44843e+07
       763.20000  3.04293e-07  1.44813e+07
       763.30000  3.04293e-07  1.44752e+07
       763.40000  3.04293e-07  1.44691e+07
       763.50000  4.36210e-07  2.07330e+07
       763.60000  4.36210e-07  2.07243e+07
       763.70000  4.36210e-07  2.07156e+07
       763.80000  4.25303e-07  2.01849e+07
       763.90000  4.25303e-07  2.01721e+07
       764.00000  4.25303e-07  2.01594e+07
       764.10000  4.25303e-07  2.01466e+07
       764.20000  4.25303e-07  2.01296e+07
       764.30000  4.25303e-07  2.01126e+07
       764.40000  4.25303e-07  2.00956e+07
       764.50000  3.31948e-07  1.56713e+07
       764.60000  3.31948e-07  1.56580e+07
       764.70000  3.31948e-07  1.56414e+07
       764.80000  3.31948e-07  1.56248e+07
       764.90000  3.31948e-07  1.56082e+07
       765.00000  3.31948e-07  1.55883e+07
       765.10000  3.31948e-07  1.55518e+07
       765.20000  3.31948e-07  1.55152e+07
       765.30000  3.31948e-07  1.54820e+07
       765.40000  3.31948e-07  1.54489e+07
       765.50000  3.03576e-07  1.41011e+07
       765.60000  3.03576e-07  1.40768e+07
       765.70000  3.03576e-07  1.40495e+07
       765.80000  3.03576e-07  1.40283e+07
       765.90000  3.03576e-07  1.40070e+07
       766.00000  3.03576e-07  1.39858e+07
       766.10000  3.03576e-07  1.39676e+07
       766.20000  3.03576e-07  1.39493e+07
       766.30000  2.96082e-07  1.35902e+07
       766.40000  2.96082e-07  1.35783e+07
       766.50000  2.94341e-07  1.34867e+07
       766.60000  2.94341e-07  1.34749e+07
       766.70000  2.94341e-07  1.34691e+07
       766.80000  2.94341e-07  1.34602e+07
       766.90000  2.94341e-07  1.34543e+07
       767.00000  2.94341e-07  1.34514e+07
       767.10000  2.94341e-07  1.34661e+07
       767.20000  2.94341e-07  1.34838e+07
       767.30000  2.94341e-07  1.34985e+07
       767.40000  2.94341e-07  1.35132e+07
       767.50000  3.27021e-07  1.50299e+07
       767.60000  3.27021e-07  1.50462e+07
       767.70000  3.27021e-07  1.50626e+07
       767.80000  3.27021e-07  1.50756e+07
       767.90000  3.27021e-07  1.50920e+07
       768.00000  3.27021e-07  1.51051e+07
       768.10000  3.27021e-07  1.51182e+07
       768.20000  3.27021e-07  1.51312e+07
       768.30000  3.27021e-07  1.51410e+07
       768.40000  3.27021e-07  1.51541e+07
       768.50000  3.56965e-07  1.65525e+07
       768.60000  3.56965e-07  1.65632e+07
       768.70000  3.56965e-07  1.65739e+07
       768.80000  3.48847e-07  1.62074e+07
       768.90000  3.48847e-07  1.62179e+07
       769.00000  3.48847e-07  1.62249e+07
       769.10000  3.48847e-07  1.62353e+07
       769.20000  3.48847e-07  1.62423e+07
       769.30000  3.48847e-07  1.62493e+07
       769.40000  3.48847e-07  1.62563e+07
       769.50000  3.19681e-07  1.49003e+07
       769.60000  3.19681e-07  1.49067e+07
       769.70000  3.19681e-07  1.49099e+07
       769.80000  3.19681e-07  1.49163e+07
       769.90000  3.19681e-07  1.49195e+07
       770.00000  3.19681e-07  1.49195e+07
       770.10000  3.19681e-07  1.49227e+07
       770.20000  3.19681e-07  1.49259e+07
       770.30000  3.19681e-07  1.49259e+07
       770.40000  3.19681e-07  1.49259e+07
       770.50000  2.89047e-07  1.34956e+07
       770.60000  2.89047e-07  1.34956e+07
       770.70000  2.89047e-07  1.34956e+07
       770.80000  2.89047e-07  1.34956e+07
       770.90000  2.89047e-07  1.34927e+07
       771.00000  2.89047e-07  1.34898e+07
       771.10000  2.89047e-07  1.35014e+07
       771.20000  2.89047e-07  1.35101e+07
       771.30000  2.83598e-07  1.32639e+07
       771.40000  2.83598e-07  1.32724e+07
       771.50000  3.85692e-07  1.80619e+07
       771.60000  3.85692e-07  1.80697e+07
       771.70000  3.85692e-07  1.80812e+07
       771.80000  3.85692e-07  1.80889e+07
       771.90000  3.85692e-07  1.80928e+07
       772.00000  3.85692e-07  1.81005e+07
       772.10000  3.85692e-07  1.81044e+07
       772.20000  3.85692e-07  1.81082e+07
       772.30000  3.85692e-07  1.81121e+07
       772.40000  3.85692e-07  1.81159e+07
       772.50000  3.85504e-07  1.81071e+07
       772.60000  3.85504e-07  1.81071e+07
       772.70000  3.85504e-07  1.81071e+07
       772.80000  3.85504e-07  1.81033e+07
       772.90000  3.85504e-07  1.81033e+07
       773.00000  3.85504e-07  1.80994e+07
       773.10000  3.85504e-07  1.80763e+07
       773.20000  3.85504e-07  1.80570e+07
       773.30000  3.85504e-07  1.80339e+07
       773.40000  3.85504e-07  1.80146e+07
       773.50000  3.97118e-07  1.85375e+07
       773.60000  3.97118e-07  1.85216e+07
       773.70000  3.97118e-07  1.85057e+07
       773.80000  3.90919e-07  1.82012e+07
       773.90000  3.90919e-07  1.81856e+07
       774.00000  3.90919e-07  1.81699e+07
       774.10000  3.90919e-07  1.81582e+07
       774.20000  3.90919e-07  1.81465e+07
       774.30000  3.90919e-07  1.81387e+07
       774.40000  3.90919e-07  1.81269e+07
       774.50000  2.59862e-07  1.20446e+07
       774.60000  2.59862e-07  1.20420e+07
       774.70000  2.59862e-07  1.20368e+07
       774.80000  2.59862e-07  1.20342e+07
       774.90000  2.59862e-07  1.20316e+07
       775.00000  2.59862e-07  1.20290e+07
       775.10000  2.59862e-07  1.20290e+07
       775.20000  2.59862e-07  1.20290e+07
       775.30000  2.59862e-07  1.20290e+07
       775.40000  2.59862e-07  1.20290e+07
       775.50000  3.70143e-07  1.71376e+07
       775.60000  3.70143e-07  1.71413e+07
       775.70000  3.70143e-07  1.71450e+07
       775.80000  3.70143e-07  1.71487e+07
       775.90000  3.70143e-07  1.71561e+07
       776.00000  3.70143e-07  1.71635e+07
       776.10000  3.70143e-07  1.71709e+07
       776.20000  3.70143e-07  1.71820e+07
       776.30000  3.64784e-07  1.69442e+07
       776.40000  3.64784e-07  1.69552e+07
       776.50000  2.50052e-07  1.16299e+07
       776.60000  2.50052e-07  1.16399e+07
       776.70000  2.50052e-07  1.16499e+07
       776.80000  2.50052e-07  1.16599e+07
       776.90000  2.50052e-07  1.16724e+07
       777.00000  2.50052e-07  1.16824e+07
       777.10000  2.50052e-07  1.16774e+07
       777.20000  2.50052e-07  1.16749e+07
       777.30000  2.50052e-07  1.16699e+07
       777.40000  2.50052e-07  1.16649e+07
       777.50000  3.59138e-07  1.67466e+07
       777.60000  3.59138e-07  1.67430e+07
       777.70000  3.59138e-07  1.67358e+07
       777.80000  3.59138e-07  1.67322e+07
       777.90000  3.59138e-07  1.67286e+07
       778.00000  3.59138e-07  1.67215e+07
       778.10000  3.59138e-07  1.67179e+07
       778.20000  3.59138e-07  1.67143e+07
       778.30000  3.59138e-07  1.67107e+07
       778.40000  3.59138e-07  1.67071e+07
       778.50000  2.48499e-07  1.15602e+07
       778.60000  2.48499e-07  1.15577e+07
       778.70000  2.48499e-07  1.15552e+07
       778.80000  2.45697e-07  1.14249e+07
       778.90000  2.45697e-07  1.14249e+07
       779.00000  2.45697e-07  1.14225e+07
       779.10000  2.45697e-07  1.14274e+07
       779.20000  2.45697e-07  1.14298e+07
       779.30000  2.45697e-07  1.14347e+07
       779.40000  2.45697e-07  1.14372e+07
       779.50000  3.02354e-07  1.40776e+07
       779.60000  3.02354e-07  1.40806e+07
       779.70000  3.02354e-07  1.40837e+07
       779.80000  3.02354e-07  1.40867e+07
       779.90000  3.02354e-07  1.40897e+07
       780.00000  3.02354e-07  1.40927e+07
       780.10000  3.02354e-07  1.40927e+07
       780.20000  3.02354e-07  1.40957e+07
       780.30000  3.02354e-07  1.40957e+07
       780.40000  3.02354e-07  1.40957e+07
       780.50000  4.06680e-07  1.89594e+07
       780.60000  4.06680e-07  1.89594e+07
       780.70000  4.06680e-07  1.89594e+07
       780.80000  4.06680e-07  1.89594e+07
       780.90000  4.06680e-07  1.89594e+07
       781.00000  4.06680e-07  1.89554e+07
       781.10000  4.06680e-07  1.89554e+07
       781.20000  4.06680e-07  1.89513e+07
       781.30000  4.03012e-07  1.87763e+07
       781.40000  4.03012e-07  1.87723e+07
       781.50000  2.93594e-07  1.36727e+07
       781.60000  2.93594e-07  1.36697e+07
       781.70000  2.93594e-07  1.36668e+07
       781.80000  2.93594e-07  1.36639e+07
       781.90000  2.93594e-07  1.36580e+07
       782.00000  2.93594e-07  1.36550e+07
       782.10000  2.93594e-07  1.36492e+07
       782.20000  2.93594e-07  1.36433e+07
       782.30000  2.93594e-07  1.36404e+07
       782.40000  2.93594e-07  1.36345e+07
       782.50000  2.60925e-07  1.21121e+07
       782.60000  2.60925e-07  1.21043e+07
       782.70000  2.60925e-07  1.20991e+07
       782.80000  2.60925e-07  1.20939e+07
       782.90000  2.60925e-07  1.20860e+07
       783.00000  2.60925e-07  1.20808e+07
       783.10000  2.60925e-07  1.20860e+07
       783.20000  2.60925e-07  1.20912e+07
       783.30000  2.60925e-07  1.20965e+07
       783.40000  2.60925e-07  1.20991e+07
       783.50000  2.18017e-07  1.01138e+07
       783.60000  2.18017e-07  1.01182e+07
       783.70000  2.18017e-07  1.01204e+07
       783.80000  2.16029e-07  1.00324e+07
       783.90000  2.16029e-07  1.00367e+07
       784.00000  2.16029e-07  1.00389e+07
       784.10000  2.16029e-07  1.00410e+07
       784.20000  2.16029e-07  1.00454e+07
       784.30000  2.16029e-07  1.00475e+07
       784.40000  2.16029e-07  1.00497e+07
       784.50000  3.21435e-07  1.49563e+07
       784.60000  3.21435e-07  1.49596e+07
       784.70000  3.21435e-07  1.49628e+07
       784.80000  3.21435e-07  1.49660e+07
       784.90000  3.21435e-07  1.49692e+07
       785.00000  3.21435e-07  1.49692e+07
       785.10000  3.21435e-07  1.49692e+07
       785.20000  3.21435e-07  1.49692e+07
       785.30000  3.21435e-07  1.49692e+07
       785.40000  3.21435e-07  1.49692e+07
       785.50000  1.90317e-07  8.86304e+06
       785.60000  1.90317e-07  8.86304e+06
       785.70000  1.90317e-07  8.86304e+06
       785.80000  1.90317e-07  8.86304e+06
       785.90000  1.90317e-07  8.86304e+06
       786.00000  1.90317e-07  8.86304e+06
       786.10000  1.90317e-07  8.86304e+06
       786.20000  1.90317e-07  8.86304e+06
       786.30000  1.88075e-07  8.75865e+06
       786.40000  1.88075e-07  8.75865e+06
       786.50000  1.70758e-07  7.95219e+06
       786.60000  1.70758e-07  7.95219e+06
       786.70000  1.70758e-07  7.95219e+06
       786.80000  1.70758e-07  7.95219e+06
       786.90000  1.70758e-07  7.95219e+06
       787.00000  1.70758e-07  7.95219e+06
       787.10000  1.70758e-07  7.95219e+06
       787.20000  1.70758e-07  7.95219e+06
       787.30000  1.70758e-07  7.95219e+06
       787.40000  1.70758e-07  7.95219e+06
       787.50000  1.35345e-07  6.30301e+06
       787.60000  1.35345e-07  6.30301e+06
       787.70000  1.35345e-07  6.30301e+06
       787.80000  1.35345e-07  6.30301e+06
       787.90000  1.35345e-07  6.30301e+06
       788.00000  1.35345e-07  6.30301e+06
       788.10000  1.35345e-07  6.30301e+06
       788.20000  1.35345e-07  6.30301e+06
       788.30000  1.35345e-07  6.30301e+06
       788.40000  1.35345e-07  6.30301e+06
       788.50000  1.12246e-07  5.22730e+06
       788.60000  1.12246e-07  5.22730e+06
       788.70000  1.12246e-07  5.22730e+06
       788.80000  1.10878e-07  5.16360e+06
       788.90000  1.10878e-07  5.16360e+06
       789.00000  1.10878e-07  5.16360e+06
       789.10000  1.10878e-07  5.16138e+06
       789.20000  1.10878e-07  5.15805e+06
       789.30000  1.10878e-07  5.15473e+06
       789.40000  1.10878e-07  5.15251e+06
       789.50000  8.11319e-08  3.76776e+06
       789.60000  8.11319e-08  3.76533e+06
       789.70000  8.11319e-08  3.76371e+06
       789.80000  8.11319e-08  3.76127e+06
       789.90000  8.11319e-08  3.75884e+06
       790.00000  8.11319e-08  3.75722e+06
       790.10000  8.11319e-08  3.75478e+06
       790.20000  8.11319e-08  3.75316e+06
       790.30000  8.11319e-08  3.75073e+06
       790.40000  8.11319e-08  3.74910e+06
       790.50000  3.01327e-08  1.39153e+06
       790.60000  3.01327e-08  1.39063e+06
       790.70000  3.01327e-08  1.39002e+06
       790.80000  3.01327e-08  1.38912e+06
       790.90000  3.01327e-08  1.38852e+06
       791.00000  3.01327e-08  1.38761e+06
       791.10000  3.01327e-08  1.38671e+06
       791.20000  3.01327e-08  1.38611e+06
       791.30000  2.96766e-08  1.36423e+06
       791.40000  2.96766e-08  1.36334e+06
       791.50000  3.24529e-08  1.48991e+06
       791.60000  3.24529e-08  1.48894e+06
       791.70000  3.24529e-08  1.48829e+06
       791.80000  3.24529e-08  1.48732e+06
       791.90000  3.24529e-08  1.48667e+06
       792.00000  3.24529e-08  1.48569e+06
       792.10000  3.24529e-08  1.48504e+06
       792.20000  3.24529e-08  1.48440e+06
       792.30000  3.24529e-08  1.48342e+06
       792.40000  3.24529e-08  1.48277e+06
       792.50000  4.15566e-08  1.89789e+06
       792.60000  4.15566e-08  1.89706e+06
       792.70000  4.15566e-08  1.89623e+06
       792.80000  4.15566e-08  1.89540e+06
       792.90000  4.15566e-08  1.89457e+06
       793.00000  4.15566e-08  1.89373e+06
       793.10000  4.15566e-08  1.89249e+06
       793.20000  4.15566e-08  1.89082e+06
       793.30000  4.15566e-08  1.88958e+06
       793.40000  4.15566e-08  1.88833e+06
       793.50000  5.76439e-09      261761.
       793.60000  5.76439e-09      261646.
       793.70000  5.76439e-09      261473.
       793.80000  5.66468e-09      256893.
       793.90000  5.66468e-09      256780.
       794.00000  5.66468e-09      256723.
       794.10000  5.66468e-09      256610.
       794.20000  5.66468e-09      256610.
       794.30000  5.66468e-09      256553.
       794.40000  5.66468e-09      256553.
       794.50000  9.78173e-08  4.43015e+06
       794.60000  9.78173e-08  4.43015e+06
       794.70000  9.78173e-08  4.43112e+06
       794.80000  9.78173e-08  4.43112e+06
       794.90000  9.78173e-08  4.43210e+06
       795.00000  9.78173e-08  4.43406e+06
       795.10000  9.78173e-08  4.44090e+06
       795.20000  9.78173e-08  4.44775e+06
       795.30000  9.78173e-08  4.45460e+06
       795.40000  9.78173e-08  4.46145e+06
       795.50000  4.48566e-08  2.04860e+06
       795.60000  4.48566e-08  2.05129e+06
       795.70000  4.48566e-08  2.05354e+06
       795.80000  4.48566e-08  2.05578e+06
       795.90000  4.48566e-08  2.05802e+06
       796.00000  4.48566e-08  2.05982e+06
       796.10000  4.48566e-08  2.06161e+06
       796.20000  4.48566e-08  2.06341e+06
       796.30000  4.39179e-08  2.02154e+06
       796.40000  4.39179e-08  2.02286e+06
       796.50000  9.67239e-09      445800.
       796.60000  9.67239e-09      445994.
       796.70000  9.67239e-09      446187.
       796.80000  9.67239e-09      446284.
       796.90000  9.67239e-09      446381.
       797.00000  9.67239e-09      446477.
       797.10000  9.67239e-09      446574.
       797.20000  9.67239e-09      446574.
       797.30000  9.67239e-09      446574.
       797.40000  9.67239e-09      446477.
       797.50000  6.09438e-08  2.81256e+06
       797.60000  6.09438e-08  2.81195e+06
       797.70000  6.09438e-08  2.81073e+06
       797.80000  6.09438e-08  2.80951e+06
       797.90000  6.09438e-08  2.80829e+06
       798.00000  6.09438e-08  2.80646e+06
       798.10000  6.09438e-08  2.80464e+06
       798.20000  6.09438e-08  2.80281e+06
       798.30000  6.09438e-08  2.80037e+06
       798.40000  6.09438e-08  2.79793e+06
       798.50000  3.98273e-09      182688.
       798.60000  3.98273e-09      182489.
       798.70000  3.98273e-09      182290.
       798.80000  3.89002e-09      177852.
       798.90000  3.89002e-09      177618.
       799.00000  3.89002e-09      177385.
       799.10000  3.89002e-09      177501.
       799.20000  3.89002e-09      177657.
       799.30000  3.89002e-09      177813.
       799.40000  3.89002e-09      177929.
       799.50000  1.53902e-08      704408.
       799.60000  1.53902e-08      704870.
       799.70000  1.53902e-08      705332.
       799.80000  1.53902e-08      705640.
       799.90000  1.53902e-08      705947.
       800.00000  1.53902e-08      706255.
       800.10000  1.53902e-08      706563.
       800.20000  1.53902e-08      706871.
       800.30000  1.53902e-08      707179.
       800.40000  1.53902e-08      707333.
       800.50000  4.93489e-08  2.26857e+06
       800.60000  4.93489e-08  2.26906e+06
       800.70000  4.93489e-08  2.26906e+06
       800.80000  4.93489e-08  2.26956e+06
       800.90000  4.93489e-08  2.26956e+06
       801.00000  4.93489e-08  2.26956e+06
       801.10000  4.93489e-08  2.26857e+06
       801.20000  4.93489e-08  2.26758e+06
       801.30000  4.82114e-08  2.21435e+06
       801.40000  4.82114e-08  2.21338e+06
       801.50000  4.14308e-08  1.90126e+06
       801.60000  4.14308e-08  1.90043e+06
       801.70000  4.14308e-08  1.89960e+06
       801.80000  4.14308e-08  1.89877e+06
       801.90000  4.14308e-08  1.89794e+06
       802.00000  4.14308e-08  1.89712e+06
       802.10000  4.14308e-08  1.89629e+06
       802.20000  4.14308e-08  1.89546e+06
       802.30000  4.14308e-08  1.89463e+06
       802.40000  4.14308e-08  1.89380e+06
       802.50000  3.30707e-08  1.51100e+06
       802.60000  3.30707e-08  1.51034e+06
       802.70000  3.30707e-08  1.50968e+06
       802.80000  3.30707e-08  1.50869e+06
       802.90000  3.30707e-08  1.50802e+06
       803.00000  3.30707e-08  1.50736e+06
       803.10000  3.30707e-08  1.50670e+06
       803.20000  3.30707e-08  1.50604e+06
       803.30000  3.30707e-08  1.50538e+06
       803.40000  3.30707e-08  1.50439e+06
       803.50000  3.45432e-08  1.57068e+06
       803.60000  3.45432e-08  1.56999e+06
       803.70000  3.45432e-08  1.56930e+06
       803.80000  3.37336e-08  1.53184e+06
       803.90000  3.37336e-08  1.53083e+06
       804.00000  3.37336e-08  1.53016e+06
       804.10000  3.37336e-08  1.52948e+06
       804.20000  3.37336e-08  1.52881e+06
       804.30000  3.37336e-08  1.52780e+06
       804.40000  3.37336e-08  1.52712e+06
       804.50000  1.44553e-08      654102.
       804.60000  1.44553e-08      653668.
       804.70000  1.44553e-08      653379.
       804.80000  1.44553e-08      653090.
       804.90000  1.44553e-08      652656.
       805.00000  1.44553e-08      652367.
       805.10000  1.44553e-08      652945.
       805.20000  1.44553e-08      653668.
       805.30000  1.44553e-08      654102.
       805.40000  1.44553e-08      654680.
       805.50000  3.20129e-09      145083.
       805.60000  3.20129e-09      145179.
       805.70000  3.20129e-09      145275.
       805.80000  3.20129e-09      145339.
       805.90000  3.20129e-09      145403.
       806.00000  3.20129e-09      145467.
       806.10000  3.20129e-09      145499.
       806.20000  3.20129e-09      145531.
       806.30000  3.12116e-09      141919.
       806.40000  3.12116e-09      141950.
       806.50000  3.11726e-09      141773.
       806.60000  3.11726e-09      141773.
       806.70000  3.11726e-09      141742.
       806.80000  3.11726e-09      141742.
       806.90000  3.11726e-09      141711.
       807.00000  3.11726e-09      141648.
       807.10000  3.11726e-09      141399.
       807.20000  3.11726e-09      141118.
       807.30000  3.11726e-09      140869.
       807.40000  3.11726e-09      140651.
       807.50000  2.65492e-08  1.19604e+06
       807.60000  2.65492e-08  1.19418e+06
       807.70000  2.65492e-08  1.19259e+06
       807.80000  2.65492e-08  1.19126e+06
       807.90000  2.65492e-08  1.18993e+06
       808.00000  2.65492e-08  1.18861e+06
       808.10000  2.65492e-08  1.18754e+06
       808.20000  2.65492e-08  1.18648e+06
       808.30000  2.65492e-08  1.18542e+06
       808.40000  2.65492e-08  1.18462e+06
       808.50000  1.87126e-08      834584.
       808.60000  1.87126e-08      834210.
       808.70000  1.87126e-08      833835.
       808.80000  1.82460e-08      812861.
       808.90000  1.82460e-08      812679.
       809.00000  1.82460e-08      812679.
       809.10000  1.82460e-08      812679.
       809.20000  1.82460e-08      812861.
       809.30000  1.82460e-08      813044.
       809.40000  1.82460e-08      813226.
       809.50000  1.52121e-09      67830.8
       809.60000  1.52121e-09      67876.4
       809.70000  1.52121e-09      67922.1
       809.80000  1.52121e-09      67967.7
       809.90000  1.52121e-09      68028.6
       810.00000  1.52121e-09      68089.4
       810.10000  1.52121e-09      68165.5
       810.20000  1.52121e-09      68241.5
       810.30000  1.52121e-09      68317.6
       810.40000  1.52121e-09      68408.9
       810.50000  4.57035e-09      205849.
       810.60000  4.57035e-09      206123.
       810.70000  4.57035e-09      206488.
       810.80000  4.57035e-09      206854.
       810.90000  4.57035e-09      207220.
       811.00000  4.57035e-09      207631.
       811.10000  4.57035e-09      207677.
       811.20000  4.57035e-09      207768.
       811.30000  4.45479e-09      202559.
       811.40000  4.45479e-09      202648.
       811.50000  2.67708e-08  1.21807e+06
       811.60000  2.67708e-08  1.21834e+06
       811.70000  2.67708e-08  1.21861e+06
       811.80000  2.67708e-08  1.21887e+06
       811.90000  2.67708e-08  1.21914e+06
       812.00000  2.67708e-08  1.21941e+06
       812.10000  2.67708e-08  1.21941e+06
       812.20000  2.67708e-08  1.21968e+06
       812.30000  2.67708e-08  1.21994e+06
       812.40000  2.67708e-08  1.21994e+06
       812.50000  2.23385e-08  1.01797e+06
       812.60000  2.23385e-08  1.01819e+06
       812.70000  2.23385e-08  1.01819e+06
       812.80000  2.23385e-08  1.01819e+06
       812.90000  2.23385e-08  1.01819e+06
       813.00000  2.23385e-08  1.01819e+06
       813.10000  2.23385e-08  1.01774e+06
       813.20000  2.23385e-08  1.01752e+06
       813.30000  2.23385e-08  1.01707e+06
       813.40000  2.23385e-08  1.01685e+06
       813.50000  8.46768e-09      385280.
       813.60000  8.46768e-09      385195.
       813.70000  8.46768e-09      385110.
       813.80000  8.26168e-09      375659.
       813.90000  8.26168e-09      375576.
       814.00000  8.26168e-09      375411.
       814.10000  8.26168e-09      375328.
       814.20000  8.26168e-09      375246.
       814.30000  8.26168e-09      375163.
       814.40000  8.26168e-09      375163.
       814.50000  4.01930e-09      182476.
       814.60000  4.01930e-09      182436.
       814.70000  4.01930e-09      182396.
       814.80000  4.01930e-09      182356.
       814.90000  4.01930e-09      182356.
       815.00000  4.01930e-09      182316.
       815.10000  4.01930e-09      182476.
       815.20000  4.01930e-09      182597.
       815.30000  4.01930e-09      182717.
       815.40000  4.01930e-09      182798.
       815.50000  9.39091e-09      427380.
       815.60000  9.39091e-09      427474.
       815.70000  9.39091e-09      427662.
       815.80000  9.39091e-09      427662.
       815.90000  9.39091e-09      427756.
       816.00000  9.39091e-09      427756.
       816.10000  9.39091e-09      427756.
       816.20000  9.39091e-09      427662.
       816.30000  9.15488e-09      416821.
       816.40000  9.15488e-09      416730.
       816.50000  2.23055e-08  1.01490e+06
       816.60000  2.23055e-08  1.01445e+06
       816.70000  2.23055e-08  1.01378e+06
       816.80000  2.23055e-08  1.01312e+06
       816.90000  2.23055e-08  1.01245e+06
       817.00000  2.23055e-08  1.01155e+06
       817.10000  2.23055e-08  1.00843e+06
       817.20000  2.23055e-08  1.00553e+06
       817.30000  2.23055e-08  1.00286e+06
       817.40000  2.23055e-08  1.00018e+06
       817.50000  2.62643e-09      117480.
       817.60000  2.62643e-09      117217.
       817.70000  2.62643e-09      116955.
       817.80000  2.62643e-09      116692.
       817.90000  2.62643e-09      116482.
       818.00000  2.62643e-09      116246.
       818.10000  2.62643e-09      116062.
       818.20000  2.62643e-09      115878.
       818.30000  2.62643e-09      115694.
       818.40000  2.62643e-09      115563.
       818.50000  1.58150e-08      694910.
       818.60000  1.58150e-08      694277.
       818.70000  1.58150e-08      693645.
       818.80000  1.54143e-08      675455.
       818.90000  1.54143e-08      675147.
       819.00000  1.54143e-08      674684.
       819.10000  1.54143e-08      674530.
       819.20000  1.54143e-08      674376.
       819.30000  1.54143e-08      674222.
       819.40000  1.54143e-08      674222.
       819.50000  1.53858e-08      673131.
       819.60000  1.53858e-08      673285.
       819.70000  1.53858e-08      673592.
       819.80000  1.53858e-08      674054.
       819.90000  1.53858e-08      674516.
       820.00000  1.53858e-08      675131.
       820.10000  1.53858e-08      675746.
       820.20000  1.53858e-08      676516.
       820.30000  1.53858e-08      677439.
       820.40000  1.53858e-08      678362.
       820.50000  1.28284e-09      56650.3
       820.60000  1.28284e-09      56740.1
       820.70000  1.28284e-09      56842.7
       820.80000  1.28284e-09      56945.4
       820.90000  1.28284e-09      57060.8
       821.00000  1.28284e-09      57189.1
       821.10000  1.28284e-09      57163.4
       821.20000  1.28284e-09      57150.6
       821.30000  1.25326e-09      55807.5
       821.40000  1.25326e-09      55795.0
       821.50000  2.51881e-09      112087.
       821.60000  2.51881e-09      112062.
       821.70000  2.51881e-09      112037.
       821.80000  2.51881e-09      111986.
       821.90000  2.51881e-09      111961.
       822.00000  2.51881e-09      111936.
       822.10000  2.51881e-09      111936.
       822.20000  2.51881e-09      111911.
       822.30000  2.51881e-09      111885.
       822.40000  2.51881e-09      111885.
       822.50000  1.26027e-08      559687.
       822.60000  1.26027e-08      559687.
       822.70000  1.26027e-08      559561.
       822.80000  1.26027e-08      559561.
       822.90000  1.26027e-08      559561.
       823.00000  1.26027e-08      559561.
       823.10000  1.26027e-08      559561.
       823.20000  1.26027e-08      559561.
       823.30000  1.26027e-08      559561.
       823.40000  1.26027e-08      559561.
       823.50000  4.78123e-09      212335.
       823.60000  4.78123e-09      212335.
       823.70000  4.78123e-09      212382.
       823.80000  4.67495e-09      207661.
       823.90000  4.67495e-09      207708.
       824.00000  4.67495e-09      207755.
       824.10000  4.67495e-09      207802.
       824.20000  4.67495e-09      207848.
       824.30000  4.67495e-09      207895.
       824.40000  4.67495e-09      207989.
       824.50000  6.83990e-09      304375.
       824.60000  6.83990e-09      304512.
       824.70000  6.83990e-09      304581.
       824.80000  6.83990e-09      304717.
       824.90000  6.83990e-09      304854.
       825.00000  6.83990e-09      304991.
       825.10000  6.83990e-09      305128.
       825.20000  6.83990e-09      305265.
       825.30000  6.83990e-09      305470.
       825.40000  6.83990e-09      305607.
       825.50000  3.54324e-08  1.58418e+06
       825.60000  3.54324e-08  1.58489e+06
       825.70000  3.54324e-08  1.58595e+06
       825.80000  3.54324e-08  1.58702e+06
       825.90000  3.54324e-08  1.58808e+06
       826.00000  3.54324e-08  1.58914e+06
       826.10000  3.54324e-08  1.59021e+06
       826.20000  3.54324e-08  1.59092e+06
       826.30000  3.47112e-08  1.55957e+06
       826.40000  3.47112e-08  1.56027e+06
       826.50000  1.56915e-08      705488.
       826.60000  1.56915e-08      705802.
       826.70000  1.56915e-08      706116.
       826.80000  1.56915e-08      706272.
       826.90000  1.56915e-08      706429.
       827.00000  1.56915e-08      706586.
       827.10000  1.56915e-08      706586.
       827.20000  1.56915e-08      706743.
       827.30000  1.56915e-08      706743.
       827.40000  1.56915e-08      706743.
       827.50000  2.58224e-08  1.16304e+06
       827.60000  2.58224e-08  1.16304e+06
       827.70000  2.58224e-08  1.16278e+06
       827.80000  2.58224e-08  1.16252e+06
       827.90000  2.58224e-08  1.16226e+06
       828.00000  2.58224e-08  1.16201e+06
       828.10000  2.58224e-08  1.16123e+06
       828.20000  2.58224e-08  1.16020e+06
       828.30000  2.58224e-08  1.15917e+06
       828.40000  2.58224e-08  1.15813e+06
       828.50000  2.24406e-09      100579.
       828.60000  2.24406e-09      100489.
       828.70000  2.24406e-09      100421.
       828.80000  2.19999e-09      98383.7
       828.90000  2.19999e-09      98295.7
       829.00000  2.19999e-09      98229.7
       829.10000  2.19999e-09      98163.7
       829.20000  2.19999e-09      98097.7
       829.30000  2.19999e-09      98031.7
       829.40000  2.19999e-09      97965.7
       829.50000  1.43510e-08      638619.
       829.60000  1.43510e-08      638188.
       829.70000  1.43510e-08      637758.
       829.80000  1.43510e-08      637327.
       829.90000  1.43510e-08      637040.
       830.00000  1.43510e-08      636609.
       830.10000  1.43510e-08      636322.
       830.20000  1.43510e-08      635892.
       830.30000  1.43510e-08      635605.
       830.40000  1.43510e-08      635174.
       830.50000  1.43859e-08      636433.
       830.60000  1.43859e-08      636145.
       830.70000  1.43859e-08      635714.
       830.80000  1.43859e-08      635426.
       830.90000  1.43859e-08      635138.
       831.00000  1.43859e-08      634851.
       831.10000  1.43859e-08      634563.
       831.20000  1.43859e-08      634275.
       831.30000  1.40993e-08      621495.
       831.40000  1.40993e-08      621213.
       831.50000  7.58907e-09      334222.
       831.60000  7.58907e-09      334147.
       831.70000  7.58907e-09      333995.
       831.80000  7.58907e-09      333843.
       831.90000  7.58907e-09      333767.
       832.00000  7.58907e-09      333691.
       832.10000  7.58907e-09      333388.
       832.20000  7.58907e-09      333084.
       832.30000  7.58907e-09      332856.
       832.40000  7.58907e-09      332629.
       832.50000  3.43437e-08  1.50425e+06
       832.60000  3.43437e-08  1.50357e+06
       832.70000  3.43437e-08  1.50288e+06
       832.80000  3.43437e-08  1.50185e+06
       832.90000  3.43437e-08  1.50150e+06
       833.00000  3.43437e-08  1.50082e+06
       833.10000  3.43437e-08  1.50013e+06
       833.20000  3.43437e-08  1.49979e+06
       833.30000  3.43437e-08  1.49944e+06
       833.40000  3.43437e-08  1.49910e+06
       833.50000  1.92785e-08      841507.
       833.60000  1.92785e-08      841315.
       833.70000  1.92785e-08      841315.
       833.80000  1.89187e-08      825614.
       833.90000  1.89187e-08      825803.
       834.00000  1.89187e-08      825803.
       834.10000  1.89187e-08      826749.
       834.20000  1.89187e-08      827506.
       834.30000  1.89187e-08      828452.
       834.40000  1.89187e-08      829208.
       834.50000  6.98596e-09      306474.
       834.60000  6.98596e-09      306753.
       834.70000  6.98596e-09      306963.
       834.80000  6.98596e-09      307173.
       834.90000  6.98596e-09      307452.
       835.00000  6.98596e-09      307662.
       835.10000  6.98596e-09      307801.
       835.20000  6.98596e-09      308011.
       835.30000  6.98596e-09      308151.
       835.40000  6.98596e-09      308290.
       835.50000  2.40208e-08  1.06052e+06
       835.60000  2.40208e-08  1.06100e+06
       835.70000  2.40208e-08  1.06124e+06
       835.80000  2.40208e-08  1.06172e+06
       835.90000  2.40208e-08  1.06196e+06
       836.00000  2.40208e-08  1.06220e+06
       836.10000  2.40208e-08  1.06172e+06
       836.20000  2.40208e-08  1.06148e+06
       836.30000  2.36325e-08  1.04385e+06
       836.40000  2.36325e-08  1.04361e+06
       836.50000  4.26768e-08  1.88418e+06
       836.60000  4.26768e-08  1.88333e+06
       836.70000  4.26768e-08  1.88290e+06
       836.80000  4.26768e-08  1.88247e+06
       836.90000  4.26768e-08  1.88162e+06
       837.00000  4.26768e-08  1.88119e+06
       837.10000  4.26768e-08  1.88077e+06
       837.20000  4.26768e-08  1.88034e+06
       837.30000  4.26768e-08  1.87991e+06
       837.40000  4.26768e-08  1.87949e+06
       837.50000  7.96900e-09      350875.
       837.60000  7.96900e-09      350795.
       837.70000  7.96900e-09      350716.
       837.80000  7.96900e-09      350636.
       837.90000  7.96900e-09      350636.
       838.00000  7.96900e-09      350556.
       838.10000  7.96900e-09      350477.
       838.20000  7.96900e-09      350477.
       838.30000  7.96900e-09      350477.
       838.40000  7.96900e-09      350477.
       838.50000  1.20412e-08      529450.
       838.60000  1.20412e-08      529450.
       838.70000  1.20412e-08      529450.
       838.80000  1.18641e-08      521548.
       838.90000  1.18641e-08      521548.
       839.00000  1.18641e-08      521548.
       839.10000  1.18641e-08      521429.
       839.20000  1.18641e-08      521429.
       839.30000  1.18641e-08      521429.
       839.40000  1.18641e-08      521310.
       839.50000  1.32023e-08      580108.
       839.60000  1.32023e-08      580108.
       839.70000  1.32023e-08      579976.
       839.80000  1.32023e-08      579976.
       839.90000  1.32023e-08      579976.
       840.00000  1.32023e-08      579844.
       840.10000  1.32023e-08      579844.
       840.20000  1.32023e-08      579844.
       840.30000  1.32023e-08      579712.
       840.40000  1.32023e-08      579712.
       840.50000  1.20634e-08      529703.
       840.60000  1.20634e-08      529582.
       840.70000  1.20634e-08      529582.
       840.80000  1.20634e-08      529582.
       840.90000  1.20634e-08      529461.
       841.00000  1.20634e-08      529461.
       841.10000  1.20634e-08      529461.
       841.20000  1.20634e-08      529461.
       841.30000  1.18680e-08      520770.
       841.40000  1.18680e-08      520770.
       841.50000  1.84299e-09      80870.6
       841.60000  1.84299e-09      80852.1
       841.70000  1.84299e-09      80852.1
       841.80000  1.84299e-09      80852.1
       841.90000  1.84299e-09      80833.7
       842.00000  1.84299e-09      80833.7
       842.10000  1.84299e-09      80760.0
       842.20000  1.84299e-09      80704.7
       842.30000  1.84299e-09      80649.4
       842.40000  1.84299e-09      80575.7
       842.50000  3.46303e-09      151300.
       842.60000  3.46303e-09      151230.
       842.70000  3.46303e-09      151126.
       842.80000  3.46303e-09      151057.
       842.90000  3.46303e-09      150953.
       843.00000  3.46303e-09      150884.
       843.10000  3.46303e-09      150815.
       843.20000  3.46303e-09      150746.
       843.30000  3.46303e-09      150711.
       843.40000  3.46303e-09      150642.
       843.50000  3.51877e-09      153031.
       843.60000  3.51877e-09      152996.
       843.70000  3.51877e-09      152961.
       843.80000  3.45740e-09      150259.
       843.90000  3.45740e-09      150259.
       844.00000  3.45740e-09      150224.
       844.10000  3.45740e-09      150328.
       844.20000  3.45740e-09      150397.
       844.30000  3.45740e-09      150466.
       844.40000  3.45740e-09      150535.
       844.50000  2.62957e-08  1.14544e+06
       844.60000  2.62957e-08  1.14597e+06
       844.70000  2.62957e-08  1.14623e+06
       844.80000  2.62957e-08  1.14675e+06
       844.90000  2.62957e-08  1.14702e+06
       845.00000  2.62957e-08  1.14754e+06
       845.10000  2.62957e-08  1.14781e+06
       845.20000  2.62957e-08  1.14807e+06
       845.30000  2.62957e-08  1.14859e+06
       845.40000  2.62957e-08  1.14886e+06
       845.50000  1.24853e-08      545481.
       845.60000  1.24853e-08      545606.
       845.70000  1.24853e-08      545730.
       845.80000  1.24853e-08      545855.
       845.90000  1.24853e-08      545855.
       846.00000  1.24853e-08      545980.
       846.10000  1.24853e-08      545980.
       846.20000  1.24853e-08      545980.
       846.30000  1.22515e-08      535759.
       846.40000  1.22515e-08      535881.
       846.50000  2.95518e-08  1.29260e+06
       846.60000  2.95518e-08  1.29230e+06
       846.70000  2.95518e-08  1.29230e+06
       846.80000  2.95518e-08  1.29230e+06
       846.90000  2.95518e-08  1.29201e+06
       847.00000  2.95518e-08  1.29201e+06
       847.10000  2.95518e-08  1.29171e+06
       847.20000  2.95518e-08  1.29171e+06
       847.30000  2.95518e-08  1.29141e+06
       847.40000  2.95518e-08  1.29112e+06
       847.50000  3.65180e-09      159510.
       847.60000  3.65180e-09      159474.
       847.70000  3.65180e-09      159437.
       847.80000  3.65180e-09      159401.
       847.90000  3.65180e-09      159328.
       848.00000  3.65180e-09      159291.
       848.10000  3.65180e-09      158524.
       848.20000  3.65180e-09      157831.
       848.30000  3.65180e-09      157137.
       848.40000  3.65180e-09      156479.
       848.50000  8.40625e-09      358779.
       848.60000  8.40625e-09      357518.
       848.70000  8.40625e-09      356257.
       848.80000  8.25250e-09      348586.
       848.90000  8.25250e-09      347513.
       849.00000  8.25250e-09      346523.
       849.10000  8.25250e-09      345532.
       849.20000  8.25250e-09      344707.
       849.30000  8.25250e-09      343964.
       849.40000  8.25250e-09      343222.
       849.50000  3.30341e-05  1.37158e+09
       849.60000  3.30341e-05  1.36926e+09
       849.70000  3.30341e-05  1.36761e+09
       849.80000  3.30341e-05  1.36596e+09
       849.90000  3.30341e-05  1.36464e+09
       850.00000  3.30341e-05  1.36365e+09
       850.10000  3.30341e-05  1.37091e+09
       850.20000  3.30341e-05  1.37785e+09
       850.30000  3.30341e-05  1.38413e+09
       850.40000  3.30341e-05  1.38974e+09
       850.50000  3.23465e-05  1.36599e+09
       850.60000  3.23465e-05  1.37052e+09
       850.70000  3.23465e-05  1.37440e+09
       850.80000  3.23465e-05  1.37796e+09
       850.90000  3.23465e-05  1.38087e+09
       851.00000  3.23465e-05  1.38346e+09
       851.10000  3.23465e-05  1.38540e+09
       851.20000  3.23465e-05  1.38702e+09
       851.30000  3.17891e-05  1.36407e+09
       851.40000  3.17891e-05  1.36439e+09
       851.50000  3.11739e-05  1.33798e+09
       851.60000  3.11739e-05  1.33736e+09
       851.70000  3.11739e-05  1.33642e+09
       851.80000  3.11739e-05  1.33486e+09
       851.90000  3.11739e-05  1.33268e+09
       852.00000  3.11739e-05  1.33019e+09
       852.10000  3.11739e-05  1.32707e+09
       852.20000  3.11739e-05  1.32364e+09
       852.30000  3.11739e-05  1.31959e+09
       852.40000  3.11739e-05  1.31523e+09
       852.50000  3.01232e-05  1.26578e+09
       852.60000  3.01232e-05  1.26066e+09
       852.70000  3.01232e-05  1.25463e+09
       852.80000  3.01232e-05  1.24861e+09
       852.90000  3.01232e-05  1.24168e+09
       853.00000  3.01232e-05  1.23445e+09
       853.10000  3.01232e-05  1.22662e+09
       853.20000  3.01232e-05  1.21849e+09
       853.30000  3.01232e-05  1.20975e+09
       853.40000  3.01232e-05  1.20071e+09
       853.50000  2.90977e-05  1.15052e+09
       853.60000  2.90977e-05  1.14063e+09
       853.70000  2.90977e-05  1.13044e+09
       853.80000  2.85997e-05  1.10052e+09
       853.90000  2.85997e-05  1.08965e+09
       854.00000  2.85997e-05  1.07821e+09
       854.10000  2.85997e-05  1.08622e+09
       854.20000  2.85997e-05  1.09422e+09
       854.30000  2.85997e-05  1.10195e+09
       854.40000  2.85997e-05  1.10938e+09
       854.50000  2.80251e-05  1.09410e+09
       854.60000  2.80251e-05  1.10111e+09
       854.70000  2.80251e-05  1.10783e+09
       854.80000  2.80251e-05  1.11428e+09
       854.90000  2.80251e-05  1.12072e+09
       855.00000  2.80251e-05  1.12689e+09
       855.10000  2.80251e-05  1.13277e+09
       855.20000  2.80251e-05  1.13838e+09
       855.30000  2.80251e-05  1.14398e+09
       855.40000  2.80251e-05  1.14903e+09
       855.50000  2.74104e-05  1.12903e+09
       855.60000  2.74104e-05  1.13369e+09
       855.70000  2.74104e-05  1.13835e+09
       855.80000  2.74104e-05  1.14274e+09
       855.90000  2.74104e-05  1.14685e+09
       856.00000  2.74104e-05  1.15069e+09
       856.10000  2.74104e-05  1.15370e+09
       856.20000  2.74104e-05  1.15644e+09
       856.30000  2.68567e-05  1.13577e+09
       856.40000  2.68567e-05  1.13846e+09
       856.50000  2.55584e-05  1.08572e+09
       856.60000  2.55584e-05  1.08802e+09
       856.70000  2.55584e-05  1.09007e+09
       856.80000  2.55584e-05  1.09211e+09
       856.90000  2.55584e-05  1.09390e+09
       857.00000  2.55584e-05  1.09569e+09
       857.10000  2.55584e-05  1.09748e+09
       857.20000  2.55584e-05  1.09901e+09
       857.30000  2.55584e-05  1.10054e+09
       857.40000  2.55584e-05  1.10182e+09
       857.50000  2.49617e-05  1.07735e+09
       857.60000  2.49617e-05  1.07860e+09
       857.70000  2.49617e-05  1.07959e+09
       857.80000  2.49617e-05  1.08059e+09
       857.90000  2.49617e-05  1.08134e+09
       858.00000  2.49617e-05  1.08234e+09
       858.10000  2.49617e-05  1.08284e+09
       858.20000  2.49617e-05  1.08334e+09
       858.30000  2.49617e-05  1.08384e+09
       858.40000  2.49617e-05  1.08409e+09
       858.50000  2.44125e-05  1.06048e+09
       858.60000  2.44125e-05  1.06072e+09
       858.70000  2.44125e-05  1.06072e+09
       858.80000  2.38903e-05  1.03804e+09
       858.90000  2.38903e-05  1.03780e+09
       859.00000  2.38903e-05  1.03756e+09
       859.10000  2.38903e-05  1.03732e+09
       859.20000  2.38903e-05  1.03684e+09
       859.30000  2.38903e-05  1.03636e+09
       859.40000  2.38903e-05  1.03565e+09
       859.50000  2.30087e-05  9.96736e+08
       859.60000  2.30087e-05  9.96046e+08
       859.70000  2.30087e-05  9.95126e+08
       859.80000  2.30087e-05  9.93975e+08
       859.90000  2.30087e-05  9.93055e+08
       860.00000  2.30087e-05  9.91904e+08
       860.10000  2.30087e-05  9.91674e+08
       860.20000  2.30087e-05  9.91444e+08
       860.30000  2.30087e-05  9.91444e+08
       860.40000  2.30087e-05  9.91444e+08
       860.50000  2.24730e-05  9.68139e+08
       860.60000  2.24730e-05  9.68139e+08
       860.70000  2.24730e-05  9.68139e+08
       860.80000  2.24730e-05  9.68139e+08
       860.90000  2.24730e-05  9.68139e+08
       861.00000  2.24730e-05  9.68139e+08
       861.10000  2.24730e-05  9.68139e+08
       861.20000  2.24730e-05  9.68139e+08
       861.30000  2.19953e-05  9.47557e+08
       861.40000  2.19953e-05  9.47777e+08
       861.50000  2.11156e-05  9.09869e+08
       861.60000  2.11156e-05  9.09869e+08
       861.70000  2.11156e-05  9.10080e+08
       861.80000  2.11156e-05  9.10291e+08
       861.90000  2.11156e-05  9.10291e+08
       862.00000  2.11156e-05  9.10503e+08
       862.10000  2.11156e-05  9.13459e+08
       862.20000  2.11156e-05  9.15993e+08
       862.30000  2.11156e-05  9.18315e+08
       862.40000  2.11156e-05  9.20427e+08
       862.50000  2.06279e-05  9.00822e+08
       862.60000  2.06279e-05  9.02266e+08
       862.70000  2.06279e-05  9.03504e+08
       862.80000  2.06279e-05  9.04535e+08
       862.90000  2.06279e-05  9.05154e+08
       863.00000  2.06279e-05  9.05566e+08
       863.10000  2.06279e-05  9.05773e+08
       863.20000  2.06279e-05  9.05773e+08
       863.30000  2.06279e-05  9.05360e+08
       863.40000  2.06279e-05  9.04741e+08
       863.50000  1.97880e-05  8.67109e+08
       863.60000  1.97880e-05  8.65922e+08
       863.70000  1.97880e-05  8.64537e+08
       863.80000  1.93649e-05  8.44503e+08
       863.90000  1.93649e-05  8.42761e+08
       864.00000  1.93649e-05  8.40630e+08
       864.10000  1.93649e-05  8.38307e+08
       864.20000  1.93649e-05  8.35789e+08
       864.30000  1.93649e-05  8.32884e+08
       864.40000  1.93649e-05  8.29980e+08
       864.50000  1.88724e-05  8.05473e+08
       864.60000  1.88724e-05  8.02076e+08
       864.70000  1.88724e-05  7.98302e+08
       864.80000  1.88724e-05  7.94527e+08
       864.90000  1.88724e-05  7.90186e+08
       865.00000  1.88724e-05  7.85846e+08
       865.10000  1.88724e-05  7.81128e+08
       865.20000  1.88724e-05  7.76221e+08
       865.30000  1.88724e-05  7.71125e+08
       865.40000  1.88724e-05  7.65652e+08
       865.50000  1.80759e-05  7.27918e+08
       865.60000  1.80759e-05  7.22314e+08
       865.70000  1.80759e-05  7.16530e+08
       865.80000  1.80759e-05  7.10384e+08
       865.90000  1.80759e-05  7.04058e+08
       866.00000  1.80759e-05  6.97550e+08
       866.10000  1.80759e-05  7.00081e+08
       866.20000  1.80759e-05  7.02431e+08
       866.30000  1.76915e-05  6.89967e+08
       866.40000  1.76915e-05  6.92267e+08
       866.50000  1.72327e-05  6.76555e+08
       866.60000  1.72327e-05  6.78795e+08
       866.70000  1.72327e-05  6.81035e+08
       866.80000  1.72327e-05  6.83275e+08
       866.90000  1.72327e-05  6.85343e+08
       867.00000  1.72327e-05  6.87411e+08
       867.10000  1.72327e-05  6.89479e+08
       867.20000  1.72327e-05  6.91547e+08
       867.30000  1.72327e-05  6.93615e+08
       867.40000  1.72327e-05  6.95511e+08
       867.50000  1.67651e-05  6.78485e+08
       867.60000  1.67651e-05  6.80329e+08
       867.70000  1.67651e-05  6.82173e+08
       867.80000  1.67651e-05  6.84017e+08
       867.90000  1.67651e-05  6.85694e+08
       868.00000  1.67651e-05  6.87370e+08
       868.10000  1.67651e-05  6.89215e+08
       868.20000  1.67651e-05  6.91059e+08
       868.30000  1.67651e-05  6.92735e+08
       868.40000  1.67651e-05  6.94412e+08
       868.50000  1.60266e-05  6.65425e+08
       868.60000  1.60266e-05  6.66867e+08
       868.70000  1.60266e-05  6.68470e+08
       868.80000  1.56757e-05  6.55090e+08
       868.90000  1.56757e-05  6.56500e+08
       869.00000  1.56757e-05  6.57754e+08
       869.10000  1.56757e-05  6.59008e+08
       869.20000  1.56757e-05  6.60263e+08
       869.30000  1.56757e-05  6.61517e+08
       869.40000  1.56757e-05  6.62614e+08
       869.50000  1.55279e-05  6.57451e+08
       869.60000  1.55279e-05  6.58383e+08
       869.70000  1.55279e-05  6.59314e+08
       869.80000  1.55279e-05  6.60246e+08
       869.90000  1.55279e-05  6.61178e+08
       870.00000  1.55279e-05  6.62109e+08
       870.10000  1.55279e-05  6.62886e+08
       870.20000  1.55279e-05  6.63662e+08
       870.30000  1.55279e-05  6.64283e+08
       870.40000  1.55279e-05  6.64904e+08
       870.50000  1.48178e-05  6.35090e+08
       870.60000  1.48178e-05  6.35683e+08
       870.70000  1.48178e-05  6.36128e+08
       870.80000  1.48178e-05  6.36720e+08
       870.90000  1.48178e-05  6.37017e+08
       871.00000  1.48178e-05  6.37461e+08
       871.10000  1.48178e-05  6.37758e+08
       871.20000  1.48178e-05  6.38054e+08
       871.30000  1.45071e-05  6.24967e+08
       871.40000  1.45071e-05  6.25112e+08
       871.50000  1.40859e-05  6.07101e+08
       871.60000  1.40859e-05  6.07242e+08
       871.70000  1.40859e-05  6.07242e+08
       871.80000  1.40859e-05  6.07383e+08
       871.90000  1.40859e-05  6.07242e+08
       872.00000  1.40859e-05  6.07242e+08
       872.10000  1.40859e-05  6.06820e+08
       872.20000  1.40859e-05  6.06538e+08
       872.30000  1.40859e-05  6.06115e+08
       872.40000  1.40859e-05  6.05834e+08
       872.50000  1.36765e-05  5.87818e+08
       872.60000  1.36765e-05  5.87544e+08
       872.70000  1.36765e-05  5.87270e+08
       872.80000  1.36765e-05  5.86997e+08
       872.90000  1.36765e-05  5.86587e+08
       873.00000  1.36765e-05  5.86313e+08
       873.10000  1.36765e-05  5.86040e+08
       873.20000  1.36765e-05  5.85766e+08
       873.30000  1.36765e-05  5.85492e+08
       873.40000  1.36765e-05  5.85219e+08
       873.50000  1.29913e-05  5.55636e+08
       873.60000  1.29913e-05  5.55376e+08
       873.70000  1.29913e-05  5.55116e+08
       873.80000  1.26964e-05  5.42391e+08
       873.90000  1.26964e-05  5.42137e+08
       874.00000  1.26964e-05  5.41883e+08
       874.10000  1.26964e-05  5.41502e+08
       874.20000  1.26964e-05  5.41121e+08
       874.30000  1.26964e-05  5.40867e+08
       874.40000  1.26964e-05  5.40487e+08
       874.50000  1.25692e-05  5.34820e+08
       874.60000  1.25692e-05  5.34568e+08
       874.70000  1.25692e-05  5.34317e+08
       874.80000  1.25692e-05  5.34191e+08
       874.90000  1.25692e-05  5.33940e+08
       875.00000  1.25692e-05  5.33814e+08
       875.10000  1.25692e-05  5.33688e+08
       875.20000  1.25692e-05  5.33563e+08
       875.30000  1.25692e-05  5.33563e+08
       875.40000  1.25692e-05  5.33437e+08
       875.50000  1.19236e-05  5.06038e+08
       875.60000  1.19236e-05  5.06038e+08
       875.70000  1.19236e-05  5.06038e+08
       875.80000  1.19236e-05  5.06157e+08
       875.90000  1.19236e-05  5.06157e+08
       876.00000  1.19236e-05  5.06276e+08
       876.10000  1.19236e-05  5.06396e+08
       876.20000  1.19236e-05  5.06515e+08
       876.30000  1.16389e-05  4.94536e+08
       876.40000  1.16389e-05  4.94769e+08
       876.50000  1.15288e-05  4.90321e+08
       876.60000  1.15288e-05  4.90551e+08
       876.70000  1.15288e-05  4.90782e+08
       876.80000  1.15288e-05  4.91012e+08
       876.90000  1.15288e-05  4.91358e+08
       877.00000  1.15288e-05  4.91704e+08
       877.10000  1.15288e-05  4.92050e+08
       877.20000  1.15288e-05  4.92396e+08
       877.30000  1.15288e-05  4.92742e+08
       877.40000  1.15288e-05  4.93203e+08
       877.50000  1.09157e-05  4.67408e+08
       877.60000  1.09157e-05  4.67845e+08
       877.70000  1.09157e-05  4.68282e+08
       877.80000  1.09157e-05  4.68718e+08
       877.90000  1.09157e-05  4.69264e+08
       878.00000  1.09157e-05  4.69810e+08
       878.10000  1.09157e-05  4.69155e+08
       878.20000  1.09157e-05  4.68609e+08
       878.30000  1.09157e-05  4.68063e+08
       878.40000  1.09157e-05  4.67518e+08
       878.50000  1.05546e-05  4.51525e+08
       878.60000  1.05546e-05  4.51103e+08
       878.70000  1.05546e-05  4.50575e+08
       878.80000  1.02971e-05  4.39170e+08
       878.90000  1.02971e-05  4.38758e+08
       879.00000  1.02971e-05  4.38346e+08
       879.10000  1.02971e-05  4.37935e+08
       879.20000  1.02971e-05  4.37626e+08
       879.30000  1.02971e-05  4.37214e+08
       879.40000  1.02971e-05  4.36905e+08
       879.50000  9.94030e-06  4.21469e+08
       879.60000  9.94030e-06  4.21170e+08
       879.70000  9.94030e-06  4.20872e+08
       879.80000  9.94030e-06  4.20673e+08
       879.90000  9.94030e-06  4.20375e+08
       880.00000  9.94030e-06  4.20176e+08
       880.10000  9.94030e-06  4.20077e+08
       880.20000  9.94030e-06  4.19878e+08
       880.30000  9.94030e-06  4.19779e+08
       880.40000  9.94030e-06  4.19580e+08
       880.50000  9.60531e-06  4.05344e+08
       880.60000  9.60531e-06  4.05248e+08
       880.70000  9.60531e-06  4.05152e+08
       880.80000  9.60531e-06  4.05152e+08
       880.90000  9.60531e-06  4.05056e+08
       881.00000  9.60531e-06  4.04960e+08
       881.10000  9.60531e-06  4.04960e+08
       881.20000  9.60531e-06  4.04960e+08
       881.30000  9.37616e-06  3.95299e+08
       881.40000  9.37616e-06  3.95205e+08
       881.50000  9.05143e-06  3.81608e+08
       881.60000  9.05143e-06  3.81608e+08
       881.70000  9.05143e-06  3.81608e+08
       881.80000  9.05143e-06  3.81699e+08
       881.90000  9.05143e-06  3.81699e+08
       882.00000  9.05143e-06  3.81789e+08
       882.10000  9.05143e-06  3.82242e+08
       882.20000  9.05143e-06  3.82604e+08
       882.30000  9.05143e-06  3.82966e+08
       882.40000  9.05143e-06  3.83328e+08
       882.50000  8.95853e-06  3.79752e+08
       882.60000  8.95853e-06  3.80021e+08
       882.70000  8.95853e-06  3.80290e+08
       882.80000  8.95853e-06  3.80558e+08
       882.90000  8.95853e-06  3.80737e+08
       883.00000  8.95853e-06  3.80917e+08
       883.10000  8.95853e-06  3.81096e+08
       883.20000  8.95853e-06  3.81275e+08
       883.30000  8.95853e-06  3.81365e+08
       883.40000  8.95853e-06  3.81454e+08
       883.50000  8.63597e-06  3.67806e+08
       883.60000  8.63597e-06  3.67806e+08
       883.70000  8.63597e-06  3.67806e+08
       883.80000  8.43538e-06  3.59263e+08
       883.90000  8.43538e-06  3.59179e+08
       884.00000  8.43538e-06  3.59094e+08
       884.10000  8.43538e-06  3.58588e+08
       884.20000  8.43538e-06  3.58082e+08
       884.30000  8.43538e-06  3.57576e+08
       884.40000  8.43538e-06  3.57070e+08
       884.50000  8.12826e-06  3.43582e+08
       884.60000  8.12826e-06  3.43175e+08
       884.70000  8.12826e-06  3.42769e+08
       884.80000  8.12826e-06  3.42444e+08
       884.90000  8.12826e-06  3.42037e+08
       885.00000  8.12826e-06  3.41712e+08
       885.10000  8.12826e-06  3.41468e+08
       885.20000  8.12826e-06  3.41143e+08
       885.30000  8.12826e-06  3.40899e+08
       885.40000  8.12826e-06  3.40655e+08
       885.50000  7.61183e-06  3.18860e+08
       885.60000  7.61183e-06  3.18631e+08
       885.70000  7.61183e-06  3.18479e+08
       885.80000  7.61183e-06  3.18403e+08
       885.90000  7.61183e-06  3.18251e+08
       886.00000  7.61183e-06  3.18175e+08
       886.10000  7.61183e-06  3.18098e+08
       886.20000  7.61183e-06  3.18022e+08
       886.30000  7.44208e-06  3.10930e+08
       886.40000  7.44208e-06  3.10930e+08
       886.50000  7.35508e-06  3.07295e+08
       886.60000  7.35508e-06  3.07369e+08
       886.70000  7.35508e-06  3.07442e+08
       886.80000  7.35508e-06  3.07516e+08
       886.90000  7.35508e-06  3.07589e+08
       887.00000  7.35508e-06  3.07737e+08
       887.10000  7.35508e-06  3.07884e+08
       887.20000  7.35508e-06  3.08031e+08
       887.30000  7.35508e-06  3.08178e+08
       887.40000  7.35508e-06  3.08398e+08
       887.50000  7.07032e-06  2.96671e+08
       887.60000  7.07032e-06  2.96953e+08
       887.70000  7.07032e-06  2.97165e+08
       887.80000  7.07032e-06  2.97448e+08
       887.90000  7.07032e-06  2.97802e+08
       888.00000  7.07032e-06  2.98085e+08
       888.10000  7.07032e-06  2.98438e+08
       888.20000  7.07032e-06  2.98721e+08
       888.30000  7.07032e-06  2.99074e+08
       888.40000  7.07032e-06  2.99357e+08
       888.50000  6.78401e-06  2.87506e+08
       888.60000  6.78401e-06  2.87710e+08
       888.70000  6.78401e-06  2.87914e+08
       888.80000  6.64872e-06  2.82371e+08
       888.90000  6.64872e-06  2.82570e+08
       889.00000  6.64872e-06  2.82770e+08
       889.10000  6.64872e-06  2.82903e+08
       889.20000  6.64872e-06  2.83036e+08
       889.30000  6.64872e-06  2.83169e+08
       889.40000  6.64872e-06  2.83235e+08
       889.50000  6.37692e-06  2.71784e+08
       889.60000  6.37692e-06  2.71848e+08
       889.70000  6.37692e-06  2.71912e+08
       889.80000  6.37692e-06  2.71912e+08
       889.90000  6.37692e-06  2.71912e+08
       890.00000  6.37692e-06  2.71912e+08
       890.10000  6.37692e-06  2.71720e+08
       890.20000  6.37692e-06  2.71529e+08
       890.30000  6.37692e-06  2.71338e+08
       890.40000  6.37692e-06  2.71146e+08
       890.50000  6.10828e-06  2.59541e+08
       890.60000  6.10828e-06  2.59358e+08
       890.70000  6.10828e-06  2.59174e+08
       890.80000  6.10828e-06  2.58991e+08
       890.90000  6.10828e-06  2.58808e+08
       891.00000  6.10828e-06  2.58686e+08
       891.10000  6.10828e-06  2.58503e+08
       891.20000  6.10828e-06  2.58380e+08
       891.30000  5.99963e-06  2.53604e+08
       891.40000  5.99963e-06  2.53485e+08
       891.50000  5.93053e-06  2.50446e+08
       891.60000  5.93053e-06  2.50328e+08
       891.70000  5.93053e-06  2.50209e+08
       891.80000  5.93053e-06  2.50091e+08
       891.90000  5.93053e-06  2.49972e+08
       892.00000  5.93053e-06  2.49853e+08
       892.10000  5.93053e-06  2.49735e+08
       892.20000  5.93053e-06  2.49675e+08
       892.30000  5.93053e-06  2.49557e+08
       892.40000  5.93053e-06  2.49497e+08
       892.50000  5.67143e-06  2.38484e+08
       892.60000  5.67143e-06  2.38427e+08
       892.70000  5.67143e-06  2.38370e+08
       892.80000  5.67143e-06  2.38314e+08
       892.90000  5.67143e-06  2.38257e+08
       893.00000  5.67143e-06  2.38200e+08
       893.10000  5.67143e-06  2.38144e+08
       893.20000  5.67143e-06  2.38087e+08
       893.30000  5.67143e-06  2.38030e+08
       893.40000  5.67143e-06  2.38030e+08
       893.50000  5.41835e-06  2.27354e+08
       893.60000  5.41835e-06  2.27354e+08
       893.70000  5.41835e-06  2.27300e+08
       893.80000  5.32487e-06  2.23378e+08
       893.90000  5.32487e-06  2.23378e+08
       894.00000  5.32487e-06  2.23378e+08
       894.10000  5.32487e-06  2.23538e+08
       894.20000  5.32487e-06  2.23644e+08
       894.30000  5.32487e-06  2.23804e+08
       894.40000  5.32487e-06  2.23911e+08
       894.50000  5.26107e-06  2.21386e+08
       894.60000  5.26107e-06  2.21491e+08
       894.70000  5.26107e-06  2.21596e+08
       894.80000  5.26107e-06  2.21701e+08
       894.90000  5.26107e-06  2.21807e+08
       895.00000  5.26107e-06  2.21912e+08
       895.10000  5.26107e-06  2.21964e+08
       895.20000  5.26107e-06  2.22070e+08
       895.30000  5.26107e-06  2.22122e+08
       895.40000  5.26107e-06  2.22175e+08
       895.50000  5.02047e-06  2.12115e+08
       895.60000  5.02047e-06  2.12165e+08
       895.70000  5.02047e-06  2.12215e+08
       895.80000  5.02047e-06  2.12215e+08
       895.90000  5.02047e-06  2.12266e+08
       896.00000  5.02047e-06  2.12316e+08
       896.10000  5.02047e-06  2.12366e+08
       896.20000  5.02047e-06  2.12366e+08
       896.30000  4.94662e-06  2.09292e+08
       896.40000  4.94662e-06  2.09292e+08
       896.50000  4.71188e-06  1.99359e+08
       896.60000  4.71188e-06  1.99359e+08
       896.70000  4.71188e-06  1.99359e+08
       896.80000  4.71188e-06  1.99359e+08
       896.90000  4.71188e-06  1.99359e+08
       897.00000  4.71188e-06  1.99312e+08
       897.10000  4.71188e-06  1.99312e+08
       897.20000  4.71188e-06  1.99265e+08
       897.30000  4.71188e-06  1.99218e+08
       897.40000  4.71188e-06  1.99171e+08
       897.50000  4.65097e-06  1.96504e+08
       897.60000  4.65097e-06  1.96457e+08
       897.70000  4.65097e-06  1.96364e+08
       897.80000  4.65097e-06  1.96318e+08
       897.90000  4.65097e-06  1.96225e+08
       898.00000  4.65097e-06  1.96132e+08
       898.10000  4.65097e-06  1.95992e+08
       898.20000  4.65097e-06  1.95899e+08
       898.30000  4.65097e-06  1.95806e+08
       898.40000  4.65097e-06  1.95666e+08
       898.50000  4.42595e-06  1.86067e+08
       898.60000  4.42595e-06  1.85934e+08
       898.70000  4.42595e-06  1.85801e+08
       898.80000  4.36056e-06  1.82925e+08
       898.90000  4.36056e-06  1.82751e+08
       899.00000  4.36056e-06  1.82620e+08
       899.10000  4.36056e-06  1.82446e+08
       899.20000  4.36056e-06  1.82271e+08
       899.30000  4.36056e-06  1.82097e+08
       899.40000  4.36056e-06  1.81922e+08
       899.50000  4.14062e-06  1.72581e+08
       899.60000  4.14062e-06  1.72374e+08
       899.70000  4.14062e-06  1.72208e+08
       899.80000  4.14062e-06  1.72001e+08
       899.90000  4.14062e-06  1.71794e+08
       900.00000  4.14062e-06  1.71587e+08
       900.10000  4.14062e-06  1.71090e+08
       900.20000  4.14062e-06  1.70676e+08
       900.30000  4.14062e-06  1.70221e+08
       900.40000  4.14062e-06  1.69848e+08
       900.50000  4.09913e-06  1.67777e+08
       900.60000  4.09913e-06  1.67449e+08
       900.70000  4.09913e-06  1.67121e+08
       900.80000  4.09913e-06  1.66876e+08
       900.90000  4.09913e-06  1.66630e+08
       901.00000  4.09913e-06  1.66384e+08
       901.10000  4.09913e-06  1.66220e+08
       901.20000  4.09913e-06  1.66056e+08
       901.30000  4.04091e-06  1.63536e+08
       901.40000  4.04091e-06  1.63455e+08
       901.50000  4.00250e-06  1.61821e+08
       901.60000  4.00250e-06  1.61781e+08
       901.70000  4.00250e-06  1.61741e+08
       901.80000  4.00250e-06  1.61741e+08
       901.90000  4.00250e-06  1.61781e+08
       902.00000  4.00250e-06  1.61861e+08
       902.10000  4.00250e-06  1.62421e+08
       902.20000  4.00250e-06  1.62942e+08
       902.30000  4.00250e-06  1.63462e+08
       902.40000  4.00250e-06  1.63942e+08
       902.50000  3.80550e-06  1.56330e+08
       902.60000  3.80550e-06  1.56748e+08
       902.70000  3.80550e-06  1.57167e+08
       902.80000  3.80550e-06  1.57548e+08
       902.90000  3.80550e-06  1.57928e+08
       903.00000  3.80550e-06  1.58271e+08
       903.10000  3.80550e-06  1.58613e+08
       903.20000  3.80550e-06  1.58918e+08
       903.30000  3.80550e-06  1.59184e+08
       903.40000  3.80550e-06  1.59450e+08
       903.50000  3.76968e-06  1.58176e+08
       903.60000  3.76968e-06  1.58402e+08
       903.70000  3.76968e-06  1.58628e+08
       903.80000  3.71715e-06  1.56566e+08
       903.90000  3.71715e-06  1.56752e+08
       904.00000  3.71715e-06  1.56864e+08
       904.10000  3.71715e-06  1.56975e+08
       904.20000  3.71715e-06  1.57087e+08
       904.30000  3.71715e-06  1.57161e+08
       904.40000  3.71715e-06  1.57198e+08
       904.50000  3.52793e-06  1.49232e+08
       904.60000  3.52793e-06  1.49267e+08
       904.70000  3.52793e-06  1.49267e+08
       904.80000  3.52793e-06  1.49232e+08
       904.90000  3.52793e-06  1.49196e+08
       905.00000  3.52793e-06  1.49126e+08
       905.10000  3.52793e-06  1.49055e+08
       905.20000  3.52793e-06  1.48949e+08
       905.30000  3.52793e-06  1.48844e+08
       905.40000  3.52793e-06  1.48702e+08
       905.50000  3.49368e-06  1.47084e+08
       905.60000  3.49368e-06  1.46909e+08
       905.70000  3.49368e-06  1.46735e+08
       905.80000  3.49368e-06  1.46525e+08
       905.90000  3.49368e-06  1.46280e+08
       906.00000  3.49368e-06  1.46036e+08
       906.10000  3.49368e-06  1.45896e+08
       906.20000  3.49368e-06  1.45791e+08
       906.30000  3.44320e-06  1.43581e+08
       906.40000  3.44320e-06  1.43444e+08
       906.50000  3.26061e-06  1.35739e+08
       906.60000  3.26061e-06  1.35641e+08
       906.70000  3.26061e-06  1.35544e+08
       906.80000  3.26061e-06  1.35446e+08
       906.90000  3.26061e-06  1.35348e+08
       907.00000  3.26061e-06  1.35250e+08
       907.10000  3.26061e-06  1.35152e+08
       907.20000  3.26061e-06  1.35055e+08
       907.30000  3.26061e-06  1.34957e+08
       907.40000  3.26061e-06  1.34859e+08
       907.50000  3.22792e-06  1.33410e+08
       907.60000  3.22792e-06  1.33346e+08
       907.70000  3.22792e-06  1.33249e+08
       907.80000  3.22792e-06  1.33152e+08
       907.90000  3.22792e-06  1.33087e+08
       908.00000  3.22792e-06  1.32990e+08
       908.10000  3.22792e-06  1.32861e+08
       908.20000  3.22792e-06  1.32765e+08
       908.30000  3.22792e-06  1.32635e+08
       908.40000  3.22792e-06  1.32539e+08
       908.50000  3.05099e-06  1.25182e+08
       908.60000  3.05099e-06  1.25090e+08
       908.70000  3.05099e-06  1.25029e+08
       908.80000  3.00494e-06  1.23052e+08
       908.90000  3.00494e-06  1.22992e+08
       909.00000  3.00494e-06  1.22932e+08
       909.10000  3.00494e-06  1.22872e+08
       909.20000  3.00494e-06  1.22812e+08
       909.30000  3.00494e-06  1.22752e+08
       909.40000  3.00494e-06  1.22722e+08
       909.50000  2.97384e-06  1.21422e+08
       909.60000  2.97384e-06  1.21392e+08
       909.70000  2.97384e-06  1.21362e+08
       909.80000  2.97384e-06  1.21333e+08
       909.90000  2.97384e-06  1.21333e+08
       910.00000  2.97384e-06  1.21303e+08
       910.10000  2.97384e-06  1.21303e+08
       910.20000  2.97384e-06  1.21303e+08
       910.30000  2.97384e-06  1.21333e+08
       910.40000  2.97384e-06  1.21333e+08
       910.50000  2.80387e-06  1.14426e+08
       910.60000  2.80387e-06  1.14426e+08
       910.70000  2.80387e-06  1.14454e+08
       910.80000  2.80387e-06  1.14510e+08
       910.90000  2.80387e-06  1.14538e+08
       911.00000  2.80387e-06  1.14566e+08
       911.10000  2.80387e-06  1.14622e+08
       911.20000  2.80387e-06  1.14678e+08
       911.30000  2.75917e-06  1.12905e+08
       911.40000  2.75917e-06  1.12961e+08
       911.50000  2.72926e-06  1.11818e+08
       911.60000  2.72926e-06  1.11872e+08
       911.70000  2.72926e-06  1.11954e+08
       911.80000  2.72926e-06  1.12036e+08
       911.90000  2.72926e-06  1.12118e+08
       912.00000  2.72926e-06  1.12227e+08
       912.10000  2.72926e-06  1.12364e+08
       912.20000  2.72926e-06  1.12473e+08
       912.30000  2.72926e-06  1.12582e+08
       912.40000  2.72926e-06  1.12691e+08
       912.50000  2.56591e-06  1.06049e+08
       912.60000  2.56591e-06  1.06152e+08
       912.70000  2.56591e-06  1.06254e+08
       912.80000  2.56591e-06  1.06331e+08
       912.90000  2.56591e-06  1.06408e+08
       913.00000  2.56591e-06  1.06485e+08
       913.10000  2.56591e-06  1.06562e+08
       913.20000  2.56591e-06  1.06614e+08
       913.30000  2.56591e-06  1.06691e+08
       913.40000  2.56591e-06  1.06742e+08
       913.50000  2.53875e-06  1.05663e+08
       913.60000  2.53875e-06  1.05714e+08
       913.70000  2.53875e-06  1.05739e+08
       913.80000  2.49524e-06  1.03952e+08
       913.90000  2.49524e-06  1.04001e+08
       914.00000  2.49524e-06  1.04026e+08
       914.10000  2.49524e-06  1.03976e+08
       914.20000  2.49524e-06  1.03952e+08
       914.30000  2.49524e-06  1.03927e+08
       914.40000  2.49524e-06  1.03902e+08
       914.50000  2.46954e-06  1.02807e+08
       914.60000  2.46954e-06  1.02757e+08
       914.70000  2.46954e-06  1.02733e+08
       914.80000  2.46954e-06  1.02708e+08
       914.90000  2.46954e-06  1.02683e+08
       915.00000  2.46954e-06  1.02659e+08
       915.10000  2.46954e-06  1.02634e+08
       915.20000  2.46954e-06  1.02609e+08
       915.30000  2.46954e-06  1.02585e+08
       915.40000  2.46954e-06  1.02560e+08
       915.50000  2.31321e-06  9.60446e+07
       915.60000  2.31321e-06  9.60215e+07
       915.70000  2.31321e-06  9.59983e+07
       915.80000  2.31321e-06  9.59752e+07
       915.90000  2.31321e-06  9.59521e+07
       916.00000  2.31321e-06  9.59289e+07
       916.10000  2.31321e-06  9.59058e+07
       916.20000  2.31321e-06  9.58827e+07
       916.30000  2.27021e-06  9.40777e+07
       916.40000  2.27021e-06  9.40550e+07
       916.50000  2.24545e-06  9.30066e+07
       916.60000  2.24545e-06  9.30066e+07
       916.70000  2.24545e-06  9.29841e+07
       916.80000  2.24545e-06  9.29617e+07
       916.90000  2.24545e-06  9.29392e+07
       917.00000  2.24545e-06  9.29168e+07
       917.10000  2.24545e-06  9.29168e+07
       917.20000  2.24545e-06  9.28943e+07
       917.30000  2.24545e-06  9.28719e+07
       917.40000  2.24545e-06  9.28494e+07
       917.50000  2.22037e-06  9.18123e+07
       917.60000  2.22037e-06  9.17901e+07
       917.70000  2.22037e-06  9.17679e+07
       917.80000  2.22037e-06  9.17679e+07
       917.90000  2.22037e-06  9.17457e+07
       918.00000  2.22037e-06  9.17235e+07
       918.10000  2.22037e-06  9.17679e+07
       918.20000  2.22037e-06  9.18123e+07
       918.30000  2.22037e-06  9.18568e+07
       918.40000  2.22037e-06  9.18790e+07
       918.50000  2.07380e-06  8.58347e+07
       918.60000  2.07380e-06  8.58554e+07
       918.70000  2.07380e-06  8.58554e+07
       918.80000  2.03501e-06  8.42494e+07
       918.90000  2.03501e-06  8.42494e+07
       919.00000  2.03501e-06  8.42494e+07
       919.10000  2.03501e-06  8.42290e+07
       919.20000  2.03501e-06  8.42087e+07
       919.30000  2.03501e-06  8.41884e+07
       919.40000  2.03501e-06  8.41476e+07
       919.50000  2.01128e-06  8.31263e+07
       919.60000  2.01128e-06  8.30861e+07
       919.70000  2.01128e-06  8.30459e+07
       919.80000  2.01128e-06  8.29855e+07
       919.90000  2.01128e-06  8.29453e+07
       920.00000  2.01128e-06  8.28850e+07
       920.10000  2.01128e-06  8.27040e+07
       920.20000  2.01128e-06  8.25430e+07
       920.30000  2.01128e-06  8.23822e+07
       920.40000  2.01128e-06  8.22212e+07
       920.50000  1.98810e-06  8.11146e+07
       920.60000  1.98810e-06  8.09754e+07
       920.70000  1.98810e-06  8.08362e+07
       920.80000  1.98810e-06  8.07169e+07
       920.90000  1.98810e-06  8.05778e+07
       921.00000  1.98810e-06  8.04585e+07
       921.10000  1.98810e-06  8.03392e+07
       921.20000  1.98810e-06  8.02398e+07
       921.30000  1.94992e-06  7.85819e+07
       921.40000  1.94992e-06  7.84844e+07
       921.50000  1.81395e-06  7.29207e+07
       921.60000  1.81395e-06  7.28482e+07
       921.70000  1.81395e-06  7.27756e+07
       921.80000  1.81395e-06  7.27031e+07
       921.90000  1.81395e-06  7.26305e+07
       922.00000  1.81395e-06  7.25761e+07
       922.10000  1.81395e-06  7.25035e+07
       922.20000  1.81395e-06  7.24672e+07
       922.30000  1.81395e-06  7.24128e+07
       922.40000  1.81395e-06  7.23766e+07
       922.50000  1.79295e-06  7.14848e+07
       922.60000  1.79295e-06  7.14669e+07
       922.70000  1.79295e-06  7.14310e+07
       922.80000  1.79295e-06  7.14131e+07
       922.90000  1.79295e-06  7.13952e+07
       923.00000  1.79295e-06  7.13772e+07
       923.10000  1.79295e-06  7.13772e+07
       923.20000  1.79295e-06  7.13593e+07
       923.30000  1.79295e-06  7.13593e+07
       923.40000  1.79295e-06  7.13772e+07
       923.50000  1.77152e-06  7.05241e+07
       923.60000  1.77152e-06  7.05419e+07
       923.70000  1.77152e-06  7.05596e+07
       923.80000  1.73705e-06  6.92213e+07
       923.90000  1.73705e-06  6.92387e+07
       924.00000  1.73705e-06  6.92735e+07
       924.10000  1.73705e-06  6.92735e+07
       924.20000  1.73705e-06  6.92735e+07
       924.30000  1.73705e-06  6.92735e+07
       924.40000  1.73705e-06  6.92735e+07
       924.50000  1.71590e-06  6.84302e+07
       924.60000  1.71590e-06  6.84302e+07
       924.70000  1.71590e-06  6.84474e+07
       924.80000  1.71590e-06  6.84645e+07
       924.90000  1.71590e-06  6.84645e+07
       925.00000  1.71590e-06  6.84817e+07
       925.10000  1.71590e-06  6.85160e+07
       925.20000  1.71590e-06  6.85332e+07
       925.30000  1.71590e-06  6.85503e+07
       925.40000  1.71590e-06  6.85846e+07
       925.50000  1.58857e-06  6.35267e+07
       925.60000  1.58857e-06  6.35585e+07
       925.70000  1.58857e-06  6.35903e+07
       925.80000  1.58857e-06  6.36221e+07
       925.90000  1.58857e-06  6.36538e+07
       926.00000  1.58857e-06  6.37015e+07
       926.10000  1.58857e-06  6.37968e+07
       926.20000  1.58857e-06  6.39080e+07
       926.30000  1.55761e-06  6.27560e+07
       926.40000  1.55761e-06  6.28495e+07
       926.50000  1.53860e-06  6.21748e+07
       926.60000  1.53860e-06  6.22518e+07
       926.70000  1.53860e-06  6.23287e+07
       926.80000  1.53860e-06  6.24056e+07
       926.90000  1.53860e-06  6.24825e+07
       927.00000  1.53860e-06  6.25441e+07
       927.10000  1.53860e-06  6.26056e+07
       927.20000  1.53860e-06  6.26672e+07
       927.30000  1.53860e-06  6.27133e+07
       927.40000  1.53860e-06  6.27595e+07
       927.50000  1.51937e-06  6.20207e+07
       927.60000  1.51937e-06  6.20511e+07
       927.70000  1.51937e-06  6.20967e+07
       927.80000  1.51937e-06  6.21271e+07
       927.90000  1.51937e-06  6.21423e+07
       928.00000  1.51937e-06  6.21575e+07
       928.10000  1.51937e-06  6.21271e+07
       928.20000  1.51937e-06  6.20967e+07
       928.30000  1.51937e-06  6.20511e+07
       928.40000  1.51937e-06  6.20207e+07
       928.50000  1.49975e-06  6.11899e+07
       928.60000  1.49975e-06  6.11599e+07
       928.70000  1.49975e-06  6.11299e+07
       928.80000  1.47074e-06  5.99180e+07
       928.90000  1.47074e-06  5.98886e+07
       929.00000  1.47074e-06  5.98739e+07
       929.10000  1.47074e-06  5.98444e+07
       929.20000  1.47074e-06  5.98150e+07
       929.30000  1.47074e-06  5.98003e+07
       929.40000  1.47074e-06  5.97709e+07
       929.50000  1.35535e-06  5.50678e+07
       929.60000  1.35535e-06  5.50542e+07
       929.70000  1.35535e-06  5.50271e+07
       929.80000  1.35535e-06  5.50136e+07
       929.90000  1.35535e-06  5.50000e+07
       930.00000  1.35535e-06  5.49865e+07
       930.10000  1.35535e-06  5.49865e+07
       930.20000  1.35535e-06  5.49865e+07
       930.30000  1.35535e-06  5.49729e+07
       930.40000  1.35535e-06  5.49729e+07
       930.50000  1.33753e-06  5.42501e+07
       930.60000  1.33753e-06  5.42501e+07
       930.70000  1.33753e-06  5.42367e+07
       930.80000  1.33753e-06  5.42367e+07
       930.90000  1.33753e-06  5.42367e+07
       931.00000  1.33753e-06  5.42367e+07
       931.10000  1.33753e-06  5.42367e+07
       931.20000  1.33753e-06  5.42233e+07
       931.30000  1.31306e-06  5.32315e+07
       931.40000  1.31306e-06  5.32315e+07
       931.50000  1.29567e-06  5.25264e+07
       931.60000  1.29567e-06  5.25264e+07
       931.70000  1.29567e-06  5.25264e+07
       931.80000  1.29567e-06  5.25264e+07
       931.90000  1.29567e-06  5.25264e+07
       932.00000  1.29567e-06  5.25264e+07
       932.10000  1.29567e-06  5.25264e+07
       932.20000  1.29567e-06  5.25264e+07
       932.30000  1.29567e-06  5.25264e+07
       932.40000  1.29567e-06  5.25264e+07
       932.50000  1.27822e-06  5.18189e+07
       932.60000  1.27822e-06  5.18189e+07
       932.70000  1.27822e-06  5.18189e+07
       932.80000  1.27822e-06  5.18317e+07
       932.90000  1.27822e-06  5.18317e+07
       933.00000  1.27822e-06  5.18317e+07
       933.10000  1.27822e-06  5.18317e+07
       933.20000  1.27822e-06  5.18317e+07
       933.30000  1.27822e-06  5.18445e+07
       933.40000  1.27822e-06  5.18445e+07
       933.50000  1.17068e-06  4.74828e+07
       933.60000  1.17068e-06  4.74946e+07
       933.70000  1.17068e-06  4.74946e+07
       933.80000  1.15083e-06  4.66893e+07
       933.90000  1.15083e-06  4.67008e+07
       934.00000  1.15083e-06  4.67008e+07
       934.10000  1.15083e-06  4.66663e+07
       934.20000  1.15083e-06  4.66318e+07
       934.30000  1.15083e-06  4.65972e+07
       934.40000  1.15083e-06  4.65627e+07
       934.50000  1.13481e-06  4.58803e+07
       934.60000  1.13481e-06  4.58576e+07
       934.70000  1.13481e-06  4.58349e+07
       934.80000  1.13481e-06  4.58008e+07
       934.90000  1.13481e-06  4.57781e+07
       935.00000  1.13481e-06  4.57668e+07
       935.10000  1.13481e-06  4.57441e+07
       935.20000  1.13481e-06  4.57214e+07
       935.30000  1.13481e-06  4.57101e+07
       935.40000  1.13481e-06  4.56987e+07
       935.50000  1.11901e-06  4.50512e+07
       935.60000  1.11901e-06  4.50400e+07
       935.70000  1.11901e-06  4.50288e+07
       935.80000  1.11901e-06  4.50176e+07
       935.90000  1.11901e-06  4.50176e+07
       936.00000  1.11901e-06  4.50064e+07
       936.10000  1.11901e-06  4.50400e+07
       936.20000  1.11901e-06  4.50735e+07
       936.30000  1.10060e-06  4.43653e+07
       936.40000  1.10060e-06  4.43984e+07
       936.50000  1.08502e-06  4.37913e+07
       936.60000  1.08502e-06  4.38130e+07
       936.70000  1.08502e-06  4.38348e+07
       936.80000  1.08502e-06  4.38564e+07
       936.90000  1.08502e-06  4.38673e+07
       937.00000  1.08502e-06  4.38890e+07
       937.10000  1.08502e-06  4.38999e+07
       937.20000  1.08502e-06  4.39107e+07
       937.30000  1.08502e-06  4.39107e+07
       937.40000  1.08502e-06  4.39216e+07
       937.50000  1.06930e-06  4.32852e+07
       937.60000  1.06930e-06  4.32852e+07
       937.70000  1.06930e-06  4.32852e+07
       937.80000  1.06930e-06  4.32852e+07
       937.90000  1.06930e-06  4.32745e+07
       938.00000  1.06930e-06  4.32745e+07
       938.10000  1.06930e-06  4.32638e+07
       938.20000  1.06930e-06  4.32425e+07
       938.30000  1.06930e-06  4.32318e+07
       938.40000  1.06930e-06  4.32104e+07
       938.50000  1.05384e-06  4.25753e+07
       938.60000  1.05384e-06  4.25542e+07
       938.70000  1.05384e-06  4.25226e+07
       938.80000  1.03742e-06  4.18390e+07
       938.90000  1.03742e-06  4.18078e+07
       939.00000  1.03742e-06  4.17871e+07
       939.10000  1.03742e-06  4.17560e+07
       939.20000  1.03742e-06  4.17145e+07
       939.30000  1.03742e-06  4.16833e+07
       939.40000  1.03742e-06  4.16418e+07
       939.50000  9.43302e-07  3.78264e+07
       939.60000  9.43302e-07  3.77887e+07
       939.70000  9.43302e-07  3.77510e+07
       939.80000  9.43302e-07  3.77132e+07
       939.90000  9.43302e-07  3.76661e+07
       940.00000  9.43302e-07  3.76189e+07
       940.10000  9.43302e-07  3.75529e+07
       940.20000  9.43302e-07  3.74868e+07
       940.30000  9.43302e-07  3.74302e+07
       940.40000  9.43302e-07  3.73736e+07
       940.50000  9.28887e-07  3.67468e+07
       940.60000  9.28887e-07  3.67003e+07
       940.70000  9.28887e-07  3.66539e+07
       940.80000  9.28887e-07  3.66074e+07
       940.90000  9.28887e-07  3.65610e+07
       941.00000  9.28887e-07  3.65238e+07
       941.10000  9.28887e-07  3.64867e+07
       941.20000  9.28887e-07  3.64588e+07
       941.30000  9.15044e-07  3.58880e+07
       941.40000  9.15044e-07  3.58606e+07
       941.50000  9.00941e-07  3.52808e+07
       941.60000  9.00941e-07  3.52628e+07
       941.70000  9.00941e-07  3.52448e+07
       941.80000  9.00941e-07  3.52268e+07
       941.90000  9.00941e-07  3.52088e+07
       942.00000  9.00941e-07  3.51998e+07
       942.10000  9.00941e-07  3.52268e+07
       942.20000  9.00941e-07  3.52448e+07
       942.30000  9.00941e-07  3.52718e+07
       942.40000  9.00941e-07  3.52899e+07
       942.50000  8.87215e-07  3.47700e+07
       942.60000  8.87215e-07  3.47966e+07
       942.70000  8.87215e-07  3.48143e+07
       942.80000  8.87215e-07  3.48321e+07
       942.90000  8.87215e-07  3.48498e+07
       943.00000  8.87215e-07  3.48675e+07
       943.10000  8.87215e-07  3.48942e+07
       943.20000  8.87215e-07  3.49119e+07
       943.30000  8.87215e-07  3.49296e+07
       943.40000  8.87215e-07  3.49474e+07
       943.50000  8.72987e-07  3.44044e+07
       943.60000  8.72987e-07  3.44219e+07
       943.70000  8.72987e-07  3.44393e+07
       943.80000  8.59672e-07  3.39313e+07
       943.90000  8.59672e-07  3.39485e+07
       944.00000  8.59672e-07  3.39657e+07
       944.10000  8.59672e-07  3.39828e+07
       944.20000  8.59672e-07  3.40000e+07
       944.30000  8.59672e-07  3.40086e+07
       944.40000  8.59672e-07  3.40258e+07
       944.50000  8.45860e-07  3.34960e+07
       944.60000  8.45860e-07  3.35130e+07
       944.70000  8.45860e-07  3.35214e+07
       944.80000  8.45860e-07  3.35383e+07
       944.90000  8.45860e-07  3.35553e+07
       945.00000  8.45860e-07  3.35637e+07
       945.10000  8.45860e-07  3.35806e+07
       945.20000  8.45860e-07  3.35975e+07
       945.30000  8.45860e-07  3.36060e+07
       945.40000  8.45860e-07  3.36229e+07
       945.50000  7.62601e-07  3.03210e+07
       945.60000  7.62601e-07  3.03363e+07
       945.70000  7.62601e-07  3.03439e+07
       945.80000  7.62601e-07  3.03591e+07
       945.90000  7.62601e-07  3.03668e+07
       946.00000  7.62601e-07  3.03744e+07
       946.10000  7.62601e-07  3.03896e+07
       946.20000  7.62601e-07  3.04049e+07
       946.30000  7.51157e-07  2.99636e+07
       946.40000  7.51157e-07  2.99787e+07
       946.50000  7.38626e-07  2.94933e+07
       946.60000  7.38626e-07  2.95007e+07
       946.70000  7.38626e-07  2.95155e+07
       946.80000  7.38626e-07  2.95229e+07
       946.90000  7.38626e-07  2.95303e+07
       947.00000  7.38626e-07  2.95450e+07
       947.10000  7.38626e-07  2.95524e+07
       947.20000  7.38626e-07  2.95598e+07
       947.30000  7.38626e-07  2.95672e+07
       947.40000  7.38626e-07  2.95746e+07
       947.50000  7.26293e-07  2.90808e+07
       947.60000  7.26293e-07  2.90880e+07
       947.70000  7.26293e-07  2.90953e+07
       947.80000  7.26293e-07  2.90953e+07
       947.90000  7.26293e-07  2.91025e+07
       948.00000  7.26293e-07  2.91025e+07
       948.10000  7.26293e-07  2.91025e+07
       948.20000  7.26293e-07  2.91025e+07
       948.30000  7.26293e-07  2.90953e+07
       948.40000  7.26293e-07  2.90953e+07
       948.50000  7.13569e-07  2.85784e+07
       948.60000  7.13569e-07  2.85784e+07
       948.70000  7.13569e-07  2.85784e+07
       948.80000  7.02110e-07  2.81125e+07
       948.90000  7.02110e-07  2.81125e+07
       949.00000  7.02110e-07  2.81055e+07
       949.10000  7.02110e-07  2.81055e+07
       949.20000  7.02110e-07  2.80985e+07
       949.30000  7.02110e-07  2.80985e+07
       949.40000  7.02110e-07  2.80914e+07
       949.50000  6.89913e-07  2.76034e+07
       949.60000  6.89913e-07  2.75965e+07
       949.70000  6.89913e-07  2.75896e+07
       949.80000  6.89913e-07  2.75896e+07
       949.90000  6.89913e-07  2.75827e+07
       950.00000  6.89913e-07  2.75758e+07
       950.10000  6.89913e-07  2.75758e+07
       950.20000  6.89913e-07  2.75689e+07
       950.30000  6.89913e-07  2.75620e+07
       950.40000  6.89913e-07  2.75620e+07
       950.50000  6.80434e-07  2.71765e+07
       950.60000  6.80434e-07  2.71697e+07
       950.70000  6.80434e-07  2.71629e+07
       950.80000  6.80434e-07  2.71629e+07
       950.90000  6.80434e-07  2.71561e+07
       951.00000  6.80434e-07  2.71493e+07
       951.10000  6.80434e-07  2.71425e+07
       951.20000  6.80434e-07  2.71357e+07
       951.30000  6.69548e-07  2.67016e+07
       951.40000  6.69548e-07  2.66949e+07
       951.50000  6.60503e-07  2.63276e+07
       951.60000  6.60503e-07  2.63210e+07
       951.70000  6.60503e-07  2.63144e+07
       951.80000  6.60503e-07  2.63078e+07
       951.90000  6.60503e-07  2.63012e+07
       952.00000  6.60503e-07  2.62946e+07
       952.10000  6.60503e-07  2.62418e+07
       952.20000  6.60503e-07  2.61889e+07
       952.30000  6.60503e-07  2.61427e+07
       952.40000  6.60503e-07  2.60965e+07
       952.50000  6.51757e-07  2.57053e+07
       952.60000  6.51757e-07  2.56597e+07
       952.70000  6.51757e-07  2.56206e+07
       952.80000  6.51757e-07  2.55815e+07
       952.90000  6.51757e-07  2.55424e+07
       953.00000  6.51757e-07  2.55098e+07
       953.10000  6.51757e-07  2.54772e+07
       953.20000  6.51757e-07  2.54446e+07
       953.30000  6.51757e-07  2.54185e+07
       953.40000  6.51757e-07  2.53859e+07
       953.50000  5.84351e-07  2.27371e+07
       953.60000  5.84351e-07  2.27196e+07
       953.70000  5.84351e-07  2.26962e+07
       953.80000  5.74648e-07  2.23021e+07
       953.90000  5.74648e-07  2.22849e+07
       954.00000  5.74648e-07  2.22734e+07
       954.10000  5.74648e-07  2.22676e+07
       954.20000  5.74648e-07  2.22619e+07
       954.30000  5.74648e-07  2.22619e+07
       954.40000  5.74648e-07  2.22619e+07
       954.50000  5.66545e-07  2.19423e+07
       954.60000  5.66545e-07  2.19423e+07
       954.70000  5.66545e-07  2.19423e+07
       954.80000  5.66545e-07  2.19423e+07
       954.90000  5.66545e-07  2.19479e+07
       955.00000  5.66545e-07  2.19479e+07
       955.10000  5.66545e-07  2.19536e+07
       955.20000  5.66545e-07  2.19536e+07
       955.30000  5.66545e-07  2.19593e+07
       955.40000  5.66545e-07  2.19649e+07
       955.50000  5.58539e-07  2.16601e+07
       955.60000  5.58539e-07  2.16657e+07
       955.70000  5.58539e-07  2.16713e+07
       955.80000  5.58539e-07  2.16825e+07
       955.90000  5.58539e-07  2.16881e+07
       956.00000  5.58539e-07  2.16992e+07
       956.10000  5.58539e-07  2.17104e+07
       956.20000  5.58539e-07  2.17160e+07
       956.30000  5.49421e-07  2.13725e+07
       956.40000  5.49421e-07  2.13890e+07
       956.50000  5.41528e-07  2.10925e+07
       956.60000  5.41528e-07  2.11033e+07
       956.70000  5.41528e-07  2.11196e+07
       956.80000  5.41528e-07  2.11304e+07
       956.90000  5.41528e-07  2.11467e+07
       957.00000  5.41528e-07  2.11629e+07
       957.10000  5.41528e-07  2.11792e+07
       957.20000  5.41528e-07  2.11954e+07
       957.30000  5.41528e-07  2.12171e+07
       957.40000  5.41528e-07  2.12333e+07
       957.50000  5.33610e-07  2.09389e+07
       957.60000  5.33610e-07  2.09602e+07
       957.70000  5.33610e-07  2.09815e+07
       957.80000  5.33610e-07  2.10029e+07
       957.90000  5.33610e-07  2.10242e+07
       958.00000  5.33610e-07  2.10456e+07
       958.10000  5.33610e-07  2.10456e+07
       958.20000  5.33610e-07  2.10402e+07
       958.30000  5.33610e-07  2.10402e+07
       958.40000  5.33610e-07  2.10402e+07
       958.50000  5.25805e-07  2.07325e+07
       958.60000  5.25805e-07  2.07272e+07
       958.70000  5.25805e-07  2.07272e+07
       958.80000  5.16536e-07  2.03618e+07
       958.90000  5.16536e-07  2.03567e+07
       959.00000  5.16536e-07  2.03567e+07
       959.10000  5.16536e-07  2.03515e+07
       959.20000  5.16536e-07  2.03515e+07
       959.30000  5.16536e-07  2.03464e+07
       959.40000  5.16536e-07  2.03412e+07
       959.50000  5.08758e-07  2.00349e+07
       959.60000  5.08758e-07  2.00298e+07
       959.70000  5.08758e-07  2.00298e+07
       959.80000  5.08758e-07  2.00247e+07
       959.90000  5.08758e-07  2.00196e+07
       960.00000  5.08758e-07  2.00145e+07
       960.10000  5.08758e-07  2.00095e+07
       960.20000  5.08758e-07  2.00044e+07
       960.30000  5.08758e-07  1.99993e+07
       960.40000  5.08758e-07  1.99942e+07
       960.50000  5.01103e-07  1.96883e+07
       960.60000  5.01103e-07  1.96833e+07
       960.70000  5.01103e-07  1.96783e+07
       960.80000  5.01103e-07  1.96733e+07
       960.90000  5.01103e-07  1.96683e+07
       961.00000  5.01103e-07  1.96633e+07
       961.10000  5.01103e-07  1.96583e+07
       961.20000  5.01103e-07  1.96533e+07
       961.30000  4.92397e-07  1.93069e+07
       961.40000  4.92397e-07  1.93020e+07
       961.50000  4.84764e-07  1.89979e+07
       961.60000  4.84764e-07  1.89882e+07
       961.70000  4.84764e-07  1.89834e+07
       961.80000  4.84764e-07  1.89785e+07
       961.90000  4.84764e-07  1.89737e+07
       962.00000  4.84764e-07  1.89688e+07
       962.10000  4.84764e-07  1.89591e+07
       962.20000  4.84764e-07  1.89543e+07
       962.30000  4.84764e-07  1.89494e+07
       962.40000  4.84764e-07  1.89397e+07
       962.50000  4.29403e-07  1.67725e+07
       962.60000  4.29403e-07  1.67682e+07
       962.70000  4.29403e-07  1.67596e+07
       962.80000  4.29403e-07  1.67553e+07
       962.90000  4.29403e-07  1.67467e+07
       963.00000  4.29403e-07  1.67424e+07
       963.10000  4.29403e-07  1.67381e+07
       963.20000  4.29403e-07  1.67295e+07
       963.30000  4.29403e-07  1.67252e+07
       963.40000  4.29403e-07  1.67167e+07
       963.50000  4.22534e-07  1.64450e+07
       963.60000  4.22534e-07  1.64366e+07
       963.70000  4.22534e-07  1.64323e+07
       963.80000  4.14860e-07  1.61256e+07
       963.90000  4.14860e-07  1.61173e+07
       964.00000  4.14860e-07  1.61132e+07
       964.10000  4.14860e-07  1.61049e+07
       964.20000  4.14860e-07  1.60924e+07
       964.30000  4.14860e-07  1.60841e+07
       964.40000  4.14860e-07  1.60800e+07
       964.50000  4.08182e-07  1.58130e+07
       964.60000  4.08182e-07  1.58048e+07
       964.70000  4.08182e-07  1.58007e+07
       964.80000  4.08182e-07  1.57926e+07
       964.90000  4.08182e-07  1.57885e+07
       965.00000  4.08182e-07  1.57803e+07
       965.10000  4.08182e-07  1.57762e+07
       965.20000  4.08182e-07  1.57722e+07
       965.30000  4.08182e-07  1.57681e+07
       965.40000  4.08182e-07  1.57681e+07
       965.50000  4.01391e-07  1.55017e+07
       965.60000  4.01391e-07  1.54977e+07
       965.70000  4.01391e-07  1.54977e+07
       965.80000  4.01391e-07  1.54937e+07
       965.90000  4.01391e-07  1.54937e+07
       966.00000  4.01391e-07  1.54937e+07
       966.10000  4.01391e-07  1.54977e+07
       966.20000  4.01391e-07  1.55017e+07
       966.30000  3.93968e-07  1.52229e+07
       966.40000  3.93968e-07  1.52269e+07
       966.50000  3.87346e-07  1.49748e+07
       966.60000  3.87346e-07  1.49787e+07
       966.70000  3.87346e-07  1.49826e+07
       966.80000  3.87346e-07  1.49864e+07
       966.90000  3.87346e-07  1.49903e+07
       967.00000  3.87346e-07  1.49942e+07
       967.10000  3.87346e-07  1.49980e+07
       967.20000  3.87346e-07  1.50019e+07
       967.30000  3.87346e-07  1.50058e+07
       967.40000  3.87346e-07  1.50097e+07
       967.50000  3.80706e-07  1.47524e+07
       967.60000  3.80706e-07  1.47562e+07
       967.70000  3.80706e-07  1.47600e+07
       967.80000  3.80706e-07  1.47600e+07
       967.90000  3.80706e-07  1.47638e+07
       968.00000  3.80706e-07  1.47676e+07
       968.10000  3.80706e-07  1.47676e+07
       968.20000  3.80706e-07  1.47714e+07
       968.30000  3.80706e-07  1.47714e+07
       968.40000  3.80706e-07  1.47714e+07
       968.50000  3.74038e-07  1.45164e+07
       968.60000  3.74038e-07  1.45164e+07
       968.70000  3.74038e-07  1.45164e+07
       968.80000  3.67107e-07  1.42511e+07
       968.90000  3.67107e-07  1.42511e+07
       969.00000  3.67107e-07  1.42511e+07
       969.10000  3.67107e-07  1.42511e+07
       969.20000  3.67107e-07  1.42511e+07
       969.30000  3.67107e-07  1.42511e+07
       969.40000  3.67107e-07  1.42511e+07
       969.50000  3.60670e-07  1.40012e+07
       969.60000  3.60670e-07  1.40012e+07
       969.70000  3.60670e-07  1.40012e+07
       969.80000  3.60670e-07  1.40012e+07
       969.90000  3.60670e-07  1.40012e+07
       970.00000  3.60670e-07  1.40012e+07
       970.10000  3.60670e-07  1.40048e+07
       970.20000  3.60670e-07  1.40084e+07
       970.30000  3.60670e-07  1.40084e+07
       970.40000  3.60670e-07  1.40120e+07
       970.50000  3.54163e-07  1.37592e+07
       970.60000  3.54163e-07  1.37628e+07
       970.70000  3.54163e-07  1.37628e+07
       970.80000  3.54163e-07  1.37628e+07
       970.90000  3.54163e-07  1.37628e+07
       971.00000  3.54163e-07  1.37628e+07
       971.10000  3.54163e-07  1.37628e+07
       971.20000  3.54163e-07  1.37592e+07
       971.30000  3.47615e-07  1.35048e+07
       971.40000  3.47615e-07  1.35014e+07
       971.50000  3.41226e-07  1.32532e+07
       971.60000  3.41226e-07  1.32498e+07
       971.70000  3.41226e-07  1.32464e+07
       971.80000  3.41226e-07  1.32430e+07
       971.90000  3.41226e-07  1.32396e+07
       972.00000  3.41226e-07  1.32327e+07
       972.10000  3.41226e-07  1.32191e+07
       972.20000  3.41226e-07  1.32054e+07
       972.30000  3.41226e-07  1.31952e+07
       972.40000  3.41226e-07  1.31816e+07
       972.50000  3.34831e-07  1.29245e+07
       972.60000  3.34831e-07  1.29111e+07
       972.70000  3.34831e-07  1.29010e+07
       972.80000  3.34831e-07  1.28910e+07
       972.90000  3.34831e-07  1.28809e+07
       973.00000  3.34831e-07  1.28742e+07
       973.10000  3.34831e-07  1.28642e+07
       973.20000  3.34831e-07  1.28575e+07
       973.30000  3.34831e-07  1.28508e+07
       973.40000  3.34831e-07  1.28441e+07
       973.50000  2.91960e-07  1.11937e+07
       973.60000  2.91960e-07  1.11879e+07
       973.70000  2.91960e-07  1.11850e+07
       973.80000  2.86273e-07  1.09614e+07
       973.90000  2.86273e-07  1.09585e+07
       974.00000  2.86273e-07  1.09557e+07
       974.10000  2.86273e-07  1.09585e+07
       974.20000  2.86273e-07  1.09643e+07
       974.30000  2.86273e-07  1.09671e+07
       974.40000  2.86273e-07  1.09700e+07
       974.50000  2.80692e-07  1.07589e+07
       974.60000  2.80692e-07  1.07617e+07
       974.70000  2.80692e-07  1.07646e+07
       974.80000  2.80692e-07  1.07674e+07
       974.90000  2.80692e-07  1.07674e+07
       975.00000  2.80692e-07  1.07702e+07
       975.10000  2.80692e-07  1.07730e+07
       975.20000  2.80692e-07  1.07730e+07
       975.30000  2.80692e-07  1.07758e+07
       975.40000  2.80692e-07  1.07758e+07
       975.50000  2.75127e-07  1.05621e+07
       975.60000  2.75127e-07  1.05649e+07
       975.70000  2.75127e-07  1.05649e+07
       975.80000  2.75127e-07  1.05649e+07
       975.90000  2.75127e-07  1.05649e+07
       976.00000  2.75127e-07  1.05649e+07
       976.10000  2.75127e-07  1.05621e+07
       976.20000  2.75127e-07  1.05594e+07
       976.30000  2.69866e-07  1.03548e+07
       976.40000  2.69866e-07  1.03521e+07
       976.50000  2.64376e-07  1.01415e+07
       976.60000  2.64376e-07  1.01388e+07
       976.70000  2.64376e-07  1.01362e+07
       976.80000  2.64376e-07  1.01335e+07
       976.90000  2.64376e-07  1.01335e+07
       977.00000  2.64376e-07  1.01309e+07
       977.10000  2.64376e-07  1.01283e+07
       977.20000  2.64376e-07  1.01256e+07
       977.30000  2.64376e-07  1.01256e+07
       977.40000  2.64376e-07  1.01230e+07
       977.50000  2.58989e-07  9.91410e+06
       977.60000  2.58989e-07  9.91410e+06
       977.70000  2.58989e-07  9.91151e+06
       977.80000  2.58989e-07  9.90892e+06
       977.90000  2.58989e-07  9.90892e+06
       978.00000  2.58989e-07  9.90633e+06
       978.10000  2.58989e-07  9.90633e+06
       978.20000  2.58989e-07  9.90374e+06
       978.30000  2.58989e-07  9.90374e+06
       978.40000  2.58989e-07  9.90115e+06
       978.50000  2.53453e-07  9.68698e+06
       978.60000  2.53453e-07  9.68698e+06
       978.70000  2.53453e-07  9.68698e+06
       978.80000  2.48520e-07  9.49594e+06
       978.90000  2.48520e-07  9.49594e+06
       979.00000  2.48520e-07  9.49346e+06
       979.10000  2.48520e-07  9.49346e+06
       979.20000  2.48520e-07  9.49097e+06
       979.30000  2.48520e-07  9.49097e+06
       979.40000  2.48520e-07  9.49097e+06
       979.50000  2.43126e-07  9.28257e+06
       979.60000  2.43126e-07  9.28257e+06
       979.70000  2.43126e-07  9.28257e+06
       979.80000  2.43126e-07  9.28014e+06
       979.90000  2.43126e-07  9.28014e+06
       980.00000  2.43126e-07  9.28014e+06
       980.10000  2.43126e-07  9.28500e+06
       980.20000  2.43126e-07  9.28743e+06
       980.30000  2.43126e-07  9.29229e+06
       980.40000  2.43126e-07  9.29472e+06
       980.50000  2.37782e-07  9.09514e+06
       980.60000  2.37782e-07  9.09752e+06
       980.70000  2.37782e-07  9.09990e+06
       980.80000  2.37782e-07  9.10228e+06
       980.90000  2.37782e-07  9.10466e+06
       981.00000  2.37782e-07  9.10703e+06
       981.10000  2.37782e-07  9.10941e+06
       981.20000  2.37782e-07  9.11179e+06
       981.30000  2.32970e-07  8.92741e+06
       981.40000  2.32970e-07  8.92974e+06
       981.50000  2.27699e-07  8.72770e+06
       981.60000  2.27699e-07  8.72770e+06
       981.70000  2.27699e-07  8.72998e+06
       981.80000  2.27699e-07  8.72998e+06
       981.90000  2.27699e-07  8.72998e+06
       982.00000  2.27699e-07  8.72770e+06
       982.10000  2.27699e-07  8.72543e+06
       982.20000  2.27699e-07  8.72087e+06
       982.30000  2.27699e-07  8.71860e+06
       982.40000  2.27699e-07  8.71404e+06
       982.50000  2.22425e-07  8.50998e+06
       982.60000  2.22425e-07  8.50553e+06
       982.70000  2.22425e-07  8.50331e+06
       982.80000  2.22425e-07  8.50108e+06
       982.90000  2.22425e-07  8.49664e+06
       983.00000  2.22425e-07  8.49441e+06
       983.10000  2.22425e-07  8.49219e+06
       983.20000  2.22425e-07  8.48996e+06
       983.30000  2.22425e-07  8.48774e+06
       983.40000  2.22425e-07  8.48329e+06
       983.50000  2.17158e-07  8.28025e+06
       983.60000  2.17158e-07  8.27808e+06
       983.70000  2.17158e-07  8.27590e+06
       983.80000  2.12875e-07  8.11055e+06
       983.90000  2.12875e-07  8.10842e+06
       984.00000  2.12875e-07  8.10629e+06
       984.10000  2.12875e-07  8.10629e+06
       984.20000  2.12875e-07  8.10416e+06
       984.30000  2.12875e-07  8.10203e+06
       984.40000  2.12875e-07  8.09990e+06
       984.50000  2.07750e-07  7.90488e+06
       984.60000  2.07750e-07  7.90280e+06
       984.70000  2.07750e-07  7.90072e+06
       984.80000  2.07750e-07  7.90072e+06
       984.90000  2.07750e-07  7.89864e+06
       985.00000  2.07750e-07  7.89657e+06
       985.10000  2.07750e-07  7.89657e+06
       985.20000  2.07750e-07  7.89449e+06
       985.30000  2.07750e-07  7.89449e+06
       985.40000  2.07750e-07  7.89449e+06
       985.50000  2.02574e-07  7.69580e+06
       985.60000  2.02574e-07  7.69580e+06
       985.70000  2.02574e-07  7.69580e+06
       985.80000  2.02574e-07  7.69377e+06
       985.90000  2.02574e-07  7.69377e+06
       986.00000  2.02574e-07  7.69377e+06
       986.10000  2.02574e-07  7.69174e+06
       986.20000  2.02574e-07  7.69174e+06
       986.30000  1.98582e-07  7.54015e+06
       986.40000  1.98582e-07  7.53816e+06
       986.50000  1.93513e-07  7.34383e+06
       986.60000  1.93513e-07  7.34383e+06
       986.70000  1.93513e-07  7.34189e+06
       986.80000  1.93513e-07  7.34189e+06
       986.90000  1.93513e-07  7.33996e+06
       987.00000  1.93513e-07  7.33802e+06
       987.10000  1.93513e-07  7.33608e+06
       987.20000  1.93513e-07  7.33608e+06
       987.30000  1.93513e-07  7.33415e+06
       987.40000  1.93513e-07  7.33221e+06
       987.50000  1.88443e-07  7.13821e+06
       987.60000  1.88443e-07  7.13633e+06
       987.70000  1.88443e-07  7.13444e+06
       987.80000  1.88443e-07  7.13256e+06
       987.90000  1.88443e-07  7.13068e+06
       988.00000  1.88443e-07  7.12879e+06
       988.10000  1.88443e-07  7.12314e+06
       988.20000  1.88443e-07  7.11937e+06
       988.30000  1.88443e-07  7.11372e+06
       988.40000  1.88443e-07  7.10995e+06
       988.50000  1.83400e-07  6.91601e+06
       988.60000  1.83400e-07  6.91234e+06
       988.70000  1.83400e-07  6.90867e+06
       988.80000  1.79826e-07  6.77047e+06
       988.90000  1.79826e-07  6.76687e+06
       989.00000  1.79826e-07  6.76507e+06
       989.10000  1.79826e-07  6.76327e+06
       989.20000  1.79826e-07  6.75968e+06
       989.30000  1.79826e-07  6.75788e+06
       989.40000  1.79826e-07  6.75608e+06
       989.50000  1.74813e-07  6.56597e+06
       989.60000  1.74813e-07  6.56422e+06
       989.70000  1.74813e-07  6.56422e+06
       989.80000  1.74813e-07  6.56247e+06
       989.90000  1.74813e-07  6.56247e+06
       990.00000  1.74813e-07  6.56247e+06
       990.10000  1.74813e-07  6.56073e+06
       990.20000  1.74813e-07  6.56073e+06
       990.30000  1.74813e-07  6.56247e+06
       990.40000  1.74813e-07  6.56247e+06
       990.50000  1.48604e-07  5.57860e+06
       990.60000  1.48604e-07  5.58008e+06
       990.70000  1.48604e-07  5.58008e+06
       990.80000  1.48604e-07  5.58157e+06
       990.90000  1.48604e-07  5.58306e+06
       991.00000  1.48604e-07  5.58454e+06
       991.10000  1.48604e-07  5.58603e+06
       991.20000  1.48604e-07  5.58751e+06
       991.30000  1.45850e-07  5.48543e+06
       991.40000  1.45850e-07  5.48835e+06
       991.50000  1.41596e-07  5.32966e+06
       991.60000  1.41596e-07  5.33249e+06
       991.70000  1.41596e-07  5.33532e+06
       991.80000  1.41596e-07  5.33815e+06
       991.90000  1.41596e-07  5.34098e+06
       992.00000  1.41596e-07  5.34382e+06
       992.10000  1.41596e-07  5.34523e+06
       992.20000  1.41596e-07  5.34523e+06
       992.30000  1.41596e-07  5.34523e+06
       992.40000  1.41596e-07  5.34523e+06
       992.50000  1.37272e-07  5.18339e+06
       992.60000  1.37272e-07  5.18339e+06
       992.70000  1.37272e-07  5.18339e+06
       992.80000  1.37272e-07  5.18339e+06
       992.90000  1.37272e-07  5.18339e+06
       993.00000  1.37272e-07  5.18476e+06
       993.10000  1.37272e-07  5.18476e+06
       993.20000  1.37272e-07  5.18476e+06
       993.30000  1.37272e-07  5.18476e+06
       993.40000  1.37272e-07  5.18476e+06
       993.50000  1.33042e-07  5.02500e+06
       993.60000  1.33042e-07  5.02500e+06
       993.70000  1.33042e-07  5.02500e+06
       993.80000  1.30746e-07  4.93828e+06
       993.90000  1.30746e-07  4.93697e+06
       994.00000  1.30746e-07  4.93697e+06
       994.10000  1.30746e-07  4.93697e+06
       994.20000  1.30746e-07  4.93566e+06
       994.30000  1.30746e-07  4.93566e+06
       994.40000  1.30746e-07  4.93436e+06
       994.50000  1.26541e-07  4.77564e+06
       994.60000  1.26541e-07  4.77438e+06
       994.70000  1.26541e-07  4.77438e+06
       994.80000  1.26541e-07  4.77311e+06
       994.90000  1.26541e-07  4.77311e+06
       995.00000  1.26541e-07  4.77185e+06
       995.10000  1.26541e-07  4.77185e+06
       995.20000  1.26541e-07  4.77185e+06
       995.30000  1.26541e-07  4.77058e+06
       995.40000  1.26541e-07  4.77058e+06
       995.50000  1.22322e-07  4.61155e+06
       995.60000  1.22322e-07  4.61033e+06
       995.70000  1.22322e-07  4.61033e+06
       995.80000  1.22322e-07  4.61033e+06
       995.90000  1.22322e-07  4.61033e+06
       996.00000  1.22322e-07  4.60911e+06
       996.10000  1.22322e-07  4.61033e+06
       996.20000  1.22322e-07  4.61033e+06
       996.30000  1.20272e-07  4.53306e+06
       996.40000  1.20272e-07  4.53306e+06
       996.50000  1.16145e-07  4.37750e+06
       996.60000  1.16145e-07  4.37750e+06
       996.70000  1.16145e-07  4.37750e+06
       996.80000  1.16145e-07  4.37750e+06
       996.90000  1.16145e-07  4.37750e+06
       997.00000  1.16145e-07  4.37750e+06
       997.10000  1.16145e-07  4.37750e+06
       997.20000  1.16145e-07  4.37750e+06
       997.30000  1.16145e-07  4.37750e+06
       997.40000  1.16145e-07  4.37750e+06
       997.50000  1.11999e-07  4.22124e+06
       997.60000  1.11999e-07  4.22124e+06
       997.70000  1.11999e-07  4.22124e+06
       997.80000  1.11999e-07  4.22124e+06
       997.90000  1.11999e-07  4.22124e+06
       998.00000  1.11999e-07  4.22012e+06
       998.10000  1.11999e-07  4.22012e+06
       998.20000  1.11999e-07  4.21900e+06
       998.30000  1.11999e-07  4.21900e+06
       998.40000  1.11999e-07  4.21788e+06
       998.50000  1.07853e-07  4.06066e+06
       998.60000  1.07853e-07  4.06066e+06
       998.70000  1.07853e-07  4.05958e+06
       998.80000  1.06209e-07  3.99771e+06
       998.90000  1.06209e-07  3.99771e+06
       999.00000  1.06209e-07  3.99664e+06
       999.10000  1.06209e-07  3.99664e+06
       999.20000  1.06209e-07  3.99558e+06
       999.30000  1.06209e-07  3.99558e+06
       999.40000  1.06209e-07  3.99558e+06
       999.50000  1.02143e-07  3.84159e+06
       999.60000  1.02143e-07  3.84159e+06
       999.70000  1.02143e-07  3.84159e+06
       999.80000  1.02143e-07  3.84159e+06
       999.90000  1.02143e-07  3.84159e+06
       1000.0000  1.02143e-07  3.84057e+06
       1000.1000  1.02143e-07  3.84057e+06
       1000.2000  1.02143e-07  3.84057e+06
       1000.3000  1.02143e-07  3.84057e+06
       1000.4000  1.02143e-07  3.84057e+06
       1000.5000  1.00416e-07  3.77563e+06
       1000.6000  1.00416e-07  3.77563e+06
       1000.7000  1.00416e-07  3.77563e+06
       1000.8000  1.00416e-07  3.77563e+06
       1000.9000  1.00416e-07  3.77563e+06
       1001.0000  1.00416e-07  3.77563e+06
       1001.1000  1.00416e-07  3.77563e+06
       1001.2000  1.00416e-07  3.77663e+06
       1001.3000  9.89335e-08  3.72089e+06
       1001.4000  9.89335e-08  3.72089e+06
       1001.5000  9.72397e-08  3.65718e+06
       1001.6000  9.72397e-08  3.65718e+06
       1001.7000  9.72397e-08  3.65816e+06
       1001.8000  9.72397e-08  3.65816e+06
       1001.9000  9.72397e-08  3.65816e+06
       1002.0000  9.72397e-08  3.65913e+06
       1002.1000  9.72397e-08  3.65330e+06
       1002.2000  9.72397e-08  3.64746e+06
       1002.3000  9.72397e-08  3.64260e+06
       1002.4000  9.72397e-08  3.63676e+06
       1002.5000  9.55502e-08  3.56880e+06
       1002.6000  9.55502e-08  3.56307e+06
       1002.7000  9.55502e-08  3.55829e+06
       1002.8000  9.55502e-08  3.55351e+06
       1002.9000  9.55502e-08  3.54873e+06
       1003.0000  9.55502e-08  3.54396e+06
       1003.1000  9.55502e-08  3.53918e+06
       1003.2000  9.55502e-08  3.53440e+06
       1003.3000  9.55502e-08  3.53058e+06
       1003.4000  9.55502e-08  3.52580e+06
       1003.5000  9.38560e-08  3.45953e+06
       1003.6000  9.38560e-08  3.45578e+06
       1003.7000  9.38560e-08  3.45109e+06
       1003.8000  9.25776e-08  3.40038e+06
       1003.9000  9.25776e-08  3.39667e+06
       1004.0000  9.25776e-08  3.39297e+06
       1004.1000  9.25776e-08  3.38742e+06
       1004.2000  9.25776e-08  3.38094e+06
       1004.3000  9.25776e-08  3.37631e+06
       1004.4000  9.25776e-08  3.37075e+06
       1004.5000  9.08899e-08  3.30476e+06
       1004.6000  9.08899e-08  3.30021e+06
       1004.7000  9.08899e-08  3.29658e+06
       1004.8000  9.08899e-08  3.29294e+06
       1004.9000  9.08899e-08  3.29022e+06
       1005.0000  9.08899e-08  3.28749e+06
       1005.1000  9.08899e-08  3.28476e+06
       1005.2000  9.08899e-08  3.28294e+06
       1005.3000  9.08899e-08  3.28113e+06
       1005.4000  9.08899e-08  3.28022e+06
       1005.5000  8.92289e-08  3.21938e+06
       1005.6000  8.92289e-08  3.21849e+06
       1005.7000  8.92289e-08  3.21849e+06
       1005.8000  8.92289e-08  3.21938e+06
       1005.9000  8.92289e-08  3.21938e+06
       1006.0000  8.92289e-08  3.22027e+06
       1006.1000  8.92289e-08  3.22206e+06
       1006.2000  8.92289e-08  3.22384e+06
       1006.3000  8.80938e-08  3.18459e+06
       1006.4000  8.80938e-08  3.18723e+06
       1006.5000  8.64270e-08  3.12952e+06
       1006.6000  8.64270e-08  3.13298e+06
       1006.7000  8.64270e-08  3.13644e+06
       1006.8000  8.64270e-08  3.13989e+06
       1006.9000  8.64270e-08  3.14421e+06
       1007.0000  8.64270e-08  3.14854e+06
       1007.1000  8.64270e-08  3.15372e+06
       1007.2000  8.64270e-08  3.15891e+06
       1007.3000  8.64270e-08  3.16409e+06
       1007.4000  8.64270e-08  3.17014e+06
       1007.5000  8.47610e-08  3.11497e+06
       1007.6000  8.47610e-08  3.12175e+06
       1007.7000  8.47610e-08  3.12853e+06
       1007.8000  8.47610e-08  3.13531e+06
       1007.9000  8.47610e-08  3.14294e+06
       1008.0000  8.47610e-08  3.15057e+06
       1008.1000  8.47610e-08  3.15141e+06
       1008.2000  8.47610e-08  3.15141e+06
       1008.3000  8.47610e-08  3.15141e+06
       1008.4000  8.47610e-08  3.15141e+06
       1008.5000  8.31173e-08  3.09030e+06
       1008.6000  8.31173e-08  3.09030e+06
       1008.7000  8.31173e-08  3.09030e+06
       1008.8000  8.21445e-08  3.05413e+06
       1008.9000  8.21445e-08  3.05413e+06
       1009.0000  8.21445e-08  3.05331e+06
       1009.1000  8.21445e-08  3.05331e+06
       1009.2000  8.21445e-08  3.05331e+06
       1009.3000  8.21445e-08  3.05331e+06
       1009.4000  8.21445e-08  3.05249e+06
       1009.5000  8.05116e-08  2.99181e+06
       1009.6000  8.05116e-08  2.99181e+06
       1009.7000  8.05116e-08  2.99101e+06
       1009.8000  8.05116e-08  2.99101e+06
       1009.9000  8.05116e-08  2.99020e+06
       1010.0000  8.05116e-08  2.99020e+06
       1010.1000  8.05116e-08  2.98940e+06
       1010.2000  8.05116e-08  2.98859e+06
       1010.3000  8.05116e-08  2.98779e+06
       1010.4000  8.05116e-08  2.98698e+06
       1010.5000  7.88773e-08  2.92556e+06
       1010.6000  7.88773e-08  2.92477e+06
       1010.7000  7.88773e-08  2.92398e+06
       1010.8000  7.88773e-08  2.92319e+06
       1010.9000  7.88773e-08  2.92240e+06
       1011.0000  7.88773e-08  2.92161e+06
       1011.1000  7.88773e-08  2.92161e+06
       1011.2000  7.88773e-08  2.92082e+06
       1011.3000  7.80071e-08  2.88782e+06
       1011.4000  7.80071e-08  2.88704e+06
       1011.5000  7.63823e-08  2.82615e+06
       1011.6000  7.63823e-08  2.82538e+06
       1011.7000  7.63823e-08  2.82462e+06
       1011.8000  7.63823e-08  2.82385e+06
       1011.9000  7.63823e-08  2.82309e+06
       1012.0000  7.63823e-08  2.82233e+06
       1012.1000  7.63823e-08  2.82156e+06
       1012.2000  7.63823e-08  2.82080e+06
       1012.3000  7.63823e-08  2.82004e+06
       1012.4000  7.63823e-08  2.81927e+06
       1012.5000  7.47757e-08  2.75923e+06
       1012.6000  7.47757e-08  2.75848e+06
       1012.7000  7.47757e-08  2.75773e+06
       1012.8000  7.47757e-08  2.75698e+06
       1012.9000  7.47757e-08  2.75698e+06
       1013.0000  7.47757e-08  2.75623e+06
       1013.1000  7.47757e-08  2.75549e+06
       1013.2000  7.47757e-08  2.75474e+06
       1013.3000  7.47757e-08  2.75399e+06
       1013.4000  7.47757e-08  2.75324e+06
       1013.5000  7.31401e-08  2.69229e+06
       1013.6000  7.31401e-08  2.69156e+06
       1013.7000  7.31401e-08  2.69083e+06
       1013.8000  7.23880e-08  2.66243e+06
       1013.9000  7.23880e-08  2.66171e+06
       1014.0000  7.23880e-08  2.66098e+06
       1014.1000  7.23880e-08  2.65954e+06
       1014.2000  7.23880e-08  2.65809e+06
       1014.3000  7.23880e-08  2.65664e+06
       1014.4000  7.23880e-08  2.65519e+06
       1014.5000  7.07789e-08  2.59546e+06
       1014.6000  7.07789e-08  2.59405e+06
       1014.7000  7.07789e-08  2.59263e+06
       1014.8000  7.07789e-08  2.59192e+06
       1014.9000  7.07789e-08  2.59051e+06
       1015.0000  7.07789e-08  2.58980e+06
       1015.1000  7.07789e-08  2.58839e+06
       1015.2000  7.07789e-08  2.58768e+06
       1015.3000  7.07789e-08  2.58697e+06
       1015.4000  7.07789e-08  2.58555e+06
       1015.5000  6.91731e-08  2.52620e+06
       1015.6000  6.91731e-08  2.52551e+06
       1015.7000  6.91731e-08  2.52482e+06
       1015.8000  6.91731e-08  2.52413e+06
       1015.9000  6.91731e-08  2.52344e+06
       1016.0000  6.91731e-08  2.52274e+06
       1016.1000  6.91731e-08  2.52274e+06
       1016.2000  6.91731e-08  2.52274e+06
       1016.3000  6.85158e-08  2.49877e+06
       1016.4000  6.85158e-08  2.49809e+06
       1016.5000  6.69269e-08  2.44016e+06
       1016.6000  6.69269e-08  2.44016e+06
       1016.7000  6.69269e-08  2.44016e+06
       1016.8000  6.69269e-08  2.43949e+06
       1016.9000  6.69269e-08  2.43949e+06
       1017.0000  6.69269e-08  2.43882e+06
       1017.1000  6.69269e-08  2.43882e+06
       1017.2000  6.69269e-08  2.43815e+06
       1017.3000  6.69269e-08  2.43815e+06
       1017.4000  6.69269e-08  2.43748e+06
       1017.5000  6.53409e-08  2.37971e+06
       1017.6000  6.53409e-08  2.37906e+06
       1017.7000  6.53409e-08  2.37841e+06
       1017.8000  6.53409e-08  2.37775e+06
       1017.9000  6.53409e-08  2.37710e+06
       1018.0000  6.53409e-08  2.37710e+06
       1018.1000  6.53409e-08  2.37579e+06
       1018.2000  6.53409e-08  2.37449e+06
       1018.3000  6.53409e-08  2.37318e+06
       1018.4000  6.53409e-08  2.37187e+06
       1018.5000  6.37449e-08  2.31330e+06
       1018.6000  6.37449e-08  2.31203e+06
       1018.7000  6.37449e-08  2.31139e+06
       1018.8000  6.31612e-08  2.28896e+06
       1018.9000  6.31612e-08  2.28833e+06
       1019.0000  6.31612e-08  2.28707e+06
       1019.1000  6.31612e-08  2.28643e+06
       1019.2000  6.31612e-08  2.28580e+06
       1019.3000  6.31612e-08  2.28517e+06
       1019.4000  6.31612e-08  2.28391e+06
       1019.5000  6.15834e-08  2.22624e+06
       1019.6000  6.15834e-08  2.22562e+06
       1019.7000  6.15834e-08  2.22501e+06
       1019.8000  6.15834e-08  2.22501e+06
       1019.9000  6.15834e-08  2.22439e+06
       1020.0000  6.15834e-08  2.22378e+06
       1020.1000  6.15834e-08  2.22316e+06
       1020.2000  6.15834e-08  2.22255e+06
       1020.3000  6.15834e-08  2.22255e+06
       1020.4000  6.15834e-08  2.22193e+06
       1020.5000  6.00009e-08  2.16483e+06
       1020.6000  6.00009e-08  2.16423e+06
       1020.7000  6.00009e-08  2.16423e+06
       1020.8000  6.00009e-08  2.16363e+06
       1020.9000  6.00009e-08  2.16363e+06
       1021.0000  6.00009e-08  2.16363e+06
       1021.1000  6.00009e-08  2.16363e+06
       1021.2000  6.00009e-08  2.16363e+06
       1021.3000  5.95551e-08  2.14756e+06
       1021.4000  5.95551e-08  2.14756e+06
       1021.5000  5.79937e-08  2.09125e+06
       1021.6000  5.79937e-08  2.09125e+06
       1021.7000  5.79937e-08  2.09125e+06
       1021.8000  5.79937e-08  2.09183e+06
       1021.9000  5.79937e-08  2.09183e+06
       1022.0000  5.79937e-08  2.09241e+06
       1022.1000  5.79937e-08  2.09241e+06
       1022.2000  5.79937e-08  2.09299e+06
       1022.3000  5.79937e-08  2.09357e+06
       1022.4000  5.79937e-08  2.09357e+06
       1022.5000  5.64252e-08  2.03751e+06
       1022.6000  5.64252e-08  2.03808e+06
       1022.7000  5.64252e-08  2.03864e+06
       1022.8000  5.64252e-08  2.03921e+06
       1022.9000  5.64252e-08  2.03977e+06
       1023.0000  5.64252e-08  2.04033e+06
       1023.1000  5.64252e-08  2.04146e+06
       1023.2000  5.64252e-08  2.04203e+06
       1023.3000  5.64252e-08  2.04259e+06
       1023.4000  5.64252e-08  2.04372e+06
       1023.5000  5.48620e-08  1.98765e+06
       1023.6000  5.48620e-08  1.98875e+06
       1023.7000  5.48620e-08  1.98930e+06
       1023.8000  5.45177e-08  1.97790e+06
       1023.9000  5.45177e-08  1.97899e+06
       1024.0000  5.45177e-08  1.98008e+06
       1024.1000  5.45177e-08  1.98008e+06
       1024.2000  5.45177e-08  1.97954e+06
       1024.3000  5.45177e-08  1.97954e+06
       1024.4000  5.45177e-08  1.97954e+06
       1024.5000  5.29577e-08  1.92289e+06
       1024.6000  5.29577e-08  1.92236e+06
       1024.7000  5.29577e-08  1.92236e+06
       1024.8000  5.29577e-08  1.92236e+06
       1024.9000  5.29577e-08  1.92183e+06
       1025.0000  5.29577e-08  1.92183e+06
       1025.1000  5.29577e-08  1.92183e+06
       1025.2000  5.29577e-08  1.92130e+06
       1025.3000  5.29577e-08  1.92130e+06
       1025.4000  5.29577e-08  1.92130e+06
       1025.5000  5.13957e-08  1.86412e+06
       1025.6000  5.13957e-08  1.86412e+06
       1025.7000  5.13957e-08  1.86361e+06
       1025.8000  5.13957e-08  1.86361e+06
       1025.9000  5.13957e-08  1.86309e+06
       1026.0000  5.13957e-08  1.86309e+06
       1026.1000  5.13957e-08  1.86309e+06
       1026.2000  5.13957e-08  1.86258e+06
       1026.3000  5.10751e-08  1.85096e+06
       1026.4000  5.10751e-08  1.85045e+06
       1026.5000  4.95247e-08  1.79428e+06
       1026.6000  4.95247e-08  1.79379e+06
       1026.7000  4.95247e-08  1.79329e+06
       1026.8000  4.95247e-08  1.79329e+06
       1026.9000  4.95247e-08  1.79279e+06
       1027.0000  4.95247e-08  1.79279e+06
       1027.1000  4.95247e-08  1.79230e+06
       1027.2000  4.95247e-08  1.79180e+06
       1027.3000  4.95247e-08  1.79180e+06
       1027.4000  4.95247e-08  1.79131e+06
       1027.5000  4.79789e-08  1.73492e+06
       1027.6000  4.79789e-08  1.73492e+06
       1027.7000  4.79789e-08  1.73444e+06
       1027.8000  4.79789e-08  1.73396e+06
       1027.9000  4.79789e-08  1.73348e+06
       1028.0000  4.79789e-08  1.73300e+06
       1028.1000  4.79789e-08  1.73300e+06
       1028.2000  4.79789e-08  1.73252e+06
       1028.3000  4.79789e-08  1.73204e+06
       1028.4000  4.79789e-08  1.73156e+06
       1028.5000  4.64266e-08  1.67507e+06
       1028.6000  4.64266e-08  1.67461e+06
       1028.7000  4.64266e-08  1.67414e+06
       1028.8000  4.60285e-08  1.65933e+06
       1028.9000  4.60285e-08  1.65887e+06
       1029.0000  4.60285e-08  1.65841e+06
       1029.1000  4.60285e-08  1.65795e+06
       1029.2000  4.60285e-08  1.65749e+06
       1029.3000  4.60285e-08  1.65702e+06
       1029.4000  4.60285e-08  1.65656e+06
       1029.5000  4.44897e-08  1.60074e+06
       1029.6000  4.44897e-08  1.60029e+06
       1029.7000  4.44897e-08  1.59985e+06
       1029.8000  4.44897e-08  1.59940e+06
       1029.9000  4.44897e-08  1.59896e+06
       1030.0000  4.44897e-08  1.59807e+06
       1030.1000  4.44897e-08  1.59852e+06
       1030.2000  4.44897e-08  1.59852e+06
       1030.3000  4.44897e-08  1.59852e+06
       1030.4000  4.44897e-08  1.59852e+06
       1030.5000  4.29519e-08  1.54326e+06
       1030.6000  4.29519e-08  1.54326e+06
       1030.7000  4.29519e-08  1.54283e+06
       1030.8000  4.29519e-08  1.54283e+06
       1030.9000  4.29519e-08  1.54283e+06
       1031.0000  4.29519e-08  1.54240e+06
       1031.1000  4.29519e-08  1.54240e+06
       1031.2000  4.29519e-08  1.54197e+06
       1031.3000  4.23675e-08  1.52099e+06
       1031.4000  4.23675e-08  1.52057e+06
       1031.5000  4.08507e-08  1.46572e+06
       1031.6000  4.08507e-08  1.46531e+06
       1031.7000  4.08507e-08  1.46491e+06
       1031.8000  4.08507e-08  1.46450e+06
       1031.9000  4.08507e-08  1.46409e+06
       1032.0000  4.08507e-08  1.46368e+06
       1032.1000  4.08507e-08  1.46245e+06
       1032.2000  4.08507e-08  1.46082e+06
       1032.3000  4.08507e-08  1.45960e+06
       1032.4000  4.08507e-08  1.45878e+06
       1032.5000  3.93350e-08  1.40347e+06
       1032.6000  3.93350e-08  1.40229e+06
       1032.7000  3.93350e-08  1.40151e+06
       1032.8000  3.93350e-08  1.40033e+06
       1032.9000  3.93350e-08  1.39954e+06
       1033.0000  3.93350e-08  1.39875e+06
       1033.1000  3.93350e-08  1.39797e+06
       1033.2000  3.93350e-08  1.39757e+06
       1033.3000  3.93350e-08  1.39679e+06
       1033.4000  3.93350e-08  1.39639e+06
       1033.5000  3.78169e-08  1.34174e+06
       1033.6000  3.78169e-08  1.34136e+06
       1033.7000  3.78169e-08  1.34099e+06
       1033.8000  3.70970e-08  1.31509e+06
       1033.9000  3.70970e-08  1.31509e+06
       1034.0000  3.70970e-08  1.31472e+06
       1034.1000  3.70970e-08  1.31472e+06
       1034.2000  3.70970e-08  1.31435e+06
       1034.3000  3.70970e-08  1.31435e+06
       1034.4000  3.70970e-08  1.31435e+06
       1034.5000  3.56044e-08  1.26147e+06
       1034.6000  3.56044e-08  1.26182e+06
       1034.7000  3.56044e-08  1.26182e+06
       1034.8000  3.56044e-08  1.26218e+06
       1034.9000  3.56044e-08  1.26218e+06
       1035.0000  3.56044e-08  1.26253e+06
       1035.1000  3.56044e-08  1.26289e+06
       1035.2000  3.56044e-08  1.26325e+06
       1035.3000  3.56044e-08  1.26396e+06
       1035.4000  3.56044e-08  1.26431e+06
       1035.5000  3.41092e-08  1.21190e+06
       1035.6000  3.41092e-08  1.21258e+06
       1035.7000  3.41092e-08  1.21292e+06
       1035.8000  3.41092e-08  1.21361e+06
       1035.9000  3.41092e-08  1.21463e+06
       1036.0000  3.41092e-08  1.21531e+06
       1036.1000  3.41092e-08  1.21463e+06
       1036.2000  3.41092e-08  1.21395e+06
       1036.3000  3.33128e-08  1.18494e+06
       1036.4000  3.33128e-08  1.18427e+06
       1036.5000  3.18604e-08  1.13200e+06
       1036.6000  3.18604e-08  1.13136e+06
       1036.7000  3.18604e-08  1.13104e+06
       1036.8000  3.18604e-08  1.13041e+06
       1036.9000  3.18604e-08  1.12977e+06
       1037.0000  3.18604e-08  1.12945e+06
       1037.1000  3.18604e-08  1.12913e+06
       1037.2000  3.18604e-08  1.12850e+06
       1037.3000  3.18604e-08  1.12818e+06
       1037.4000  3.18604e-08  1.12786e+06
       1037.5000  3.04074e-08  1.07612e+06
       1037.6000  3.04074e-08  1.07581e+06
       1037.7000  3.04074e-08  1.07551e+06
       1037.8000  3.04074e-08  1.07520e+06
       1037.9000  3.04074e-08  1.07490e+06
       1038.0000  3.04074e-08  1.07460e+06
       1038.1000  3.04074e-08  1.07460e+06
       1038.2000  3.04074e-08  1.07460e+06
       1038.3000  3.04074e-08  1.07490e+06
       1038.4000  3.04074e-08  1.07490e+06
       1038.5000  2.89513e-08  1.02343e+06
       1038.6000  2.89513e-08  1.02343e+06
       1038.7000  2.89513e-08  1.02343e+06
       1038.8000  2.81980e-08      996801.
       1038.9000  2.81980e-08      996801.
       1039.0000  2.81980e-08      996801.
       1039.1000  2.81980e-08      996801.
       1039.2000  2.81980e-08      996801.
       1039.3000  2.81980e-08      996801.
       1039.4000  2.81980e-08      996801.
       1039.5000  2.67742e-08      946468.
       1039.6000  2.67742e-08      946468.
       1039.7000  2.67742e-08      946468.
       1039.8000  2.67742e-08      946468.
       1039.9000  2.67742e-08      946468.
       1040.0000  2.67742e-08      946468.
       1040.1000  2.67742e-08      946468.
       1040.2000  2.67742e-08      946468.
       1040.3000  2.67742e-08      946468.
       1040.4000  2.67742e-08      946468.
       1040.5000  2.53586e-08      896427.
       1040.6000  2.53586e-08      896427.
       1040.7000  2.53586e-08      896427.
       1040.8000  2.53586e-08      896427.
       1040.9000  2.53586e-08      896427.
       1041.0000  2.53586e-08      896427.
       1041.1000  2.53586e-08      896427.
       1041.2000  2.53586e-08      896427.
       1041.3000  2.46323e-08      870752.
       1041.4000  2.46323e-08      870752.
       1041.5000  2.32539e-08      822025.
       1041.6000  2.32539e-08      822025.
       1041.7000  2.32539e-08      822025.
       1041.8000  2.32539e-08      821793.
       1041.9000  2.32539e-08      821793.
       1042.0000  2.32539e-08      821793.
       1042.1000  2.32539e-08      822025.
       1042.2000  2.32539e-08      822025.
       1042.3000  2.32539e-08      822258.
       1042.4000  2.32539e-08      822258.
       1042.5000  2.18690e-08      773287.
       1042.6000  2.18690e-08      773287.
       1042.7000  2.18690e-08      773287.
       1042.8000  2.18690e-08      773068.
       1042.9000  2.18690e-08      773068.
       1043.0000  2.18690e-08      773068.
       1043.1000  2.18690e-08      772849.
       1043.2000  2.18690e-08      772631.
       1043.3000  2.18690e-08      772631.
       1043.4000  2.18690e-08      772412.
       1043.5000  2.04953e-08      723691.
       1043.6000  2.04953e-08      723486.
       1043.7000  2.04953e-08      723281.
       1043.8000  1.99091e-08      702193.
       1043.9000  1.99091e-08      701994.
       1044.0000  1.99091e-08      701595.
       1044.1000  1.99091e-08      700799.
       1044.2000  1.99091e-08      699804.
       1044.3000  1.99091e-08      699007.
       1044.4000  1.99091e-08      698211.
       1044.5000  1.85656e-08      650353.
       1044.6000  1.85656e-08      649796.
       1044.7000  1.85656e-08      649054.
       1044.8000  1.85656e-08      648497.
       1044.9000  1.85656e-08      647940.
       1045.0000  1.85656e-08      647383.
       1045.1000  1.85656e-08      647012.
       1045.2000  1.85656e-08      646454.
       1045.3000  1.85656e-08      646083.
       1045.4000  1.85656e-08      645712.
       1045.5000  1.72235e-08      598859.
       1045.6000  1.72235e-08      598515.
       1045.7000  1.72235e-08      598343.
       1045.8000  1.72235e-08      598171.
       1045.9000  1.72235e-08      597998.
       1046.0000  1.72235e-08      597826.
       1046.1000  1.72235e-08      597826.
       1046.2000  1.72235e-08      597654.
       1046.3000  1.67345e-08      580688.
       1046.4000  1.67345e-08      580688.
       1046.5000  1.54310e-08      535609.
       1046.6000  1.54310e-08      535609.
       1046.7000  1.54310e-08      535763.
       1046.8000  1.54310e-08      535918.
       1046.9000  1.54310e-08      536072.
       1047.0000  1.54310e-08      536381.
       1047.1000  1.54310e-08      536535.
       1047.2000  1.54310e-08      536844.
       1047.3000  1.54310e-08      537152.
       1047.4000  1.54310e-08      537461.
       1047.5000  1.41273e-08      492478.
       1047.6000  1.41273e-08      492761.
       1047.7000  1.41273e-08      493185.
       1047.8000  1.41273e-08      493608.
       1047.9000  1.41273e-08      494032.
       1048.0000  1.41273e-08      494597.
       1048.1000  1.41273e-08      494597.
       1048.2000  1.41273e-08      494597.
       1048.3000  1.41273e-08      494597.
       1048.4000  1.41273e-08      494456.
       1048.5000  1.28243e-08      448851.
       1048.6000  1.28243e-08      448851.
       1048.7000  1.28243e-08      448851.
       1048.8000  1.24889e-08      437112.
       1048.9000  1.24889e-08      437112.
       1049.0000  1.24889e-08      436988.
       1049.1000  1.24889e-08      436988.
       1049.2000  1.24889e-08      436988.
       1049.3000  1.24889e-08      436863.
       1049.4000  1.24889e-08      436863.
       1049.5000  1.12200e-08      392476.
       1049.6000  1.12200e-08      392364.
       1049.7000  1.12200e-08      392364.
       1049.8000  1.12200e-08      392364.
       1049.9000  1.12200e-08      392252.
       1050.0000  1.12200e-08      392252.
       1050.1000  1.12200e-08      392140.
       1050.2000  1.12200e-08      392140.
       1050.3000  1.12200e-08      392028.
       1050.4000  1.12200e-08      391915.
       1050.5000  9.94729e-09      347459.
       1050.6000  9.94729e-09      347360.
       1050.7000  9.94729e-09      347360.
       1050.8000  9.94729e-09      347260.
       1050.9000  9.94729e-09      347161.
       1051.0000  9.94729e-09      347161.
       1051.1000  9.94729e-09      347061.
       1051.2000  9.94729e-09      347061.
       1051.3000  9.72470e-09      339198.
       1051.4000  9.72470e-09      339100.
       1051.5000  8.48257e-09      295787.
       1051.6000  8.48257e-09      295702.
       1051.7000  8.48257e-09      295618.
       1051.8000  8.48257e-09      295618.
       1051.9000  8.48257e-09      295533.
       1052.0000  8.48257e-09      295533.
       1052.1000  8.48257e-09      295448.
       1052.2000  8.48257e-09      295363.
       1052.3000  8.48257e-09      295363.
       1052.4000  8.48257e-09      295278.
       1052.5000  7.24107e-09      251989.
       1052.6000  7.24107e-09      251989.
       1052.7000  7.24107e-09      251917.
       1052.8000  7.24107e-09      251844.
       1052.9000  7.24107e-09      251844.
       1053.0000  7.24107e-09      251772.
       1053.1000  7.24107e-09      251772.
       1053.2000  7.24107e-09      251700.
       1053.3000  7.24107e-09      251627.
       1053.4000  7.24107e-09      251627.
       1053.5000  5.99802e-09      208371.
       1053.6000  5.99802e-09      208311.
       1053.7000  5.99802e-09      208311.
       1053.8000  5.88599e-09      204362.
       1053.9000  5.88599e-09      204303.
       1054.0000  5.88599e-09      204303.
       1054.1000  5.88599e-09      204420.
       1054.2000  5.88599e-09      204479.
       1054.3000  5.88599e-09      204597.
       1054.4000  5.88599e-09      204715.
       1054.5000  4.66544e-09      162310.
       1054.6000  4.66544e-09      162357.
       1054.7000  4.66544e-09      162404.
       1054.8000  4.66544e-09      162450.
       1054.9000  4.66544e-09      162497.
       1055.0000  4.66544e-09      162544.
       1055.1000  4.66544e-09      162544.
       1055.2000  4.66544e-09      162544.
       1055.3000  4.66544e-09      162590.
       1055.4000  4.66544e-09      162590.
       1055.5000  3.44648e-09      120076.
       1055.6000  3.44648e-09      120076.
       1055.7000  3.44648e-09      120076.
       1055.8000  3.44648e-09      120041.
       1055.9000  3.44648e-09      120007.
       1056.0000  3.44648e-09      119972.
       1056.1000  3.44648e-09      119869.
       1056.2000  3.44648e-09      119765.
       1056.3000  3.38363e-09      117480.
       1056.4000  3.38363e-09      117344.
       1056.5000  2.18492e-09      75707.6
       1056.6000  2.18492e-09      75663.9
       1056.7000  2.18492e-09      75598.4
       1056.8000  2.18492e-09      75532.8
       1056.9000  2.18492e-09      75467.2
       1057.0000  2.18492e-09      75423.6
