PDS_VERSION_ID         = PDS3
RECORD_TYPE            = STREAM
OBJECT                 = TEXT
  PUBLICATION_DATE     = 2014-04-25
  INTERCHANGE_FORMAT   = ASCII
  NOTE                 = "System transmission vs. wavelength."
END_OBJECT             = TEXT
END
    
The systrans directory contains the non-wavelength-integrated system 
transmission values (QE*optics*filter1*filter2) for each filter combination. 
The naming convention for these files is as follows:

<camera><filter 1><filter 2>_systrans.tab

where <camera> is "issna" or "isswa," and <filter 1> and <filter 2> represent
the filter names. For polarized filter combinations, values are given for the
parallel orientation of the filter (full transmission), with values for the 
perpendicular (blocking) orientation provided in files with subscript 
"_b_systrans.tab". 

Columns in systrans files are as follows:

 1st column: Wavelength (nm)  
 2nd column: Transmitted Flux
 3rd column: Transmitted Flux * Solar Flux (phot per cm^2-s-angstrom at 1 AU)

The solar spectrum used for this calculation is provided in solarflux.tab.

\begindata
       600.00000     0.174087  9.27185e+12
       600.10000     0.174087  9.25793e+12
       600.20000     0.174087  9.24226e+12
       600.30000     0.174087  9.22311e+12
       600.40000     0.174087  9.20048e+12
       600.50000     0.175078  9.23014e+12
       600.60000     0.175078  9.24239e+12
       600.70000     0.175078  9.25290e+12
       600.80000     0.175078  9.26340e+12
       600.90000     0.175078  9.27040e+12
       601.00000     0.175078  9.27566e+12
       601.10000     0.175078  9.27741e+12
       601.20000     0.175078  9.27916e+12
       601.30000     0.174989  9.27442e+12
       601.40000     0.174989  9.27092e+12
       601.50000     0.176010  9.32151e+12
       601.60000     0.176010  9.28102e+12
       601.70000     0.176010  9.24758e+12
       601.80000     0.176010  9.21766e+12
       601.90000     0.176010  9.19478e+12
       602.00000     0.176010  9.17718e+12
       602.10000     0.176010  9.16310e+12
       602.20000     0.176010  9.15606e+12
       602.30000     0.176010  9.15430e+12
       602.40000     0.176010  9.15782e+12
       602.50000     0.177043  9.21863e+12
       602.60000     0.177043  9.23279e+12
       602.70000     0.177043  9.25227e+12
       602.80000     0.177043  9.27705e+12
       602.90000     0.177043  9.30715e+12
       603.00000     0.177043  9.34256e+12
       603.10000     0.177043  9.38328e+12
       603.20000     0.177043  9.42931e+12
       603.30000     0.177043  9.48065e+12
       603.40000     0.177043  9.53730e+12
       603.50000     0.177972  9.64963e+12
       603.60000     0.177972  9.64608e+12
       603.70000     0.177972  9.64252e+12
       603.80000     0.178063  9.64391e+12
       603.90000     0.178063  9.63856e+12
       604.00000     0.178063  9.63500e+12
       604.10000     0.178063  9.62966e+12
       604.20000     0.178063  9.62610e+12
       604.30000     0.178063  9.62076e+12
       604.40000     0.178063  9.61720e+12
       604.50000     0.179151  9.67057e+12
       604.60000     0.179151  9.66340e+12
       604.70000     0.179151  9.65624e+12
       604.80000     0.179151  9.64907e+12
       604.90000     0.179151  9.64191e+12
       605.00000     0.179151  9.63653e+12
       605.10000     0.179151  9.63116e+12
       605.20000     0.179151  9.62757e+12
       605.30000     0.179151  9.62220e+12
       605.40000     0.179151  9.61862e+12
       605.50000     0.180127  9.66742e+12
       605.60000     0.180127  9.66562e+12
       605.70000     0.180127  9.66201e+12
       605.80000     0.180127  9.66021e+12
       605.90000     0.180127  9.66021e+12
       606.00000     0.180127  9.65841e+12
       606.10000     0.180127  9.65841e+12
       606.20000     0.180127  9.65841e+12
       606.30000     0.180323  9.66892e+12
       606.40000     0.180323  9.67073e+12
       606.50000     0.181238  9.72163e+12
       606.60000     0.181238  9.72525e+12
       606.70000     0.181238  9.72706e+12
       606.80000     0.181238  9.73069e+12
       606.90000     0.181238  9.73069e+12
       607.00000     0.181238  9.73250e+12
       607.10000     0.181238  9.73250e+12
       607.20000     0.181238  9.73250e+12
       607.30000     0.181238  9.73069e+12
       607.40000     0.181238  9.72888e+12
       607.50000     0.182138  9.77536e+12
       607.60000     0.182138  9.76443e+12
       607.70000     0.182138  9.75532e+12
       607.80000     0.182138  9.74803e+12
       607.90000     0.182138  9.74075e+12
       608.00000     0.182138  9.73346e+12
       608.10000     0.182138  9.72800e+12
       608.20000     0.182138  9.72254e+12
       608.30000     0.182138  9.71889e+12
       608.40000     0.182138  9.71525e+12
       608.50000     0.183076  9.76343e+12
       608.60000     0.183076  9.76159e+12
       608.70000     0.183076  9.75976e+12
       608.80000     0.183156  9.76406e+12
       608.90000     0.183156  9.76589e+12
       609.00000     0.183156  9.76772e+12
       609.10000     0.183156  9.76955e+12
       609.20000     0.183156  9.77321e+12
       609.30000     0.183156  9.77688e+12
       609.40000     0.183156  9.78237e+12
       609.50000     0.184141  9.84231e+12
       609.60000     0.184141  9.79812e+12
       609.70000     0.184141  9.75945e+12
       609.80000     0.184141  9.72631e+12
       609.90000     0.184141  9.69869e+12
       610.00000     0.184141  9.67475e+12
       610.10000     0.184141  9.65449e+12
       610.20000     0.184141  9.63976e+12
       610.30000     0.184141  9.63055e+12
       610.40000     0.184141  9.62687e+12
       610.50000     0.184912  9.66535e+12
       610.60000     0.184912  9.71342e+12
       610.70000     0.184912  9.75595e+12
       610.80000     0.184912  9.79478e+12
       610.90000     0.184912  9.82807e+12
       611.00000     0.184912  9.85580e+12
       611.10000     0.184912  9.87984e+12
       611.20000     0.184912  9.89834e+12
       611.30000     0.184984  9.91699e+12
       611.40000     0.184984  9.92624e+12
       611.50000     0.185924  9.98038e+12
       611.60000     0.185924  9.98038e+12
       611.70000     0.185924  9.97480e+12
       611.80000     0.185924  9.96551e+12
       611.90000     0.185924  9.95063e+12
       612.00000     0.185924  9.93204e+12
       612.10000     0.185924  9.90787e+12
       612.20000     0.185924  9.87812e+12
       612.30000     0.185924  9.84466e+12
       612.40000     0.185924  9.80561e+12
       612.50000     0.186769  9.80723e+12
       612.60000     0.186769  9.78295e+12
       612.70000     0.186769  9.76054e+12
       612.80000     0.186769  9.74187e+12
       612.90000     0.186769  9.72692e+12
       613.00000     0.186769  9.71385e+12
       613.10000     0.186769  9.70451e+12
       613.20000     0.186769  9.69704e+12
       613.30000     0.186769  9.69330e+12
       613.40000     0.186769  9.69330e+12
       613.50000     0.187740  9.74556e+12
       613.60000     0.187740  9.77373e+12
       613.70000     0.187740  9.79813e+12
       613.80000     0.187700  9.81860e+12
       613.90000     0.187700  9.84112e+12
       614.00000     0.187700  9.86177e+12
       614.10000     0.187700  9.87866e+12
       614.20000     0.187700  9.89555e+12
       614.30000     0.187700  9.91057e+12
       614.40000     0.187700  9.92371e+12
       614.50000     0.188531  9.97897e+12
       614.60000     0.188531  9.98839e+12
       614.70000     0.188531  9.99594e+12
       614.80000     0.188531  1.00016e+13
       614.90000     0.188531  1.00054e+13
       615.00000     0.188531  1.00072e+13
       615.10000     0.188531  1.00091e+13
       615.20000     0.188531  1.00072e+13
       615.30000     0.188531  1.00054e+13
       615.40000     0.188531  1.00016e+13
       615.50000     0.189415  1.00409e+13
       615.60000     0.189415  9.92913e+12
       615.70000     0.189415  9.82685e+12
       615.80000     0.189415  9.73782e+12
       615.90000     0.189415  9.66206e+12
       616.00000     0.189415  9.59576e+12
       616.10000     0.189415  9.54272e+12
       616.20000     0.189415  9.50105e+12
       616.30000     0.189711  9.48553e+12
       616.40000     0.189711  9.46846e+12
       616.50000     0.190447  9.49761e+12
       616.60000     0.190447  9.57950e+12
       616.70000     0.190447  9.65568e+12
       616.80000     0.190447  9.72615e+12
       616.90000     0.190447  9.79280e+12
       617.00000     0.190447  9.85565e+12
       617.10000     0.190447  9.91278e+12
       617.20000     0.190447  9.96420e+12
       617.30000     0.190447  1.00118e+13
       617.40000     0.190447  1.00556e+13
       617.50000     0.191225  1.01349e+13
       617.60000     0.191225  1.01674e+13
       617.70000     0.191225  1.01961e+13
       617.80000     0.191225  1.02210e+13
       617.90000     0.191225  1.02382e+13
       618.00000     0.191225  1.02535e+13
       618.10000     0.191225  1.02631e+13
       618.20000     0.191225  1.02669e+13
       618.30000     0.191225  1.02669e+13
       618.40000     0.191225  1.02611e+13
       618.50000     0.192073  1.02970e+13
       618.60000     0.192073  1.02778e+13
       618.70000     0.192073  1.02586e+13
       618.80000     0.192268  1.02556e+13
       618.90000     0.192268  1.02421e+13
       619.00000     0.192268  1.02325e+13
       619.10000     0.192268  1.02248e+13
       619.20000     0.192268  1.02210e+13
       619.30000     0.192268  1.02190e+13
       619.40000     0.192268  1.02190e+13
       619.50000     0.193144  1.02695e+13
       619.60000     0.193144  1.03062e+13
       619.70000     0.193144  1.03390e+13
       619.80000     0.193144  1.03680e+13
       619.90000     0.193144  1.03931e+13
       620.00000     0.193144  1.04124e+13
       620.10000     0.193144  1.04279e+13
       620.20000     0.193144  1.04395e+13
       620.30000     0.193144  1.04472e+13
       620.40000     0.193144  1.04491e+13
       620.50000     0.193930  1.04916e+13
       620.60000     0.193930  1.04490e+13
       620.70000     0.193930  1.04082e+13
       620.80000     0.193930  1.03733e+13
       620.90000     0.193930  1.03423e+13
       621.00000     0.193930  1.03151e+13
       621.10000     0.193930  1.02919e+13
       621.20000     0.193930  1.02744e+13
       621.30000     0.193998  1.02625e+13
       621.40000     0.193998  1.02508e+13
       621.50000     0.194730  1.02837e+13
       621.60000     0.194730  1.03187e+13
       621.70000     0.194730  1.03499e+13
       621.80000     0.194730  1.03752e+13
       621.90000     0.194730  1.03986e+13
       622.00000     0.194730  1.04161e+13
       622.10000     0.194730  1.04297e+13
       622.20000     0.194730  1.04375e+13
       622.30000     0.194730  1.04433e+13
       622.40000     0.194730  1.04433e+13
       622.50000     0.195531  1.04824e+13
       622.60000     0.195531  1.04746e+13
       622.70000     0.195531  1.04629e+13
       622.80000     0.195531  1.04472e+13
       622.90000     0.195531  1.04257e+13
       623.00000     0.195531  1.04023e+13
       623.10000     0.195531  1.03729e+13
       623.20000     0.195531  1.03377e+13
       623.30000     0.195531  1.03006e+13
       623.40000     0.195531  1.02576e+13
       623.50000     0.196297  1.02526e+13
       623.60000     0.196297  1.02506e+13
       623.70000     0.196297  1.02506e+13
       623.80000     0.196203  1.02418e+13
       623.90000     0.196203  1.02399e+13
       624.00000     0.196203  1.02359e+13
       624.10000     0.196203  1.02300e+13
       624.20000     0.196203  1.02242e+13
       624.30000     0.196203  1.02183e+13
       624.40000     0.196203  1.02104e+13
       624.50000     0.196815  1.02344e+13
       624.60000     0.196815  1.01950e+13
       624.70000     0.196815  1.01635e+13
       624.80000     0.196815  1.01360e+13
       624.90000     0.196815  1.01143e+13
       625.00000     0.196815  1.00986e+13
       625.10000     0.196815  1.00887e+13
       625.20000     0.196815  1.00828e+13
       625.30000     0.196815  1.00848e+13
       625.40000     0.196815  1.00907e+13
       625.50000     0.197523  1.01389e+13
       625.60000     0.197523  1.01547e+13
       625.70000     0.197523  1.01784e+13
       625.80000     0.197523  1.02060e+13
       625.90000     0.197523  1.02396e+13
       626.00000     0.197523  1.02791e+13
       626.10000     0.197523  1.03245e+13
       626.20000     0.197523  1.03739e+13
       626.30000     0.197296  1.04192e+13
       626.40000     0.197296  1.04803e+13
       626.50000     0.198222  1.05950e+13
       626.60000     0.198222  1.05970e+13
       626.70000     0.198222  1.05989e+13
       626.80000     0.198222  1.06009e+13
       626.90000     0.198222  1.06029e+13
       627.00000     0.198222  1.06049e+13
       627.10000     0.198222  1.06069e+13
       627.20000     0.198222  1.06069e+13
       627.30000     0.198222  1.06088e+13
       627.40000     0.198222  1.06108e+13
       627.50000     0.198791  1.06432e+13
       627.60000     0.198791  1.06512e+13
       627.70000     0.198791  1.06572e+13
       627.80000     0.198791  1.06611e+13
       627.90000     0.198791  1.06651e+13
       628.00000     0.198791  1.06671e+13
       628.10000     0.198791  1.06691e+13
       628.20000     0.198791  1.06691e+13
       628.30000     0.198791  1.06671e+13
       628.40000     0.198791  1.06651e+13
       628.50000     0.199480  1.06981e+13
       628.60000     0.199480  1.06921e+13
       628.70000     0.199480  1.06861e+13
       628.80000     0.199033  1.06542e+13
       628.90000     0.199033  1.06443e+13
       629.00000     0.199033  1.06343e+13
       629.10000     0.199033  1.06224e+13
       629.20000     0.199033  1.06104e+13
       629.30000     0.199033  1.05965e+13
       629.40000     0.199033  1.05806e+13
       629.50000     0.199761  1.06033e+13
       629.60000     0.199761  1.05813e+13
       629.70000     0.199761  1.05594e+13
       629.80000     0.199761  1.05394e+13
       629.90000     0.199761  1.05214e+13
       630.00000     0.199761  1.05034e+13
       630.10000     0.199761  1.04855e+13
       630.20000     0.199761  1.04715e+13
       630.30000     0.199761  1.04555e+13
       630.40000     0.199761  1.04435e+13
       630.50000     0.200430  1.04665e+13
       630.60000     0.200430  1.04544e+13
       630.70000     0.200430  1.04444e+13
       630.80000     0.200430  1.04364e+13
       630.90000     0.200430  1.04284e+13
       631.00000     0.200430  1.04224e+13
       631.10000     0.200430  1.04284e+13
       631.20000     0.200430  1.04344e+13
       631.30000     0.199886  1.04140e+13
       631.40000     0.199886  1.04200e+13
       631.50000     0.200576  1.04620e+13
       631.60000     0.200576  1.04681e+13
       631.70000     0.200576  1.04741e+13
       631.80000     0.200576  1.04781e+13
       631.90000     0.200576  1.04841e+13
       632.00000     0.200576  1.04901e+13
       632.10000     0.200576  1.04961e+13
       632.20000     0.200576  1.05002e+13
       632.30000     0.200576  1.05062e+13
       632.40000     0.200576  1.05122e+13
       632.50000     0.201278  1.05530e+13
       632.60000     0.201278  1.05570e+13
       632.70000     0.201278  1.05630e+13
       632.80000     0.201278  1.05671e+13
       632.90000     0.201278  1.05711e+13
       633.00000     0.201278  1.05771e+13
       633.10000     0.201278  1.05812e+13
       633.20000     0.201278  1.05852e+13
       633.30000     0.201278  1.05892e+13
       633.40000     0.201278  1.05932e+13
       633.50000     0.201885  1.06292e+13
       633.60000     0.201885  1.06333e+13
       633.70000     0.201885  1.06373e+13
       633.80000     0.201345  1.06109e+13
       633.90000     0.201345  1.06149e+13
       634.00000     0.201345  1.06189e+13
       634.10000     0.201345  1.06209e+13
       634.20000     0.201345  1.06250e+13
       634.30000     0.201345  1.06270e+13
       634.40000     0.201345  1.06310e+13
       634.50000     0.201963  1.06657e+13
       634.60000     0.201963  1.06677e+13
       634.70000     0.201963  1.06717e+13
       634.80000     0.201963  1.06738e+13
       634.90000     0.201963  1.06758e+13
       635.00000     0.201963  1.06778e+13
       635.10000     0.201963  1.06798e+13
       635.20000     0.201963  1.06798e+13
       635.30000     0.201963  1.06818e+13
       635.40000     0.201963  1.06818e+13
       635.50000     0.202511  1.07128e+13
       635.60000     0.202511  1.07148e+13
       635.70000     0.202511  1.07148e+13
       635.80000     0.202511  1.07169e+13
       635.90000     0.202511  1.07169e+13
       636.00000     0.202511  1.07189e+13
       636.10000     0.202511  1.07189e+13
       636.20000     0.202511  1.07209e+13
       636.30000     0.201780  1.06823e+13
       636.40000     0.201780  1.06843e+13
       636.50000     0.202481  1.07214e+13
       636.60000     0.202481  1.07234e+13
       636.70000     0.202481  1.07234e+13
       636.80000     0.202481  1.07254e+13
       636.90000     0.202481  1.07254e+13
       637.00000     0.202481  1.07254e+13
       637.10000     0.202481  1.07274e+13
       637.20000     0.202481  1.07274e+13
       637.30000     0.202481  1.07295e+13
       637.40000     0.202481  1.07295e+13
       637.50000     0.203049  1.07596e+13
       637.60000     0.203049  1.07616e+13
       637.70000     0.203049  1.07616e+13
       637.80000     0.203049  1.07636e+13
       637.90000     0.203049  1.07636e+13
       638.00000     0.203049  1.07636e+13
       638.10000     0.203049  1.07657e+13
       638.20000     0.203049  1.07657e+13
       638.30000     0.203049  1.07657e+13
       638.40000     0.203049  1.07677e+13
       638.50000     0.203691  1.08017e+13
       638.60000     0.203691  1.08017e+13
       638.70000     0.203691  1.08038e+13
       638.80000     0.203117  1.07733e+13
       638.90000     0.203117  1.07733e+13
       639.00000     0.203117  1.07733e+13
       639.10000     0.203117  1.07571e+13
       639.20000     0.203117  1.07408e+13
       639.30000     0.203117  1.07246e+13
       639.40000     0.203117  1.07104e+13
       639.50000     0.203725  1.07261e+13
       639.60000     0.203725  1.07139e+13
       639.70000     0.203725  1.06996e+13
       639.80000     0.203725  1.06874e+13
       639.90000     0.203725  1.06772e+13
       640.00000     0.203725  1.06650e+13
       640.10000     0.203725  1.06548e+13
       640.20000     0.203725  1.06467e+13
       640.30000     0.203725  1.06385e+13
       640.40000     0.203725  1.06304e+13
       640.50000     0.204324  1.06535e+13
       640.60000     0.204324  1.06473e+13
       640.70000     0.204324  1.06412e+13
       640.80000     0.204324  1.06371e+13
       640.90000     0.204324  1.06310e+13
       641.00000     0.204324  1.06289e+13
       641.10000     0.204324  1.06330e+13
       641.20000     0.204324  1.06371e+13
       641.30000     0.203682  1.06077e+13
       641.40000     0.203682  1.06118e+13
       641.50000     0.204439  1.06554e+13
       641.60000     0.204439  1.06595e+13
       641.70000     0.204439  1.06635e+13
       641.80000     0.204439  1.06676e+13
       641.90000     0.204439  1.06717e+13
       642.00000     0.204439  1.06758e+13
       642.10000     0.204439  1.06779e+13
       642.20000     0.204439  1.06819e+13
       642.30000     0.204439  1.06860e+13
       642.40000     0.204439  1.06901e+13
       642.50000     0.204989  1.07230e+13
       642.60000     0.204989  1.07271e+13
       642.70000     0.204989  1.07312e+13
       642.80000     0.204989  1.07353e+13
       642.90000     0.204989  1.07394e+13
       643.00000     0.204989  1.07435e+13
       643.10000     0.204989  1.07455e+13
       643.20000     0.204989  1.07496e+13
       643.30000     0.204989  1.07537e+13
       643.40000     0.204989  1.07578e+13
       643.50000     0.205541  1.07909e+13
       643.60000     0.205541  1.07950e+13
       643.70000     0.205541  1.07971e+13
       643.80000     0.204772  1.07608e+13
       643.90000     0.204772  1.07649e+13
       644.00000     0.204772  1.07690e+13
       644.10000     0.204772  1.07731e+13
       644.20000     0.204772  1.07751e+13
       644.30000     0.204772  1.07792e+13
       644.40000     0.204772  1.07833e+13
       644.50000     0.205387  1.08198e+13
       644.60000     0.205387  1.08218e+13
       644.70000     0.205387  1.08259e+13
       644.80000     0.205387  1.08301e+13
       644.90000     0.205387  1.08342e+13
       645.00000     0.205387  1.08362e+13
       645.10000     0.205387  1.08342e+13
       645.20000     0.205387  1.08301e+13
       645.30000     0.205387  1.08280e+13
       645.40000     0.205387  1.08239e+13
       645.50000     0.206159  1.08584e+13
       645.60000     0.206159  1.08542e+13
       645.70000     0.206159  1.08501e+13
       645.80000     0.206159  1.08439e+13
       645.90000     0.206159  1.08378e+13
       646.00000     0.206159  1.08316e+13
       646.10000     0.206159  1.08254e+13
       646.20000     0.206159  1.08192e+13
       646.30000     0.205304  1.07661e+13
       646.40000     0.205304  1.07579e+13
       646.50000     0.205869  1.07814e+13
       646.60000     0.205869  1.07711e+13
       646.70000     0.205869  1.07628e+13
       646.80000     0.205869  1.07546e+13
       646.90000     0.205869  1.07443e+13
       647.00000     0.205869  1.07361e+13
       647.10000     0.205869  1.07072e+13
       647.20000     0.205869  1.06805e+13
       647.30000     0.205869  1.06558e+13
       647.40000     0.205869  1.06311e+13
       647.50000     0.206538  1.06429e+13
       647.60000     0.206538  1.06243e+13
       647.70000     0.206538  1.06036e+13
       647.80000     0.206538  1.05871e+13
       647.90000     0.206538  1.05706e+13
       648.00000     0.206538  1.05561e+13
       648.10000     0.206538  1.05437e+13
       648.20000     0.206538  1.05334e+13
       648.30000     0.206538  1.05231e+13
       648.40000     0.206538  1.05148e+13
       648.50000     0.207235  1.05441e+13
       648.60000     0.207235  1.05400e+13
       648.70000     0.207235  1.05358e+13
       648.80000     0.206384  1.04905e+13
       648.90000     0.206384  1.04905e+13
       649.00000     0.206384  1.04925e+13
       649.10000     0.206384  1.04946e+13
       649.20000     0.206384  1.05008e+13
       649.30000     0.206384  1.05049e+13
       649.40000     0.206384  1.05132e+13
       649.50000     0.206852  1.05474e+13
       649.60000     0.206852  1.05577e+13
       649.70000     0.206852  1.05702e+13
       649.80000     0.206852  1.05846e+13
       649.90000     0.206852  1.05991e+13
       650.00000     0.206852  1.06157e+13
       650.10000     0.206852  1.06343e+13
       650.20000     0.206852  1.06550e+13
       650.30000     0.206852  1.06777e+13
       650.40000     0.206852  1.07005e+13
       650.50000     0.199567  1.03475e+13
       650.60000     0.199567  1.03735e+13
       650.70000     0.199567  1.03994e+13
       650.80000     0.199567  1.04294e+13
       650.90000     0.199567  1.04593e+13
       651.00000     0.199567  1.04912e+13
       651.10000     0.199567  1.04992e+13
       651.20000     0.199567  1.05072e+13
       651.30000     0.198684  1.04667e+13
       651.40000     0.198684  1.04726e+13
       651.50000     0.199074  1.04992e+13
       651.60000     0.199074  1.05011e+13
       651.70000     0.199074  1.05051e+13
       651.80000     0.199074  1.05071e+13
       651.90000     0.199074  1.05071e+13
       652.00000     0.199074  1.05071e+13
       652.10000     0.199074  1.05051e+13
       652.20000     0.199074  1.05031e+13
       652.30000     0.199074  1.05011e+13
       652.40000     0.199074  1.04972e+13
       652.50000     0.199455  1.05113e+13
       652.60000     0.199455  1.05053e+13
       652.70000     0.199455  1.04993e+13
       652.80000     0.199455  1.04894e+13
       652.90000     0.199455  1.04814e+13
       653.00000     0.199455  1.04714e+13
       653.10000     0.199455  1.04634e+13
       653.20000     0.199455  1.04555e+13
       653.30000     0.199455  1.04435e+13
       653.40000     0.199455  1.04315e+13
       653.50000     0.199852  1.04403e+13
       653.60000     0.199852  1.04263e+13
       653.70000     0.199852  1.04103e+13
       653.80000     0.199386  1.03681e+13
       653.90000     0.199386  1.03501e+13
       654.00000     0.199386  1.03302e+13
       654.10000     0.199386  1.03103e+13
       654.20000     0.199386  1.02863e+13
       654.30000     0.199386  1.02624e+13
       654.40000     0.199386  1.02385e+13
       654.50000     0.199585  1.02228e+13
       654.60000     0.199585  1.01948e+13
       654.70000     0.199585  1.01649e+13
       654.80000     0.199585  1.01350e+13
       654.90000     0.199585  1.01030e+13
       655.00000     0.199585  1.00691e+13
       655.10000     0.199585  9.97329e+12
       655.20000     0.199585  9.88148e+12
       655.30000     0.199585  9.79566e+12
       655.40000     0.199585  9.71582e+12
       655.50000     0.200088  9.66427e+12
       655.60000     0.200088  9.59424e+12
       655.70000     0.200088  9.52821e+12
       655.80000     0.200088  9.46818e+12
       655.90000     0.200088  9.41216e+12
       656.00000     0.200088  9.36214e+12
       656.10000     0.200088  9.31812e+12
       656.20000     0.200088  9.27810e+12
       656.30000     0.199833  9.23229e+12
       656.40000     0.199833  9.20232e+12
       656.50000     0.200171  9.19383e+12
       656.60000     0.200171  9.17582e+12
       656.70000     0.200171  9.16180e+12
       656.80000     0.200171  9.15380e+12
       656.90000     0.200171  9.14979e+12
       657.00000     0.200171  9.15180e+12
       657.10000     0.200171  9.22986e+12
       657.20000     0.200171  9.30593e+12
       657.30000     0.200171  9.37999e+12
       657.40000     0.200171  9.45205e+12
       657.50000     0.200504  9.53596e+12
       657.60000     0.200504  9.60413e+12
       657.70000     0.200504  9.66829e+12
       657.80000     0.200504  9.73045e+12
       657.90000     0.200504  9.78859e+12
       658.00000     0.200504  9.84674e+12
       658.10000     0.200504  9.90288e+12
       658.20000     0.200504  9.95501e+12
       658.30000     0.200504  1.00051e+13
       658.40000     0.200504  1.00533e+13
       658.50000     0.200823  1.01135e+13
       658.60000     0.200823  1.01576e+13
       658.70000     0.200823  1.01978e+13
       658.80000     0.200152  1.02037e+13
       658.90000     0.200152  1.02398e+13
       659.00000     0.200152  1.02718e+13
       659.10000     0.200152  1.03038e+13
       659.20000     0.200152  1.03338e+13
       659.30000     0.200152  1.03599e+13
       659.40000     0.200152  1.03839e+13
       659.50000     0.200497  1.04239e+13
       659.60000     0.200497  1.04439e+13
       659.70000     0.200497  1.04599e+13
       659.80000     0.200497  1.04760e+13
       659.90000     0.200497  1.04880e+13
       660.00000     0.200497  1.04980e+13
       660.10000     0.200497  1.05061e+13
       660.20000     0.200497  1.05101e+13
       660.30000     0.200497  1.05141e+13
       660.40000     0.200497  1.05141e+13
       660.50000     0.200862  1.05312e+13
       660.60000     0.200862  1.05272e+13
       660.70000     0.200862  1.05212e+13
       660.80000     0.200862  1.05111e+13
       660.90000     0.200862  1.05011e+13
       661.00000     0.200862  1.04870e+13
       661.10000     0.200862  1.04810e+13
       661.20000     0.200862  1.04730e+13
       661.30000     0.199392  1.03903e+13
       661.40000     0.199392  1.03843e+13
       661.50000     0.199743  1.03966e+13
       661.60000     0.199743  1.03926e+13
       661.70000     0.199743  1.03866e+13
       661.80000     0.199743  1.03826e+13
       661.90000     0.199743  1.03786e+13
       662.00000     0.199743  1.03747e+13
       662.10000     0.199743  1.03707e+13
       662.20000     0.199743  1.03667e+13
       662.30000     0.199743  1.03647e+13
       662.40000     0.199743  1.03627e+13
       662.50000     0.199942  1.03690e+13
       662.60000     0.199942  1.03690e+13
       662.70000     0.199942  1.03670e+13
       662.80000     0.199942  1.03650e+13
       662.90000     0.199942  1.03650e+13
       663.00000     0.199942  1.03650e+13
       663.10000     0.199942  1.03730e+13
       663.20000     0.199942  1.03790e+13
       663.30000     0.199942  1.03870e+13
       663.40000     0.199942  1.03930e+13
       663.50000     0.200230  1.04140e+13
       663.60000     0.200230  1.04200e+13
       663.70000     0.200230  1.04240e+13
       663.80000     0.198584  1.03442e+13
       663.90000     0.198584  1.03482e+13
       664.00000     0.198584  1.03502e+13
       664.10000     0.198584  1.03542e+13
       664.20000     0.198584  1.03561e+13
       664.30000     0.198584  1.03581e+13
       664.40000     0.198584  1.03601e+13
       664.50000     0.198903  1.03768e+13
       664.60000     0.198903  1.03768e+13
       664.70000     0.198903  1.03768e+13
       664.80000     0.198903  1.03768e+13
       664.90000     0.198903  1.03768e+13
       665.00000     0.198903  1.03748e+13
       665.10000     0.198903  1.03728e+13
       665.20000     0.198903  1.03708e+13
       665.30000     0.198903  1.03668e+13
       665.40000     0.198903  1.03628e+13
       665.50000     0.199163  1.03724e+13
       665.60000     0.199163  1.03684e+13
       665.70000     0.199163  1.03625e+13
       665.80000     0.199163  1.03585e+13
       665.90000     0.199163  1.03525e+13
       666.00000     0.199163  1.03445e+13
       666.10000     0.199163  1.03386e+13
       666.20000     0.199163  1.03306e+13
       666.30000     0.197876  1.02559e+13
       666.40000     0.197876  1.02480e+13
       666.50000     0.198235  1.02567e+13
       666.60000     0.198235  1.02468e+13
       666.70000     0.198235  1.02369e+13
       666.80000     0.198235  1.02269e+13
       666.90000     0.198235  1.02170e+13
       667.00000     0.198235  1.02051e+13
       667.10000     0.198235  1.02170e+13
       667.20000     0.198235  1.02269e+13
       667.30000     0.198235  1.02369e+13
       667.40000     0.198235  1.02468e+13
       667.50000     0.198538  1.02723e+13
       667.60000     0.198538  1.02803e+13
       667.70000     0.198538  1.02882e+13
       667.80000     0.198538  1.02942e+13
       667.90000     0.198538  1.03001e+13
       668.00000     0.198538  1.03061e+13
       668.10000     0.198538  1.03120e+13
       668.20000     0.198538  1.03160e+13
       668.30000     0.198538  1.03200e+13
       668.40000     0.198538  1.03220e+13
       668.50000     0.198839  1.03396e+13
       668.60000     0.198839  1.03416e+13
       668.70000     0.198839  1.03416e+13
       668.80000     0.197698  1.02823e+13
       668.90000     0.197698  1.02823e+13
       669.00000     0.197698  1.02803e+13
       669.10000     0.197698  1.02665e+13
       669.20000     0.197698  1.02526e+13
       669.30000     0.197698  1.02408e+13
       669.40000     0.197698  1.02289e+13
       669.50000     0.197775  1.02210e+13
       669.60000     0.197775  1.02091e+13
       669.70000     0.197775  1.01992e+13
       669.80000     0.197775  1.01894e+13
       669.90000     0.197775  1.01795e+13
       670.00000     0.197775  1.01716e+13
       670.10000     0.197775  1.01636e+13
       670.20000     0.197775  1.01557e+13
       670.30000     0.197775  1.01478e+13
       670.40000     0.197775  1.01419e+13
       670.50000     0.198117  1.01535e+13
       670.60000     0.198117  1.01476e+13
       670.70000     0.198117  1.01436e+13
       670.80000     0.198117  1.01397e+13
       670.90000     0.198117  1.01357e+13
       671.00000     0.198117  1.01337e+13
       671.10000     0.198117  1.01297e+13
       671.20000     0.198117  1.01297e+13
       671.30000     0.196995  1.00704e+13
       671.40000     0.196995  1.00704e+13
       671.50000     0.197340  1.00880e+13
       671.60000     0.197340  1.00880e+13
       671.70000     0.197340  1.00880e+13
       671.80000     0.197340  1.00900e+13
       671.90000     0.197340  1.00920e+13
       672.00000     0.197340  1.00959e+13
       672.10000     0.197340  1.00998e+13
       672.20000     0.197340  1.01038e+13
       672.30000     0.197340  1.01077e+13
       672.40000     0.197340  1.01137e+13
       672.50000     0.197416  1.01235e+13
       672.60000     0.197416  1.01294e+13
       672.70000     0.197416  1.01353e+13
       672.80000     0.197416  1.01432e+13
       672.90000     0.197416  1.01511e+13
       673.00000     0.197416  1.01610e+13
       673.10000     0.197416  1.01571e+13
       673.20000     0.197416  1.01531e+13
       673.30000     0.197416  1.01492e+13
       673.40000     0.197416  1.01472e+13
       673.50000     0.197783  1.01621e+13
       673.60000     0.197783  1.01601e+13
       673.70000     0.197783  1.01581e+13
       673.80000     0.196552  1.00910e+13
       673.90000     0.196552  1.00890e+13
       674.00000     0.196552  1.00871e+13
       674.10000     0.196552  1.00851e+13
       674.20000     0.196552  1.00831e+13
       674.30000     0.196552  1.00812e+13
       674.40000     0.196552  1.00792e+13
       674.50000     0.196701  1.00849e+13
       674.60000     0.196701  1.00849e+13
       674.70000     0.196701  1.00829e+13
       674.80000     0.196701  1.00829e+13
       674.90000     0.196701  1.00809e+13
       675.00000     0.196701  1.00809e+13
       675.10000     0.196701  1.00829e+13
       675.20000     0.196701  1.00849e+13
       675.30000     0.196701  1.00868e+13
       675.40000     0.196701  1.00888e+13
       675.50000     0.196989  1.01036e+13
       675.60000     0.196989  1.01056e+13
       675.70000     0.196989  1.01075e+13
       675.80000     0.196989  1.01075e+13
       675.90000     0.196989  1.01095e+13
       676.00000     0.196989  1.01095e+13
       676.10000     0.196989  1.01115e+13
       676.20000     0.196989  1.01115e+13
       676.30000     0.195500  1.00350e+13
       676.40000     0.195500  1.00350e+13
       676.50000     0.195705  1.00475e+13
       676.60000     0.195705  1.00475e+13
       676.70000     0.195705  1.00475e+13
       676.80000     0.195705  1.00456e+13
       676.90000     0.195705  1.00456e+13
       677.00000     0.195705  1.00456e+13
       677.10000     0.195705  1.00456e+13
       677.20000     0.195705  1.00436e+13
       677.30000     0.195705  1.00436e+13
       677.40000     0.195705  1.00416e+13
       677.50000     0.195907  1.00520e+13
       677.60000     0.195907  1.00500e+13
       677.70000     0.195907  1.00500e+13
       677.80000     0.195907  1.00481e+13
       677.90000     0.195907  1.00461e+13
       678.00000     0.195907  1.00441e+13
       678.10000     0.195907  1.00422e+13
       678.20000     0.195907  1.00402e+13
       678.30000     0.195907  1.00383e+13
       678.40000     0.195907  1.00363e+13
       678.50000     0.196181  1.00464e+13
       678.60000     0.196181  1.00445e+13
       678.70000     0.196181  1.00425e+13
       678.80000     0.194702  9.96292e+12
       678.90000     0.194702  9.96097e+12
       679.00000     0.194702  9.95708e+12
       679.10000     0.194702  9.95708e+12
       679.20000     0.194702  9.95903e+12
       679.30000     0.194702  9.95903e+12
       679.40000     0.194702  9.95903e+12
       679.50000     0.194914  9.96983e+12
       679.60000     0.194914  9.96983e+12
       679.70000     0.194914  9.96983e+12
       679.80000     0.194914  9.96983e+12
       679.90000     0.194914  9.96983e+12
       680.00000     0.194914  9.96789e+12
       680.10000     0.194914  9.96789e+12
       680.20000     0.194914  9.96789e+12
       680.30000     0.194914  9.96594e+12
       680.40000     0.194914  9.96594e+12
       680.50000     0.195129  9.97498e+12
       680.60000     0.195129  9.97498e+12
       680.70000     0.195129  9.97303e+12
       680.80000     0.195129  9.97107e+12
       680.90000     0.195129  9.96912e+12
       681.00000     0.195129  9.96912e+12
       681.10000     0.195129  9.96717e+12
       681.20000     0.195129  9.96522e+12
       681.30000     0.193481  9.88108e+12
       681.40000     0.193481  9.87915e+12
       681.50000     0.193674  9.88704e+12
       681.60000     0.193674  9.88510e+12
       681.70000     0.193674  9.88316e+12
       681.80000     0.193674  9.87929e+12
       681.90000     0.193674  9.87735e+12
       682.00000     0.193674  9.87542e+12
       682.10000     0.193674  9.87154e+12
       682.20000     0.193674  9.86767e+12
       682.30000     0.193674  9.86573e+12
       682.40000     0.193674  9.86186e+12
       682.50000     0.193803  9.86459e+12
       682.60000     0.193803  9.86071e+12
       682.70000     0.193803  9.85684e+12
       682.80000     0.193803  9.85296e+12
       682.90000     0.193803  9.84715e+12
       683.00000     0.193803  9.84327e+12
       683.10000     0.193803  9.83940e+12
       683.20000     0.193803  9.83358e+12
       683.30000     0.193803  9.82777e+12
       683.40000     0.193803  9.82195e+12
       683.50000     0.193887  9.82229e+12
       683.60000     0.193887  9.81647e+12
       683.70000     0.193887  9.81066e+12
       683.80000     0.192046  9.70982e+12
       683.90000     0.192046  9.70406e+12
       684.00000     0.192046  9.69830e+12
       684.10000     0.192046  9.69062e+12
       684.20000     0.192046  9.68486e+12
       684.30000     0.192046  9.67718e+12
       684.40000     0.192046  9.67141e+12
       684.50000     0.192219  9.67244e+12
       684.60000     0.192219  9.66476e+12
       684.70000     0.192219  9.65707e+12
       684.80000     0.192219  9.64938e+12
       684.90000     0.192219  9.63977e+12
       685.00000     0.192219  9.63208e+12
       685.10000     0.192219  9.63977e+12
       685.20000     0.192219  9.64938e+12
       685.30000     0.192219  9.65707e+12
       685.40000     0.192219  9.66283e+12
       685.50000     0.192454  9.68237e+12
       685.60000     0.192454  9.69007e+12
       685.70000     0.192454  9.69584e+12
       685.80000     0.192454  9.70162e+12
       685.90000     0.192454  9.70739e+12
       686.00000     0.192454  9.71317e+12
       686.10000     0.192454  9.71894e+12
       686.20000     0.192454  9.72279e+12
       686.30000     0.190637  9.63668e+12
       686.40000     0.190637  9.64049e+12
       686.50000     0.190789  9.65202e+12
       686.60000     0.190789  9.65584e+12
       686.70000     0.190789  9.65965e+12
       686.80000     0.190789  9.66156e+12
       686.90000     0.190789  9.66537e+12
       687.00000     0.190789  9.66728e+12
       687.10000     0.190789  9.66919e+12
       687.20000     0.190789  9.66919e+12
       687.30000     0.190789  9.66919e+12
       687.40000     0.190789  9.66919e+12
       687.50000     0.190872  9.67339e+12
       687.60000     0.190872  9.67339e+12
       687.70000     0.190872  9.67339e+12
       687.80000     0.190872  9.67339e+12
       687.90000     0.190872  9.67339e+12
       688.00000     0.190872  9.67148e+12
       688.10000     0.190872  9.67148e+12
       688.20000     0.190872  9.67148e+12
       688.30000     0.190872  9.66957e+12
       688.40000     0.190872  9.66957e+12
       688.50000     0.191022  9.67528e+12
       688.60000     0.191022  9.67337e+12
       688.70000     0.191022  9.67337e+12
       688.80000     0.189454  9.59206e+12
       688.90000     0.189454  9.59016e+12
       689.00000     0.189454  9.58827e+12
       689.10000     0.189454  9.58637e+12
       689.20000     0.189454  9.58448e+12
       689.30000     0.189454  9.58258e+12
       689.40000     0.189454  9.58069e+12
       689.50000     0.189532  9.58275e+12
       689.60000     0.189532  9.58086e+12
       689.70000     0.189532  9.57707e+12
       689.80000     0.189532  9.57517e+12
       689.90000     0.189532  9.57328e+12
       690.00000     0.189532  9.56948e+12
       690.10000     0.189532  9.56569e+12
       690.20000     0.189532  9.56380e+12
       690.30000     0.189532  9.56001e+12
       690.40000     0.189532  9.55622e+12
       690.50000     0.189770  9.56630e+12
       690.60000     0.189770  9.56251e+12
       690.70000     0.189770  9.55871e+12
       690.80000     0.189770  9.55491e+12
       690.90000     0.189770  9.55112e+12
       691.00000     0.189770  9.54732e+12
       691.10000     0.189770  9.55112e+12
       691.20000     0.189770  9.55302e+12
       691.30000     0.188333  9.48443e+12
       691.40000     0.188333  9.48631e+12
       691.50000     0.188446  9.49391e+12
       691.60000     0.188446  9.49767e+12
       691.70000     0.188446  9.49956e+12
       691.80000     0.188446  9.50144e+12
       691.90000     0.188446  9.50333e+12
       692.00000     0.188446  9.50333e+12
       692.10000     0.188446  9.50521e+12
       692.20000     0.188446  9.50710e+12
       692.30000     0.188446  9.50710e+12
       692.40000     0.188446  9.50710e+12
       692.50000     0.188576  9.51554e+12
       692.60000     0.188576  9.51554e+12
       692.70000     0.188576  9.51554e+12
       692.80000     0.188576  9.51554e+12
       692.90000     0.188576  9.51554e+12
       693.00000     0.188576  9.51365e+12
       693.10000     0.188576  9.51365e+12
       693.20000     0.188576  9.51177e+12
       693.30000     0.188576  9.50988e+12
       693.40000     0.188576  9.50799e+12
       693.50000     0.188529  9.50374e+12
       693.60000     0.188529  9.50185e+12
       693.70000     0.188529  9.49996e+12
       693.80000     0.187228  9.43257e+12
       693.90000     0.187228  9.42882e+12
       694.00000     0.187228  9.42695e+12
       694.10000     0.187228  9.42508e+12
       694.20000     0.187228  9.42133e+12
       694.30000     0.187228  9.41946e+12
       694.40000     0.187228  9.41572e+12
       694.50000     0.187488  9.42504e+12
       694.60000     0.187488  9.42317e+12
       694.70000     0.187488  9.41942e+12
       694.80000     0.187488  9.41567e+12
       694.90000     0.187488  9.41192e+12
       695.00000     0.187488  9.40817e+12
       695.10000     0.187488  9.40442e+12
       695.20000     0.187488  9.40067e+12
       695.30000     0.187488  9.39504e+12
       695.40000     0.187488  9.39130e+12
       695.50000     0.187603  9.39328e+12
       695.60000     0.187603  9.38765e+12
       695.70000     0.187603  9.38390e+12
       695.80000     0.187603  9.37827e+12
       695.90000     0.187603  9.37264e+12
       696.00000     0.187603  9.36889e+12
       696.10000     0.187603  9.36326e+12
       696.20000     0.187603  9.35764e+12
       696.30000     0.186505  9.29728e+12
       696.40000     0.186505  9.29169e+12
       696.50000     0.186657  9.29367e+12
       696.60000     0.186657  9.28807e+12
       696.70000     0.186657  9.28061e+12
       696.80000     0.186657  9.27500e+12
       696.90000     0.186657  9.26941e+12
       697.00000     0.186657  9.26194e+12
       697.10000     0.186657  9.27500e+12
       697.20000     0.186657  9.28434e+12
       697.30000     0.186657  9.29554e+12
       697.40000     0.186657  9.30487e+12
       697.50000     0.186740  9.31833e+12
       697.60000     0.186740  9.32580e+12
       697.70000     0.186740  9.33327e+12
       697.80000     0.186740  9.33887e+12
       697.90000     0.186740  9.34448e+12
       698.00000     0.186740  9.34821e+12
       698.10000     0.186740  9.35194e+12
       698.20000     0.186740  9.35568e+12
       698.30000     0.186740  9.35755e+12
       698.40000     0.186740  9.35941e+12
       698.50000     0.186848  9.36667e+12
       698.60000     0.186848  9.36667e+12
       698.70000     0.186848  9.36480e+12
       698.80000     0.185702  9.30554e+12
       698.90000     0.185702  9.30368e+12
       699.00000     0.185702  9.29997e+12
       699.10000     0.185702  9.28325e+12
       699.20000     0.185702  9.26468e+12
       699.30000     0.185702  9.24983e+12
       699.40000     0.185702  9.23311e+12
       699.50000     0.185665  9.21641e+12
       699.60000     0.185665  9.20156e+12
       699.70000     0.185665  9.18856e+12
       699.80000     0.185665  9.17557e+12
       699.90000     0.185665  9.16257e+12
       700.00000     0.185665  9.15143e+12
       700.10000     0.185665  9.14029e+12
       700.20000     0.185665  9.12915e+12
       700.30000     0.185665  9.11987e+12
       700.40000     0.185665  9.11059e+12
       700.50000     0.185782  9.10703e+12
       700.60000     0.185782  9.09960e+12
       700.70000     0.185782  9.09217e+12
       700.80000     0.185782  9.08660e+12
       700.90000     0.185782  9.08102e+12
       701.00000     0.185782  9.07545e+12
       701.10000     0.185782  9.07359e+12
       701.20000     0.185782  9.07173e+12
       701.30000     0.184406  9.00268e+12
       701.40000     0.184406  9.00268e+12
       701.50000     0.184615  9.01291e+12
       701.60000     0.184615  9.01291e+12
       701.70000     0.184615  9.01291e+12
       701.80000     0.184615  9.01476e+12
       701.90000     0.184615  9.01476e+12
       702.00000     0.184615  9.01660e+12
       702.10000     0.184615  9.02030e+12
       702.20000     0.184615  9.02214e+12
       702.30000     0.184615  9.02583e+12
       702.40000     0.184615  9.02768e+12
       702.50000     0.184701  9.03556e+12
       702.60000     0.184701  9.04110e+12
       702.70000     0.184701  9.04479e+12
       702.80000     0.184701  9.05033e+12
       702.90000     0.184701  9.05588e+12
       703.00000     0.184701  9.06142e+12
       703.10000     0.184701  9.07804e+12
       703.20000     0.184701  9.09466e+12
       703.30000     0.184701  9.10944e+12
       703.40000     0.184701  9.12421e+12
       703.50000     0.184721  9.13814e+12
       703.60000     0.184721  9.15292e+12
       703.70000     0.184721  9.16401e+12
       703.80000     0.183006  9.09176e+12
       703.90000     0.183006  9.10274e+12
       704.00000     0.183006  9.11189e+12
       704.10000     0.183006  9.12287e+12
       704.20000     0.183006  9.13202e+12
       704.30000     0.183006  9.13934e+12
       704.40000     0.183006  9.14666e+12
       704.50000     0.183286  9.16797e+12
       704.60000     0.183286  9.17531e+12
       704.70000     0.183286  9.18080e+12
       704.80000     0.183286  9.18447e+12
       704.90000     0.183286  9.18997e+12
       705.00000     0.183286  9.19363e+12
       705.10000     0.183286  9.19547e+12
       705.20000     0.183286  9.19730e+12
       705.30000     0.183286  9.19913e+12
       705.40000     0.183286  9.20096e+12
       705.50000     0.183296  9.20147e+12
       705.60000     0.183296  9.20147e+12
       705.70000     0.183296  9.19963e+12
       705.80000     0.183296  9.19780e+12
       705.90000     0.183296  9.19597e+12
       706.00000     0.183296  9.19230e+12
       706.10000     0.183296  9.18864e+12
       706.20000     0.183296  9.18314e+12
       706.30000     0.181488  9.08711e+12
       706.40000     0.181488  9.08167e+12
       706.50000     0.181547  9.07733e+12
       706.60000     0.181547  9.07007e+12
       706.70000     0.181547  9.06281e+12
       706.80000     0.181547  9.05373e+12
       706.90000     0.181547  9.04465e+12
       707.00000     0.181547  9.03558e+12
       707.10000     0.181547  9.02831e+12
       707.20000     0.181547  9.02287e+12
       707.30000     0.181547  9.01561e+12
       707.40000     0.181547  9.01016e+12
       707.50000     0.181605  9.00763e+12
       707.60000     0.181605  9.00218e+12
       707.70000     0.181605  8.99855e+12
       707.80000     0.181605  8.99310e+12
       707.90000     0.181605  8.98947e+12
       708.00000     0.181605  8.98583e+12
       708.10000     0.181605  8.98220e+12
       708.20000     0.181605  8.97857e+12
       708.30000     0.181605  8.97494e+12
       708.40000     0.181605  8.97131e+12
       708.50000     0.181728  8.97554e+12
       708.60000     0.181728  8.97191e+12
       708.70000     0.181728  8.97009e+12
       708.80000     0.179646  8.86554e+12
       708.90000     0.179646  8.86374e+12
       709.00000     0.179646  8.86374e+12
       709.10000     0.179646  8.86734e+12
       709.20000     0.179646  8.87093e+12
       709.30000     0.179646  8.87273e+12
       709.40000     0.179646  8.87632e+12
       709.50000     0.179815  8.88644e+12
       709.60000     0.179815  8.89004e+12
       709.70000     0.179815  8.89184e+12
       709.80000     0.179815  8.89363e+12
       709.90000     0.179815  8.89543e+12
       710.00000     0.179815  8.89723e+12
       710.10000     0.179815  8.89903e+12
       710.20000     0.179815  8.90083e+12
       710.30000     0.179815  8.90083e+12
       710.40000     0.179815  8.90263e+12
       710.50000     0.179946  8.90911e+12
       710.60000     0.179946  8.90911e+12
       710.70000     0.179946  8.90911e+12
       710.80000     0.179946  8.90911e+12
       710.90000     0.179946  8.90911e+12
       711.00000     0.179946  8.90911e+12
       711.10000     0.179946  8.90911e+12
       711.20000     0.179946  8.90732e+12
       711.30000     0.177317  8.77719e+12
       711.40000     0.177317  8.77542e+12
       711.50000     0.177360  8.77578e+12
       711.60000     0.177360  8.77400e+12
       711.70000     0.177360  8.77223e+12
       711.80000     0.177360  8.77046e+12
       711.90000     0.177360  8.76868e+12
       712.00000     0.177360  8.76514e+12
       712.10000     0.177360  8.76336e+12
       712.20000     0.177360  8.75982e+12
       712.30000     0.177360  8.75804e+12
       712.40000     0.177360  8.75450e+12
       712.50000     0.177489  8.75731e+12
       712.60000     0.177489  8.75376e+12
       712.70000     0.177489  8.74844e+12
       712.80000     0.177489  8.74489e+12
       712.90000     0.177489  8.74134e+12
       713.00000     0.177489  8.73601e+12
       713.10000     0.177489  8.73601e+12
       713.20000     0.177489  8.73601e+12
       713.30000     0.177489  8.73601e+12
       713.40000     0.177489  8.73424e+12
       713.50000     0.177556  8.73752e+12
       713.60000     0.177556  8.73752e+12
       713.70000     0.177556  8.73574e+12
       713.80000     0.175136  8.61667e+12
       713.90000     0.175136  8.61492e+12
       714.00000     0.175136  8.61492e+12
       714.10000     0.175136  8.61317e+12
       714.20000     0.175136  8.61142e+12
       714.30000     0.175136  8.61142e+12
       714.40000     0.175136  8.60967e+12
       714.50000     0.175268  8.61444e+12
       714.60000     0.175268  8.61269e+12
       714.70000     0.175268  8.61269e+12
       714.80000     0.175268  8.61093e+12
       714.90000     0.175268  8.60918e+12
       715.00000     0.175268  8.60743e+12
       715.10000     0.175268  8.60568e+12
       715.20000     0.175268  8.60568e+12
       715.30000     0.175268  8.60568e+12
       715.40000     0.175268  8.60392e+12
       715.50000     0.175385  8.60789e+12
       715.60000     0.175385  8.60614e+12
       715.70000     0.175385  8.60438e+12
       715.80000     0.175385  8.60263e+12
       715.90000     0.175385  8.60087e+12
       716.00000     0.175385  8.59737e+12
       716.10000     0.175385  8.59561e+12
       716.20000     0.175385  8.59210e+12
       716.30000     0.173041  8.47384e+12
       716.40000     0.173041  8.47038e+12
       716.50000     0.173033  8.46650e+12
       716.60000     0.173033  8.46304e+12
       716.70000     0.173033  8.45958e+12
       716.80000     0.173033  8.45439e+12
       716.90000     0.173033  8.45093e+12
       717.00000     0.173033  8.44574e+12
       717.10000     0.173033  8.44055e+12
       717.20000     0.173033  8.43536e+12
       717.30000     0.173033  8.43016e+12
       717.40000     0.173033  8.42497e+12
       717.50000     0.173241  8.42993e+12
       717.60000     0.173241  8.42300e+12
       717.70000     0.173241  8.41780e+12
       717.80000     0.173241  8.41087e+12
       717.90000     0.173241  8.40394e+12
       718.00000     0.173241  8.39701e+12
       718.10000     0.173241  8.39008e+12
       718.20000     0.173241  8.38315e+12
       718.30000     0.173241  8.37622e+12
       718.40000     0.173241  8.36756e+12
       718.50000     0.173491  8.37267e+12
       718.60000     0.173491  8.36399e+12
       718.70000     0.173491  8.35532e+12
       718.80000     0.171407  8.24641e+12
       718.90000     0.171407  8.23784e+12
       719.00000     0.171407  8.22927e+12
       719.10000     0.171407  8.22927e+12
       719.20000     0.171407  8.22927e+12
       719.30000     0.171407  8.22927e+12
       719.40000     0.171407  8.23099e+12
       719.50000     0.171394  8.23034e+12
       719.60000     0.171394  8.23206e+12
       719.70000     0.171394  8.23206e+12
       719.80000     0.171394  8.23377e+12
       719.90000     0.171394  8.23548e+12
       720.00000     0.171394  8.23891e+12
       720.10000     0.171394  8.24063e+12
       720.20000     0.171394  8.24234e+12
       720.30000     0.171394  8.24577e+12
       720.40000     0.171394  8.24748e+12
       720.50000     0.171333  8.24797e+12
       720.60000     0.171333  8.25140e+12
       720.70000     0.171333  8.25482e+12
       720.80000     0.171333  8.25825e+12
       720.90000     0.171333  8.26339e+12
       721.00000     0.171333  8.26682e+12
       721.10000     0.171333  8.27538e+12
       721.20000     0.171333  8.28395e+12
       721.30000     0.169401  8.19899e+12
       721.40000     0.169401  8.20577e+12
       721.50000     0.169449  8.21656e+12
       721.60000     0.169449  8.22334e+12
       721.70000     0.169449  8.23012e+12
       721.80000     0.169449  8.23859e+12
       721.90000     0.169449  8.24537e+12
       722.00000     0.169449  8.25045e+12
       722.10000     0.169449  8.25723e+12
       722.20000     0.169449  8.26401e+12
       722.30000     0.169449  8.26909e+12
       722.40000     0.169449  8.27418e+12
       722.50000     0.169741  8.29353e+12
       722.60000     0.169741  8.30032e+12
       722.70000     0.169741  8.30371e+12
       722.80000     0.169741  8.30880e+12
       722.90000     0.169741  8.31390e+12
       723.00000     0.169741  8.31729e+12
       723.10000     0.169741  8.32238e+12
       723.20000     0.169741  8.32578e+12
       723.30000     0.169741  8.32917e+12
       723.40000     0.169741  8.33257e+12
       723.50000     0.169779  8.33786e+12
       723.60000     0.169779  8.33956e+12
       723.70000     0.169779  8.34295e+12
       723.80000     0.167863  8.25046e+12
       723.90000     0.167863  8.25214e+12
       724.00000     0.167863  8.25382e+12
       724.10000     0.167863  8.25549e+12
       724.20000     0.167863  8.25717e+12
       724.30000     0.167863  8.25885e+12
       724.40000     0.167863  8.26053e+12
       724.50000     0.167916  8.26316e+12
       724.60000     0.167916  8.26316e+12
       724.70000     0.167916  8.26316e+12
       724.80000     0.167916  8.26316e+12
       724.90000     0.167916  8.26316e+12
       725.00000     0.167916  8.26316e+12
       725.10000     0.167916  8.26652e+12
       725.20000     0.167916  8.26988e+12
       725.30000     0.167916  8.27156e+12
       725.40000     0.167916  8.27492e+12
       725.50000     0.168032  8.28229e+12
       725.60000     0.168032  8.28397e+12
       725.70000     0.168032  8.28397e+12
       725.80000     0.168032  8.28565e+12
       725.90000     0.168032  8.28565e+12
       726.00000     0.168032  8.28565e+12
       726.10000     0.168032  8.28565e+12
       726.20000     0.168032  8.28565e+12
       726.30000     0.166158  8.19159e+12
       726.40000     0.166158  8.18993e+12
       726.50000     0.166342  8.19732e+12
       726.60000     0.166342  8.19566e+12
       726.70000     0.166342  8.19399e+12
       726.80000     0.166342  8.19067e+12
       726.90000     0.166342  8.18734e+12
       727.00000     0.166342  8.18401e+12
       727.10000     0.166342  8.17237e+12
       727.20000     0.166342  8.16072e+12
       727.30000     0.166342  8.14908e+12
       727.40000     0.166342  8.13910e+12
       727.50000     0.166277  8.12596e+12
       727.60000     0.166277  8.11598e+12
       727.70000     0.166277  8.10767e+12
       727.80000     0.166277  8.09935e+12
       727.90000     0.166277  8.09104e+12
       728.00000     0.166277  8.08439e+12
       728.10000     0.166277  8.07774e+12
       728.20000     0.166277  8.07109e+12
       728.30000     0.166277  8.06444e+12
       728.40000     0.166277  8.05945e+12
       728.50000     0.166338  8.05739e+12
       728.60000     0.166338  8.05407e+12
       728.70000     0.166338  8.04908e+12
       728.80000     0.164483  7.95767e+12
       728.90000     0.164483  7.95438e+12
       729.00000     0.164483  7.95273e+12
       729.10000     0.164483  7.95109e+12
       729.20000     0.164483  7.94944e+12
       729.30000     0.164483  7.94944e+12
       729.40000     0.164483  7.94780e+12
       729.50000     0.164704  7.96016e+12
       729.60000     0.164704  7.96016e+12
       729.70000     0.164704  7.96181e+12
       729.80000     0.164704  7.96346e+12
       729.90000     0.164704  7.96675e+12
       730.00000     0.164704  7.97005e+12
       730.10000     0.164704  7.97334e+12
       730.20000     0.164704  7.97663e+12
       730.30000     0.164704  7.98157e+12
       730.40000     0.164704  7.98652e+12
       730.50000     0.164768  7.99452e+12
       730.60000     0.164768  8.00111e+12
       730.70000     0.164768  8.00770e+12
       730.80000     0.164768  8.01429e+12
       730.90000     0.164768  8.02253e+12
       731.00000     0.164768  8.03077e+12
       731.10000     0.164768  8.02912e+12
       731.20000     0.164768  8.02747e+12
       731.30000     0.162725  7.92634e+12
       731.40000     0.162725  7.92634e+12
       731.50000     0.162858  7.93119e+12
       731.60000     0.162858  7.92956e+12
       731.70000     0.162858  7.92793e+12
       731.80000     0.162858  7.92793e+12
       731.90000     0.162858  7.92630e+12
       732.00000     0.162858  7.92468e+12
       732.10000     0.162858  7.92305e+12
       732.20000     0.162858  7.92142e+12
       732.30000     0.162858  7.92142e+12
       732.40000     0.162858  7.91979e+12
       732.50000     0.162939  7.92208e+12
       732.60000     0.162939  7.92045e+12
       732.70000     0.162939  7.91882e+12
       732.80000     0.162939  7.91719e+12
       732.90000     0.162939  7.91556e+12
       733.00000     0.162939  7.91393e+12
       733.10000     0.162939  7.91230e+12
       733.20000     0.162939  7.90904e+12
       733.30000     0.162939  7.90742e+12
       733.40000     0.162939  7.90416e+12
       733.50000     0.163012  7.90606e+12
       733.60000     0.163012  7.90443e+12
       733.70000     0.163012  7.90117e+12
       733.80000     0.160775  7.79115e+12
       733.90000     0.160775  7.78954e+12
       734.00000     0.160775  7.78794e+12
       734.10000     0.160775  7.78633e+12
       734.20000     0.160775  7.78472e+12
       734.30000     0.160775  7.78311e+12
       734.40000     0.160775  7.78311e+12
       734.50000     0.160845  7.78488e+12
       734.60000     0.160845  7.78327e+12
       734.70000     0.160845  7.78327e+12
       734.80000     0.160845  7.78166e+12
       734.90000     0.160845  7.78166e+12
       735.00000     0.160845  7.78005e+12
       735.10000     0.160845  7.78005e+12
       735.20000     0.160845  7.78005e+12
       735.30000     0.160845  7.78005e+12
       735.40000     0.160845  7.77844e+12
       735.50000     0.161030  7.78739e+12
       735.60000     0.161030  7.78739e+12
       735.70000     0.161030  7.78739e+12
       735.80000     0.161030  7.78900e+12
       735.90000     0.161030  7.78900e+12
       736.00000     0.161030  7.78900e+12
       736.10000     0.161030  7.78900e+12
       736.20000     0.161030  7.79061e+12
       736.30000     0.158494  7.66796e+12
       736.40000     0.158494  7.66955e+12
       736.50000     0.158398  7.66488e+12
       736.60000     0.158398  7.66646e+12
       736.70000     0.158398  7.66805e+12
       736.80000     0.158398  7.66805e+12
       736.90000     0.158398  7.66963e+12
       737.00000     0.158398  7.67122e+12
       737.10000     0.158398  7.66330e+12
       737.20000     0.158398  7.65379e+12
       737.30000     0.158398  7.64587e+12
       737.40000     0.158398  7.63795e+12
       737.50000     0.158541  7.63534e+12
       737.60000     0.158541  7.62741e+12
       737.70000     0.158541  7.61949e+12
       737.80000     0.158541  7.61156e+12
       737.90000     0.158541  7.60522e+12
       738.00000     0.158541  7.59729e+12
       738.10000     0.158541  7.58936e+12
       738.20000     0.158541  7.58144e+12
       738.30000     0.158541  7.57509e+12
       738.40000     0.158541  7.56875e+12
       738.50000     0.158612  7.56420e+12
       738.60000     0.158612  7.55786e+12
       738.70000     0.158612  7.55151e+12
       738.80000     0.155883  7.41534e+12
       738.90000     0.155883  7.40911e+12
       739.00000     0.155883  7.40287e+12
       739.10000     0.155883  7.39040e+12
       739.20000     0.155883  7.37949e+12
       739.30000     0.155883  7.37014e+12
       739.40000     0.155883  7.36078e+12
       739.50000     0.155987  7.35634e+12
       739.60000     0.155987  7.34854e+12
       739.70000     0.155987  7.34230e+12
       739.80000     0.155987  7.33450e+12
       739.90000     0.155987  7.32982e+12
       740.00000     0.155987  7.32358e+12
       740.10000     0.155987  7.32046e+12
       740.20000     0.155987  7.31578e+12
       740.30000     0.155987  7.31266e+12
       740.40000     0.155987  7.31110e+12
       740.50000     0.156148  7.31708e+12
       740.60000     0.156148  7.31552e+12
       740.70000     0.156148  7.31552e+12
       740.80000     0.156148  7.31552e+12
       740.90000     0.156148  7.31708e+12
       741.00000     0.156148  7.31864e+12
       741.10000     0.156148  7.32176e+12
       741.20000     0.156148  7.32488e+12
       741.30000     0.153448  7.20133e+12
       741.40000     0.153448  7.20593e+12
       741.50000     0.153517  7.21375e+12
       741.60000     0.153517  7.21989e+12
       741.70000     0.153517  7.22757e+12
       741.80000     0.153517  7.23371e+12
       741.90000     0.153517  7.24292e+12
       742.00000     0.153517  7.25060e+12
       742.10000     0.153517  7.25981e+12
       742.20000     0.153517  7.27055e+12
       742.30000     0.153517  7.28130e+12
       742.40000     0.153517  7.29205e+12
       742.50000     0.153548  7.30582e+12
       742.60000     0.153548  7.31810e+12
       742.70000     0.153548  7.33192e+12
       742.80000     0.153548  7.34574e+12
       742.90000     0.153548  7.36110e+12
       743.00000     0.153548  7.37645e+12
       743.10000     0.153548  7.37338e+12
       743.20000     0.153548  7.37184e+12
       743.30000     0.153548  7.37031e+12
       743.40000     0.153548  7.36724e+12
       743.50000     0.153704  7.37320e+12
       743.60000     0.153704  7.37167e+12
       743.70000     0.153704  7.37013e+12
       743.80000     0.151332  7.25486e+12
       743.90000     0.151332  7.25335e+12
       744.00000     0.151332  7.25184e+12
       744.10000     0.151332  7.25184e+12
       744.20000     0.151332  7.25032e+12
       744.30000     0.151332  7.25032e+12
       744.40000     0.151332  7.25032e+12
       744.50000     0.151356  7.24996e+12
       744.60000     0.151356  7.24996e+12
       744.70000     0.151356  7.24996e+12
       744.80000     0.151356  7.24996e+12
       744.90000     0.151356  7.25147e+12
       745.00000     0.151356  7.25147e+12
       745.10000     0.151356  7.25601e+12
       745.20000     0.151356  7.26055e+12
       745.30000     0.151356  7.26358e+12
       745.40000     0.151356  7.26812e+12
       745.50000     0.151374  7.27201e+12
       745.60000     0.151374  7.27503e+12
       745.70000     0.151374  7.27806e+12
       745.80000     0.151374  7.28109e+12
       745.90000     0.151374  7.28260e+12
       746.00000     0.151374  7.28563e+12
       746.10000     0.151374  7.28714e+12
       746.20000     0.151374  7.28866e+12
       746.30000     0.149636  7.20647e+12
       746.40000     0.149636  7.20796e+12
       746.50000     0.149795  7.21714e+12
       746.60000     0.149795  7.21714e+12
       746.70000     0.149795  7.21863e+12
       746.80000     0.149795  7.21863e+12
       746.90000     0.149795  7.21863e+12
       747.00000     0.149795  7.21863e+12
       747.10000     0.149795  7.21414e+12
       747.20000     0.149795  7.21114e+12
       747.30000     0.149795  7.20815e+12
       747.40000     0.149795  7.20515e+12
       747.50000     0.149914  7.20787e+12
       747.60000     0.149914  7.20487e+12
       747.70000     0.149914  7.20187e+12
       747.80000     0.149914  7.19888e+12
       747.90000     0.149914  7.19588e+12
       748.00000     0.149914  7.19288e+12
       748.10000     0.149914  7.19138e+12
       748.20000     0.149914  7.18838e+12
       748.30000     0.149914  7.18538e+12
       748.40000     0.149914  7.18388e+12
       748.50000     0.150028  7.18635e+12
       748.60000     0.150028  7.18335e+12
       748.70000     0.150028  7.18185e+12
       748.80000     0.148315  7.09688e+12
       748.90000     0.148315  7.09540e+12
       749.00000     0.148315  7.09391e+12
       749.10000     0.148315  7.09095e+12
       749.20000     0.148315  7.08946e+12
       749.30000     0.148315  7.08798e+12
       749.40000     0.148315  7.08650e+12
       749.50000     0.148374  7.08782e+12
       749.60000     0.148374  7.08634e+12
       749.70000     0.148374  7.08337e+12
       749.80000     0.148374  7.08189e+12
       749.90000     0.148374  7.08189e+12
       750.00000     0.148374  7.08040e+12
       750.10000     0.148374  7.07892e+12
       750.20000     0.148374  7.07744e+12
       750.30000     0.148374  7.07595e+12
       750.40000     0.148374  7.07595e+12
       750.50000     0.148379  7.07473e+12
       750.60000     0.148379  7.07325e+12
       750.70000     0.148379  7.07325e+12
       750.80000     0.148379  7.07177e+12
       750.90000     0.148379  7.07177e+12
       751.00000     0.148379  7.07028e+12
       751.10000     0.148379  7.07028e+12
       751.20000     0.148379  7.07028e+12
       751.30000     0.146476  6.97814e+12
       751.40000     0.146476  6.97814e+12
       751.50000     0.145921  6.95168e+12
       751.60000     0.145921  6.95168e+12
       751.70000     0.145921  6.95168e+12
       751.80000     0.145921  6.95168e+12
       751.90000     0.145921  6.95168e+12
       752.00000     0.145921  6.95168e+12
       752.10000     0.145921  6.95168e+12
       752.20000     0.145921  6.95168e+12
       752.30000     0.145921  6.95168e+12
       752.40000     0.145921  6.95168e+12
       752.50000     0.145295  6.92333e+12
       752.60000     0.145295  6.92333e+12
       752.70000     0.145295  6.92333e+12
       752.80000     0.145295  6.92478e+12
       752.90000     0.145295  6.92478e+12
       753.00000     0.145295  6.92624e+12
       753.10000     0.145295  6.92624e+12
       753.20000     0.145295  6.92624e+12
       753.30000     0.145295  6.92624e+12
       753.40000     0.145295  6.92624e+12
       753.50000     0.144551  6.89075e+12
       753.60000     0.144551  6.89075e+12
       753.70000     0.144551  6.89075e+12
       753.80000     0.142516  6.79376e+12
       753.90000     0.142516  6.79376e+12
       754.00000     0.142516  6.79376e+12
       754.10000     0.142516  6.79376e+12
       754.20000     0.142516  6.79233e+12
       754.30000     0.142516  6.79233e+12
       754.40000     0.142516  6.79233e+12
       754.50000     0.141979  6.76671e+12
       754.60000     0.141979  6.76671e+12
       754.70000     0.141979  6.76529e+12
       754.80000     0.141979  6.76529e+12
       754.90000     0.141979  6.76387e+12
       755.00000     0.141979  6.76387e+12
       755.10000     0.141979  6.76245e+12
       755.20000     0.141979  6.76245e+12
       755.30000     0.141979  6.76103e+12
       755.40000     0.141979  6.76103e+12
       755.50000     0.141229  6.72389e+12
       755.60000     0.141229  6.72248e+12
       755.70000     0.141229  6.72248e+12
       755.80000     0.141229  6.72107e+12
       755.90000     0.141229  6.71965e+12
       756.00000     0.141229  6.71965e+12
       756.10000     0.141229  6.71824e+12
       756.20000     0.141229  6.71683e+12
       756.30000     0.139197  6.61881e+12
       756.40000     0.139197  6.61881e+12
       756.50000     0.138594  6.58877e+12
       756.60000     0.138594  6.58738e+12
       756.70000     0.138594  6.58600e+12
       756.80000     0.138594  6.58600e+12
       756.90000     0.138594  6.58461e+12
       757.00000     0.138594  6.58322e+12
       757.10000     0.138594  6.58184e+12
       757.20000     0.138594  6.58045e+12
       757.30000     0.138594  6.58045e+12
       757.40000     0.138594  6.57907e+12
       757.50000     0.137948  6.54701e+12
       757.60000     0.137948  6.54563e+12
       757.70000     0.137948  6.54425e+12
       757.80000     0.137948  6.54287e+12
       757.90000     0.137948  6.54149e+12
       758.00000     0.137948  6.54149e+12
       758.10000     0.137948  6.54011e+12
       758.20000     0.137948  6.53873e+12
       758.30000     0.137948  6.53735e+12
       758.40000     0.137948  6.53597e+12
       758.50000     0.137327  6.50518e+12
       758.60000     0.137327  6.50381e+12
       758.70000     0.137327  6.50244e+12
       758.80000     0.134897  6.38602e+12
       758.90000     0.134897  6.38467e+12
       759.00000     0.134897  6.38332e+12
       759.10000     0.134897  6.38332e+12
       759.20000     0.134897  6.38197e+12
       759.30000     0.134897  6.38197e+12
       759.40000     0.134897  6.38062e+12
       759.50000     0.134312  6.35295e+12
       759.60000     0.134312  6.35295e+12
       759.70000     0.134312  6.35161e+12
       759.80000     0.134312  6.35161e+12
       759.90000     0.134312  6.35161e+12
       760.00000     0.134312  6.35161e+12
       760.10000     0.134312  6.35161e+12
       760.20000     0.134312  6.35161e+12
       760.30000     0.134312  6.35295e+12
       760.40000     0.134312  6.35295e+12
       760.50000     0.133764  6.32702e+12
       760.60000     0.133764  6.32836e+12
       760.70000     0.133764  6.32836e+12
       760.80000     0.133764  6.32970e+12
       760.90000     0.133764  6.32970e+12
       761.00000     0.133764  6.33104e+12
       761.10000     0.133764  6.33639e+12
       761.20000     0.133764  6.34040e+12
       761.30000     0.131007  6.21366e+12
       761.40000     0.131007  6.21759e+12
       761.50000     0.130418  6.19355e+12
       761.60000     0.130418  6.19616e+12
       761.70000     0.130418  6.19877e+12
       761.80000     0.130418  6.20138e+12
       761.90000     0.130418  6.20399e+12
       762.00000     0.130418  6.20529e+12
       762.10000     0.130418  6.20790e+12
       762.20000     0.130418  6.20920e+12
       762.30000     0.130418  6.21051e+12
       762.40000     0.130418  6.21051e+12
       762.50000     0.129757  6.17901e+12
       762.60000     0.129757  6.18030e+12
       762.70000     0.129757  6.18030e+12
       762.80000     0.129757  6.17901e+12
       762.90000     0.129757  6.17901e+12
       763.00000     0.129757  6.17771e+12
       763.10000     0.129757  6.17641e+12
       763.20000     0.129757  6.17511e+12
       763.30000     0.129757  6.17252e+12
       763.40000     0.129757  6.16992e+12
       763.50000     0.129233  6.14245e+12
       763.60000     0.129233  6.13986e+12
       763.70000     0.129233  6.13728e+12
       763.80000     0.126002  5.98005e+12
       763.90000     0.126002  5.97627e+12
       764.00000     0.126002  5.97249e+12
       764.10000     0.126002  5.96871e+12
       764.20000     0.126002  5.96367e+12
       764.30000     0.126002  5.95863e+12
       764.40000     0.126002  5.95359e+12
       764.50000     0.125414  5.92078e+12
       764.60000     0.125414  5.91577e+12
       764.70000     0.125414  5.90949e+12
       764.80000     0.125414  5.90322e+12
       764.90000     0.125414  5.89695e+12
       765.00000     0.125414  5.88943e+12
       765.10000     0.125414  5.87563e+12
       765.20000     0.125414  5.86184e+12
       765.30000     0.125414  5.84930e+12
       765.40000     0.125414  5.83676e+12
       765.50000     0.124952  5.80402e+12
       765.60000     0.124952  5.79402e+12
       765.70000     0.124952  5.78278e+12
       765.80000     0.124952  5.77403e+12
       765.90000     0.124952  5.76528e+12
       766.00000     0.124952  5.75654e+12
       766.10000     0.124952  5.74904e+12
       766.20000     0.124952  5.74154e+12
       766.30000     0.121867  5.59371e+12
       766.40000     0.121867  5.58883e+12
       766.50000     0.121098  5.54873e+12
       766.60000     0.121098  5.54388e+12
       766.70000     0.121098  5.54146e+12
       766.80000     0.121098  5.53783e+12
       766.90000     0.121098  5.53541e+12
       767.00000     0.121098  5.53420e+12
       767.10000     0.121098  5.54025e+12
       767.20000     0.121098  5.54752e+12
       767.30000     0.121098  5.55357e+12
       767.40000     0.121098  5.55963e+12
       767.50000     0.120593  5.54245e+12
       767.60000     0.120593  5.54848e+12
       767.70000     0.120593  5.55451e+12
       767.80000     0.120593  5.55933e+12
       767.90000     0.120593  5.56536e+12
       768.00000     0.120593  5.57019e+12
       768.10000     0.120593  5.57501e+12
       768.20000     0.120593  5.57983e+12
       768.30000     0.120593  5.58345e+12
       768.40000     0.120593  5.58828e+12
       768.50000     0.119967  5.56286e+12
       768.60000     0.119967  5.56646e+12
       768.70000     0.119967  5.57006e+12
       768.80000     0.117239  5.44691e+12
       768.90000     0.117239  5.45042e+12
       769.00000     0.117239  5.45277e+12
       769.10000     0.117239  5.45629e+12
       769.20000     0.117239  5.45863e+12
       769.30000     0.117239  5.46097e+12
       769.40000     0.117239  5.46332e+12
       769.50000     0.116722  5.44043e+12
       769.60000     0.116722  5.44276e+12
       769.70000     0.116722  5.44393e+12
       769.80000     0.116722  5.44626e+12
       769.90000     0.116722  5.44743e+12
       770.00000     0.116722  5.44743e+12
       770.10000     0.116722  5.44860e+12
       770.20000     0.116722  5.44976e+12
       770.30000     0.116722  5.44976e+12
       770.40000     0.116722  5.44976e+12
       770.50000     0.116107  5.42104e+12
       770.60000     0.116107  5.42104e+12
       770.70000     0.116107  5.42104e+12
       770.80000     0.116107  5.42104e+12
       770.90000     0.116107  5.41987e+12
       771.00000     0.116107  5.41871e+12
       771.10000     0.116107  5.42336e+12
       771.20000     0.116107  5.42684e+12
       771.30000     0.113918  5.32796e+12
       771.40000     0.113918  5.33137e+12
       771.50000     0.113334  5.30744e+12
       771.60000     0.113334  5.30970e+12
       771.70000     0.113334  5.31310e+12
       771.80000     0.113334  5.31537e+12
       771.90000     0.113334  5.31650e+12
       772.00000     0.113334  5.31877e+12
       772.10000     0.113334  5.31990e+12
       772.20000     0.113334  5.32104e+12
       772.30000     0.113334  5.32217e+12
       772.40000     0.113334  5.32330e+12
       772.50000     0.112905  5.30317e+12
       772.60000     0.112905  5.30317e+12
       772.70000     0.112905  5.30317e+12
       772.80000     0.112905  5.30204e+12
       772.90000     0.112905  5.30204e+12
       773.00000     0.112905  5.30091e+12
       773.10000     0.112905  5.29414e+12
       773.20000     0.112905  5.28849e+12
       773.30000     0.112905  5.28172e+12
       773.40000     0.112905  5.27607e+12
       773.50000     0.112320  5.24311e+12
       773.60000     0.112320  5.23862e+12
       773.70000     0.112320  5.23413e+12
       773.80000     0.110567  5.14801e+12
       773.90000     0.110567  5.14359e+12
       774.00000     0.110567  5.13916e+12
       774.10000     0.110567  5.13585e+12
       774.20000     0.110567  5.13253e+12
       774.30000     0.110567  5.13032e+12
       774.40000     0.110567  5.12700e+12
       774.50000     0.110047  5.10066e+12
       774.60000     0.110047  5.09956e+12
       774.70000     0.110047  5.09736e+12
       774.80000     0.110047  5.09626e+12
       774.90000     0.110047  5.09516e+12
       775.00000     0.110047  5.09406e+12
       775.10000     0.110047  5.09406e+12
       775.20000     0.110047  5.09406e+12
       775.30000     0.110047  5.09406e+12
       775.40000     0.110047  5.09406e+12
       775.50000     0.109468  5.06835e+12
       775.60000     0.109468  5.06944e+12
       775.70000     0.109468  5.07054e+12
       775.80000     0.109468  5.07163e+12
       775.90000     0.109468  5.07382e+12
       776.00000     0.109468  5.07601e+12
       776.10000     0.109468  5.07820e+12
       776.20000     0.109468  5.08148e+12
       776.30000     0.107883  5.01116e+12
       776.40000     0.107883  5.01440e+12
       776.50000     0.107333  4.99208e+12
       776.60000     0.107333  4.99637e+12
       776.70000     0.107333  5.00067e+12
       776.80000     0.107333  5.00496e+12
       776.90000     0.107333  5.01033e+12
       777.00000     0.107333  5.01462e+12
       777.10000     0.107333  5.01247e+12
       777.20000     0.107333  5.01140e+12
       777.30000     0.107333  5.00925e+12
       777.40000     0.107333  5.00711e+12
       777.50000     0.106898  4.98465e+12
       777.60000     0.106898  4.98358e+12
       777.70000     0.106898  4.98145e+12
       777.80000     0.106898  4.98038e+12
       777.90000     0.106898  4.97931e+12
       778.00000     0.106898  4.97717e+12
       778.10000     0.106898  4.97610e+12
       778.20000     0.106898  4.97503e+12
       778.30000     0.106898  4.97396e+12
       778.40000     0.106898  4.97289e+12
       778.50000     0.106314  4.94573e+12
       778.60000     0.106314  4.94467e+12
       778.70000     0.106314  4.94360e+12
       778.80000     0.105115  4.88786e+12
       778.90000     0.105115  4.88786e+12
       779.00000     0.105115  4.88681e+12
       779.10000     0.105115  4.88891e+12
       779.20000     0.105115  4.88996e+12
       779.30000     0.105115  4.89206e+12
       779.40000     0.105115  4.89311e+12
       779.50000     0.104419  4.86174e+12
       779.60000     0.104419  4.86278e+12
       779.70000     0.104419  4.86383e+12
       779.80000     0.104419  4.86487e+12
       779.90000     0.104419  4.86592e+12
       780.00000     0.104419  4.86696e+12
       780.10000     0.104419  4.86696e+12
       780.20000     0.104419  4.86800e+12
       780.30000     0.104419  4.86800e+12
       780.40000     0.104419  4.86800e+12
       780.50000     0.103965  4.84684e+12
       780.60000     0.103965  4.84684e+12
       780.70000     0.103965  4.84684e+12
       780.80000     0.103965  4.84684e+12
       780.90000     0.103965  4.84684e+12
       781.00000     0.103965  4.84580e+12
       781.10000     0.103965  4.84580e+12
       781.20000     0.103965  4.84476e+12
       781.30000     0.103027  4.80003e+12
       781.40000     0.103027  4.79900e+12
       781.50000     0.102529  4.77476e+12
       781.60000     0.102529  4.77374e+12
       781.70000     0.102529  4.77271e+12
       781.80000     0.102529  4.77169e+12
       781.90000     0.102529  4.76964e+12
       782.00000     0.102529  4.76861e+12
       782.10000     0.102529  4.76656e+12
       782.20000     0.102529  4.76451e+12
       782.30000     0.102529  4.76348e+12
       782.40000     0.102529  4.76143e+12
       782.50000     0.102077  4.73840e+12
       782.60000     0.102077  4.73534e+12
       782.70000     0.102077  4.73330e+12
       782.80000     0.102077  4.73126e+12
       782.90000     0.102077  4.72819e+12
       783.00000     0.102077  4.72615e+12
       783.10000     0.102077  4.72819e+12
       783.20000     0.102077  4.73024e+12
       783.30000     0.102077  4.73228e+12
       783.40000     0.102077  4.73330e+12
       783.50000     0.101468  4.70709e+12
       783.60000     0.101468  4.70912e+12
       783.70000     0.101468  4.71014e+12
       783.80000     0.100542  4.66919e+12
       783.90000     0.100542  4.67120e+12
       784.00000     0.100542  4.67221e+12
       784.10000     0.100542  4.67321e+12
       784.20000     0.100542  4.67522e+12
       784.30000     0.100542  4.67623e+12
       784.40000     0.100542  4.67723e+12
       784.50000     0.100132  4.65915e+12
       784.60000     0.100132  4.66015e+12
       784.70000     0.100132  4.66115e+12
       784.80000     0.100132  4.66215e+12
       784.90000     0.100132  4.66315e+12
       785.00000     0.100132  4.66315e+12
       785.10000     0.100132  4.66315e+12
       785.20000     0.100132  4.66315e+12
       785.30000     0.100132  4.66315e+12
       785.40000     0.100132  4.66315e+12
       785.50000    0.0996440  4.64042e+12
       785.60000    0.0996440  4.64042e+12
       785.70000    0.0996440  4.64042e+12
       785.80000    0.0996440  4.64042e+12
       785.90000    0.0996440  4.64042e+12
       786.00000    0.0996440  4.64042e+12
       786.10000    0.0996440  4.64042e+12
       786.20000    0.0996440  4.64042e+12
       786.30000    0.0984703  4.58576e+12
       786.40000    0.0984703  4.58576e+12
       786.50000    0.0979030  4.55934e+12
       786.60000    0.0979030  4.55934e+12
       786.70000    0.0979030  4.55934e+12
       786.80000    0.0979030  4.55934e+12
       786.90000    0.0979030  4.55934e+12
       787.00000    0.0979030  4.55934e+12
       787.10000    0.0979030  4.55934e+12
       787.20000    0.0979030  4.55934e+12
       787.30000    0.0979030  4.55934e+12
       787.40000    0.0979030  4.55934e+12
       787.50000    0.0975731  4.54398e+12
       787.60000    0.0975731  4.54398e+12
       787.70000    0.0975731  4.54398e+12
       787.80000    0.0975731  4.54398e+12
       787.90000    0.0975731  4.54398e+12
       788.00000    0.0975731  4.54398e+12
       788.10000    0.0975731  4.54398e+12
       788.20000    0.0975731  4.54398e+12
       788.30000    0.0975731  4.54398e+12
       788.40000    0.0975731  4.54398e+12
       788.50000    0.0968122  4.50854e+12
       788.60000    0.0968122  4.50854e+12
       788.70000    0.0968122  4.50854e+12
       788.80000    0.0956324  4.45360e+12
       788.90000    0.0956324  4.45360e+12
       789.00000    0.0956324  4.45360e+12
       789.10000    0.0956324  4.45169e+12
       789.20000    0.0956324  4.44882e+12
       789.30000    0.0956324  4.44595e+12
       789.40000    0.0956324  4.44404e+12
       789.50000    0.0952842  4.42500e+12
       789.60000    0.0952842  4.42214e+12
       789.70000    0.0952842  4.42024e+12
       789.80000    0.0952842  4.41738e+12
       789.90000    0.0952842  4.41452e+12
       790.00000    0.0952842  4.41261e+12
       790.10000    0.0952842  4.40975e+12
       790.20000    0.0952842  4.40785e+12
       790.30000    0.0952842  4.40499e+12
       790.40000    0.0952842  4.40308e+12
       790.50000    0.0946915  4.37285e+12
       790.60000    0.0946915  4.37001e+12
       790.70000    0.0946915  4.36812e+12
       790.80000    0.0946915  4.36528e+12
       790.90000    0.0946915  4.36338e+12
       791.00000    0.0946915  4.36054e+12
       791.10000    0.0946915  4.35770e+12
       791.20000    0.0946915  4.35581e+12
       791.30000    0.0932582  4.28708e+12
       791.40000    0.0932582  4.28428e+12
       791.50000    0.0927592  4.25857e+12
       791.60000    0.0927592  4.25579e+12
       791.70000    0.0927592  4.25394e+12
       791.80000    0.0927592  4.25115e+12
       791.90000    0.0927592  4.24930e+12
       792.00000    0.0927592  4.24652e+12
       792.10000    0.0927592  4.24466e+12
       792.20000    0.0927592  4.24281e+12
       792.30000    0.0927592  4.24002e+12
       792.40000    0.0927592  4.23817e+12
       792.50000    0.0922544  4.21326e+12
       792.60000    0.0922544  4.21141e+12
       792.70000    0.0922544  4.20957e+12
       792.80000    0.0922544  4.20772e+12
       792.90000    0.0922544  4.20588e+12
       793.00000    0.0922544  4.20403e+12
       793.10000    0.0922544  4.20126e+12
       793.20000    0.0922544  4.19757e+12
       793.30000    0.0922544  4.19481e+12
       793.40000    0.0922544  4.19204e+12
       793.50000    0.0917356  4.16572e+12
       793.60000    0.0917356  4.16388e+12
       793.70000    0.0917356  4.16113e+12
       793.80000    0.0901488  4.08825e+12
       793.90000    0.0901488  4.08644e+12
       794.00000    0.0901488  4.08554e+12
       794.10000    0.0901488  4.08374e+12
       794.20000    0.0901488  4.08374e+12
       794.30000    0.0901488  4.08284e+12
       794.40000    0.0901488  4.08284e+12
       794.50000    0.0897142  4.06316e+12
       794.60000    0.0897142  4.06316e+12
       794.70000    0.0897142  4.06406e+12
       794.80000    0.0897142  4.06406e+12
       794.90000    0.0897142  4.06495e+12
       795.00000    0.0897142  4.06675e+12
       795.10000    0.0897142  4.07303e+12
       795.20000    0.0897142  4.07931e+12
       795.30000    0.0897142  4.08559e+12
       795.40000    0.0897142  4.09187e+12
       795.50000    0.0891958  4.07357e+12
       795.60000    0.0891958  4.07892e+12
       795.70000    0.0891958  4.08338e+12
       795.80000    0.0891958  4.08784e+12
       795.90000    0.0891958  4.09230e+12
       796.00000    0.0891958  4.09587e+12
       796.10000    0.0891958  4.09944e+12
       796.20000    0.0891958  4.10301e+12
       796.30000    0.0873292  4.01976e+12
       796.40000    0.0873292  4.02238e+12
       796.50000    0.0867769  3.99955e+12
       796.60000    0.0867769  4.00128e+12
       796.70000    0.0867769  4.00302e+12
       796.80000    0.0867769  4.00388e+12
       796.90000    0.0867769  4.00475e+12
       797.00000    0.0867769  4.00562e+12
       797.10000    0.0867769  4.00649e+12
       797.20000    0.0867769  4.00649e+12
       797.30000    0.0867769  4.00649e+12
       797.40000    0.0867769  4.00562e+12
       797.50000    0.0864018  3.98744e+12
       797.60000    0.0864018  3.98658e+12
       797.70000    0.0864018  3.98485e+12
       797.80000    0.0864018  3.98312e+12
       797.90000    0.0864018  3.98140e+12
       798.00000    0.0864018  3.97881e+12
       798.10000    0.0864018  3.97621e+12
       798.20000    0.0864018  3.97362e+12
       798.30000    0.0864018  3.97016e+12
       798.40000    0.0864018  3.96671e+12
       798.50000    0.0858754  3.93910e+12
       798.60000    0.0858754  3.93481e+12
       798.70000    0.0858754  3.93052e+12
       798.80000    0.0838762  3.83482e+12
       798.90000    0.0838762  3.82979e+12
       799.00000    0.0838762  3.82476e+12
       799.10000    0.0838762  3.82727e+12
       799.20000    0.0838762  3.83063e+12
       799.30000    0.0838762  3.83398e+12
       799.40000    0.0838762  3.83650e+12
       799.50000    0.0834182  3.81805e+12
       799.60000    0.0834182  3.82055e+12
       799.70000    0.0834182  3.82306e+12
       799.80000    0.0834182  3.82473e+12
       799.90000    0.0834182  3.82639e+12
       800.00000    0.0834182  3.82806e+12
       800.10000    0.0834182  3.82973e+12
       800.20000    0.0834182  3.83140e+12
       800.30000    0.0834182  3.83307e+12
       800.40000    0.0834182  3.83390e+12
       800.50000    0.0829875  3.81494e+12
       800.60000    0.0829875  3.81577e+12
       800.70000    0.0829875  3.81577e+12
       800.80000    0.0829875  3.81660e+12
       800.90000    0.0829875  3.81660e+12
       801.00000    0.0829875  3.81660e+12
       801.10000    0.0829875  3.81494e+12
       801.20000    0.0829875  3.81328e+12
       801.30000    0.0810745  3.72375e+12
       801.40000    0.0810745  3.72213e+12
       801.50000    0.0807071  3.70365e+12
       801.60000    0.0807071  3.70204e+12
       801.70000    0.0807071  3.70042e+12
       801.80000    0.0807071  3.69881e+12
       801.90000    0.0807071  3.69719e+12
       802.00000    0.0807071  3.69558e+12
       802.10000    0.0807071  3.69396e+12
       802.20000    0.0807071  3.69235e+12
       802.30000    0.0807071  3.69074e+12
       802.40000    0.0807071  3.68912e+12
       802.50000    0.0802431  3.66631e+12
       802.60000    0.0802431  3.66470e+12
       802.70000    0.0802431  3.66310e+12
       802.80000    0.0802431  3.66069e+12
       802.90000    0.0802431  3.65908e+12
       803.00000    0.0802431  3.65748e+12
       803.10000    0.0802431  3.65587e+12
       803.20000    0.0802431  3.65427e+12
       803.30000    0.0802431  3.65267e+12
       803.40000    0.0802431  3.65026e+12
       803.50000    0.0796741  3.62278e+12
       803.60000    0.0796741  3.62119e+12
       803.70000    0.0796741  3.61959e+12
       803.80000    0.0778068  3.53321e+12
       803.90000    0.0778068  3.53087e+12
       804.00000    0.0778068  3.52932e+12
       804.10000    0.0778068  3.52776e+12
       804.20000    0.0778068  3.52620e+12
       804.30000    0.0778068  3.52387e+12
       804.40000    0.0778068  3.52231e+12
       804.50000    0.0775341  3.50842e+12
       804.60000    0.0775341  3.50609e+12
       804.70000    0.0775341  3.50454e+12
       804.80000    0.0775341  3.50299e+12
       804.90000    0.0775341  3.50067e+12
       805.00000    0.0775341  3.49911e+12
       805.10000    0.0775341  3.50222e+12
       805.20000    0.0775341  3.50609e+12
       805.30000    0.0775341  3.50842e+12
       805.40000    0.0775341  3.51152e+12
       805.50000    0.0769642  3.48802e+12
       805.60000    0.0769642  3.49033e+12
       805.70000    0.0769642  3.49263e+12
       805.80000    0.0769642  3.49417e+12
       805.90000    0.0769642  3.49571e+12
       806.00000    0.0769642  3.49725e+12
       806.10000    0.0769642  3.49802e+12
       806.20000    0.0769642  3.49879e+12
       806.30000    0.0750375  3.41196e+12
       806.40000    0.0750375  3.41271e+12
       806.50000    0.0745686  3.39138e+12
       806.60000    0.0745686  3.39138e+12
       806.70000    0.0745686  3.39063e+12
       806.80000    0.0745686  3.39063e+12
       806.90000    0.0745686  3.38989e+12
       807.00000    0.0745686  3.38840e+12
       807.10000    0.0745686  3.38243e+12
       807.20000    0.0745686  3.37572e+12
       807.30000    0.0745686  3.36975e+12
       807.40000    0.0745686  3.36453e+12
       807.50000    0.0741517  3.34053e+12
       807.60000    0.0741517  3.33534e+12
       807.70000    0.0741517  3.33089e+12
       807.80000    0.0741517  3.32719e+12
       807.90000    0.0741517  3.32348e+12
       808.00000    0.0741517  3.31977e+12
       808.10000    0.0741517  3.31680e+12
       808.20000    0.0741517  3.31384e+12
       808.30000    0.0741517  3.31087e+12
       808.40000    0.0741517  3.30865e+12
       808.50000    0.0736916  3.28665e+12
       808.60000    0.0736916  3.28517e+12
       808.70000    0.0736916  3.28370e+12
       808.80000    0.0718541  3.20110e+12
       808.90000    0.0718541  3.20038e+12
       809.00000    0.0718541  3.20038e+12
       809.10000    0.0718541  3.20038e+12
       809.20000    0.0718541  3.20110e+12
       809.30000    0.0718541  3.20182e+12
       809.40000    0.0718541  3.20254e+12
       809.50000    0.0714465  3.18580e+12
       809.60000    0.0714465  3.18794e+12
       809.70000    0.0714465  3.19009e+12
       809.80000    0.0714465  3.19223e+12
       809.90000    0.0714465  3.19509e+12
       810.00000    0.0714465  3.19794e+12
       810.10000    0.0714465  3.20152e+12
       810.20000    0.0714465  3.20509e+12
       810.30000    0.0714465  3.20866e+12
       810.40000    0.0714465  3.21295e+12
       810.50000    0.0711006  3.20237e+12
       810.60000    0.0711006  3.20664e+12
       810.70000    0.0711006  3.21232e+12
       810.80000    0.0711006  3.21801e+12
       810.90000    0.0711006  3.22370e+12
       811.00000    0.0711006  3.23010e+12
       811.10000    0.0711006  3.23081e+12
       811.20000    0.0711006  3.23223e+12
       811.30000    0.0693028  3.15120e+12
       811.40000    0.0693028  3.15258e+12
       811.50000    0.0689371  3.13664e+12
       811.60000    0.0689371  3.13733e+12
       811.70000    0.0689371  3.13802e+12
       811.80000    0.0689371  3.13871e+12
       811.90000    0.0689371  3.13940e+12
       812.00000    0.0689371  3.14009e+12
       812.10000    0.0689371  3.14009e+12
       812.20000    0.0689371  3.14078e+12
       812.30000    0.0689371  3.14147e+12
       812.40000    0.0689371  3.14147e+12
       812.50000    0.0685054  3.12179e+12
       812.60000    0.0685054  3.12248e+12
       812.70000    0.0685054  3.12248e+12
       812.80000    0.0685054  3.12248e+12
       812.90000    0.0685054  3.12248e+12
       813.00000    0.0685054  3.12248e+12
       813.10000    0.0685054  3.12111e+12
       813.20000    0.0685054  3.12042e+12
       813.30000    0.0685054  3.11905e+12
       813.40000    0.0685054  3.11837e+12
       813.50000    0.0680194  3.09488e+12
       813.60000    0.0680194  3.09420e+12
       813.70000    0.0680194  3.09352e+12
       813.80000    0.0663646  3.01760e+12
       813.90000    0.0663646  3.01694e+12
       814.00000    0.0663646  3.01561e+12
       814.10000    0.0663646  3.01495e+12
       814.20000    0.0663646  3.01428e+12
       814.30000    0.0663646  3.01362e+12
       814.40000    0.0663646  3.01362e+12
       814.50000    0.0659192  2.99273e+12
       814.60000    0.0659192  2.99207e+12
       814.70000    0.0659192  2.99141e+12
       814.80000    0.0659192  2.99075e+12
       814.90000    0.0659192  2.99075e+12
       815.00000    0.0659192  2.99009e+12
       815.10000    0.0659192  2.99273e+12
       815.20000    0.0659192  2.99471e+12
       815.30000    0.0659192  2.99669e+12
       815.40000    0.0659192  2.99801e+12
       815.50000    0.0654305  2.97774e+12
       815.60000    0.0654305  2.97840e+12
       815.70000    0.0654305  2.97971e+12
       815.80000    0.0654305  2.97971e+12
       815.90000    0.0654305  2.98036e+12
       816.00000    0.0654305  2.98036e+12
       816.10000    0.0654305  2.98036e+12
       816.20000    0.0654305  2.97971e+12
       816.30000    0.0637860  2.90417e+12
       816.40000    0.0637860  2.90354e+12
       816.50000    0.0635074  2.88959e+12
       816.60000    0.0635074  2.88831e+12
       816.70000    0.0635074  2.88641e+12
       816.80000    0.0635074  2.88450e+12
       816.90000    0.0635074  2.88260e+12
       817.00000    0.0635074  2.88006e+12
       817.10000    0.0635074  2.87117e+12
       817.20000    0.0635074  2.86291e+12
       817.30000    0.0635074  2.85529e+12
       817.40000    0.0635074  2.84767e+12
       817.50000    0.0631016  2.82254e+12
       817.60000    0.0631016  2.81623e+12
       817.70000    0.0631016  2.80992e+12
       817.80000    0.0631016  2.80361e+12
       817.90000    0.0631016  2.79856e+12
       818.00000    0.0631016  2.79288e+12
       818.10000    0.0631016  2.78846e+12
       818.20000    0.0631016  2.78404e+12
       818.30000    0.0631016  2.77963e+12
       818.40000    0.0631016  2.77647e+12
       818.50000    0.0628399  2.76119e+12
       818.60000    0.0628399  2.75867e+12
       818.70000    0.0628399  2.75616e+12
       818.80000    0.0612479  2.68388e+12
       818.90000    0.0612479  2.68266e+12
       819.00000    0.0612479  2.68082e+12
       819.10000    0.0612479  2.68021e+12
       819.20000    0.0612479  2.67960e+12
       819.30000    0.0612479  2.67898e+12
       819.40000    0.0612479  2.67898e+12
       819.50000    0.0607277  2.65684e+12
       819.60000    0.0607277  2.65745e+12
       819.70000    0.0607277  2.65866e+12
       819.80000    0.0607277  2.66048e+12
       819.90000    0.0607277  2.66230e+12
       820.00000    0.0607277  2.66473e+12
       820.10000    0.0607277  2.66716e+12
       820.20000    0.0607277  2.67020e+12
       820.30000    0.0607277  2.67384e+12
       820.40000    0.0607277  2.67749e+12
       820.50000    0.0602910  2.66245e+12
       820.60000    0.0602910  2.66667e+12
       820.70000    0.0602910  2.67150e+12
       820.80000    0.0602910  2.67632e+12
       820.90000    0.0602910  2.68174e+12
       821.00000    0.0602910  2.68777e+12
       821.10000    0.0602910  2.68657e+12
       821.20000    0.0602910  2.68597e+12
       821.30000    0.0589006  2.62284e+12
       821.40000    0.0589006  2.62225e+12
       821.50000    0.0586061  2.60797e+12
       821.60000    0.0586061  2.60739e+12
       821.70000    0.0586061  2.60680e+12
       821.80000    0.0586061  2.60563e+12
       821.90000    0.0586061  2.60504e+12
       822.00000    0.0586061  2.60446e+12
       822.10000    0.0586061  2.60446e+12
       822.20000    0.0586061  2.60387e+12
       822.30000    0.0586061  2.60328e+12
       822.40000    0.0586061  2.60328e+12
       822.50000    0.0582748  2.58799e+12
       822.60000    0.0582748  2.58799e+12
       822.70000    0.0582748  2.58740e+12
       822.80000    0.0582748  2.58740e+12
       822.90000    0.0582748  2.58740e+12
       823.00000    0.0582748  2.58740e+12
       823.10000    0.0582748  2.58740e+12
       823.20000    0.0582748  2.58740e+12
       823.30000    0.0582748  2.58740e+12
       823.40000    0.0582748  2.58740e+12
       823.50000    0.0578039  2.56707e+12
       823.60000    0.0578039  2.56707e+12
       823.70000    0.0578039  2.56765e+12
       823.80000    0.0565190  2.51057e+12
       823.90000    0.0565190  2.51114e+12
       824.00000    0.0565190  2.51170e+12
       824.10000    0.0565190  2.51227e+12
       824.20000    0.0565190  2.51283e+12
       824.30000    0.0565190  2.51340e+12
       824.40000    0.0565190  2.51453e+12
       824.50000    0.0561021  2.49655e+12
       824.60000    0.0561021  2.49767e+12
       824.70000    0.0561021  2.49823e+12
       824.80000    0.0561021  2.49935e+12
       824.90000    0.0561021  2.50047e+12
       825.00000    0.0561021  2.50159e+12
       825.10000    0.0561021  2.50272e+12
       825.20000    0.0561021  2.50384e+12
       825.30000    0.0561021  2.50552e+12
       825.40000    0.0561021  2.50664e+12
       825.50000    0.0559265  2.50048e+12
       825.60000    0.0559265  2.50159e+12
       825.70000    0.0559265  2.50327e+12
       825.80000    0.0559265  2.50495e+12
       825.90000    0.0559265  2.50663e+12
       826.00000    0.0559265  2.50830e+12
       826.10000    0.0559265  2.50998e+12
       826.20000    0.0559265  2.51110e+12
       826.30000    0.0547881  2.46163e+12
       826.40000    0.0547881  2.46273e+12
       826.50000    0.0543249  2.44245e+12
       826.60000    0.0543249  2.44353e+12
       826.70000    0.0543249  2.44462e+12
       826.80000    0.0543249  2.44516e+12
       826.90000    0.0543249  2.44570e+12
       827.00000    0.0543249  2.44625e+12
       827.10000    0.0543249  2.44625e+12
       827.20000    0.0543249  2.44679e+12
       827.30000    0.0543249  2.44679e+12
       827.40000    0.0543249  2.44679e+12
       827.50000    0.0539210  2.42860e+12
       827.60000    0.0539210  2.42860e+12
       827.70000    0.0539210  2.42806e+12
       827.80000    0.0539210  2.42752e+12
       827.90000    0.0539210  2.42698e+12
       828.00000    0.0539210  2.42644e+12
       828.10000    0.0539210  2.42483e+12
       828.20000    0.0539210  2.42267e+12
       828.30000    0.0539210  2.42051e+12
       828.40000    0.0539210  2.41836e+12
       828.50000    0.0534785  2.39691e+12
       828.60000    0.0534785  2.39477e+12
       828.70000    0.0534785  2.39316e+12
       828.80000    0.0524285  2.34460e+12
       828.90000    0.0524285  2.34250e+12
       829.00000    0.0524285  2.34093e+12
       829.10000    0.0524285  2.33936e+12
       829.20000    0.0524285  2.33778e+12
       829.30000    0.0524285  2.33621e+12
       829.40000    0.0524285  2.33464e+12
       829.50000    0.0521939  2.32263e+12
       829.60000    0.0521939  2.32106e+12
       829.70000    0.0521939  2.31950e+12
       829.80000    0.0521939  2.31793e+12
       829.90000    0.0521939  2.31689e+12
       830.00000    0.0521939  2.31532e+12
       830.10000    0.0521939  2.31428e+12
       830.20000    0.0521939  2.31271e+12
       830.30000    0.0521939  2.31167e+12
       830.40000    0.0521939  2.31010e+12
       830.50000    0.0518355  2.29320e+12
       830.60000    0.0518355  2.29217e+12
       830.70000    0.0518355  2.29061e+12
       830.80000    0.0518355  2.28958e+12
       830.90000    0.0518355  2.28854e+12
       831.00000    0.0518355  2.28750e+12
       831.10000    0.0518355  2.28647e+12
       831.20000    0.0518355  2.28543e+12
       831.30000    0.0508026  2.23938e+12
       831.40000    0.0508026  2.23836e+12
       831.50000    0.0503575  2.21774e+12
       831.60000    0.0503575  2.21724e+12
       831.70000    0.0503575  2.21623e+12
       831.80000    0.0503575  2.21523e+12
       831.90000    0.0503575  2.21472e+12
       832.00000    0.0503575  2.21422e+12
       832.10000    0.0503575  2.21220e+12
       832.20000    0.0503575  2.21019e+12
       832.30000    0.0503575  2.20868e+12
       832.40000    0.0503575  2.20717e+12
       832.50000    0.0500588  2.19258e+12
       832.60000    0.0500588  2.19157e+12
       832.70000    0.0500588  2.19057e+12
       832.80000    0.0500588  2.18907e+12
       832.90000    0.0500588  2.18857e+12
       833.00000    0.0500588  2.18757e+12
       833.10000    0.0500588  2.18657e+12
       833.20000    0.0500588  2.18607e+12
       833.30000    0.0500588  2.18557e+12
       833.40000    0.0500588  2.18507e+12
       833.50000    0.0497973  2.17365e+12
       833.60000    0.0497973  2.17315e+12
       833.70000    0.0497973  2.17315e+12
       833.80000    0.0488680  2.13260e+12
       833.90000    0.0488680  2.13309e+12
       834.00000    0.0488680  2.13309e+12
       834.10000    0.0488680  2.13553e+12
       834.20000    0.0488680  2.13748e+12
       834.30000    0.0488680  2.13993e+12
       834.40000    0.0488680  2.14188e+12
       834.50000    0.0484268  2.12448e+12
       834.60000    0.0484268  2.12642e+12
       834.70000    0.0484268  2.12787e+12
       834.80000    0.0484268  2.12933e+12
       834.90000    0.0484268  2.13126e+12
       835.00000    0.0484268  2.13272e+12
       835.10000    0.0484268  2.13368e+12
       835.20000    0.0484268  2.13514e+12
       835.30000    0.0484268  2.13611e+12
       835.40000    0.0484268  2.13707e+12
       835.50000    0.0481058  2.12387e+12
       835.60000    0.0481058  2.12483e+12
       835.70000    0.0481058  2.12531e+12
       835.80000    0.0481058  2.12628e+12
       835.90000    0.0481058  2.12676e+12
       836.00000    0.0481058  2.12724e+12
       836.10000    0.0481058  2.12628e+12
       836.20000    0.0481058  2.12580e+12
       836.30000    0.0473283  2.09049e+12
       836.40000    0.0473283  2.09002e+12
       836.50000    0.0470121  2.07558e+12
       836.60000    0.0470121  2.07464e+12
       836.70000    0.0470121  2.07417e+12
       836.80000    0.0470121  2.07370e+12
       836.90000    0.0470121  2.07276e+12
       837.00000    0.0470121  2.07229e+12
       837.10000    0.0470121  2.07182e+12
       837.20000    0.0470121  2.07135e+12
       837.30000    0.0470121  2.07088e+12
       837.40000    0.0470121  2.07041e+12
       837.50000    0.0466513  2.05406e+12
       837.60000    0.0466513  2.05359e+12
       837.70000    0.0466513  2.05313e+12
       837.80000    0.0466513  2.05266e+12
       837.90000    0.0466513  2.05266e+12
       838.00000    0.0466513  2.05219e+12
       838.10000    0.0466513  2.05173e+12
       838.20000    0.0466513  2.05173e+12
       838.30000    0.0466513  2.05173e+12
       838.40000    0.0466513  2.05173e+12
       838.50000    0.0463034  2.03596e+12
       838.60000    0.0463034  2.03596e+12
       838.70000    0.0463034  2.03596e+12
       838.80000    0.0456227  2.00557e+12
       838.90000    0.0456227  2.00557e+12
       839.00000    0.0456227  2.00557e+12
       839.10000    0.0456227  2.00512e+12
       839.20000    0.0456227  2.00512e+12
       839.30000    0.0456227  2.00512e+12
       839.40000    0.0456227  2.00466e+12
       839.50000    0.0454012  1.99493e+12
       839.60000    0.0454012  1.99493e+12
       839.70000    0.0454012  1.99447e+12
       839.80000    0.0454012  1.99447e+12
       839.90000    0.0454012  1.99447e+12
       840.00000    0.0454012  1.99402e+12
       840.10000    0.0454012  1.99402e+12
       840.20000    0.0454012  1.99402e+12
       840.30000    0.0454012  1.99357e+12
       840.40000    0.0454012  1.99357e+12
       840.50000    0.0450553  1.97838e+12
       840.60000    0.0450553  1.97793e+12
       840.70000    0.0450553  1.97793e+12
       840.80000    0.0450553  1.97793e+12
       840.90000    0.0450553  1.97748e+12
       841.00000    0.0450553  1.97748e+12
       841.10000    0.0450553  1.97748e+12
       841.20000    0.0450553  1.97748e+12
       841.30000    0.0443258  1.94501e+12
       841.40000    0.0443258  1.94501e+12
       841.50000    0.0439483  1.92845e+12
       841.60000    0.0439483  1.92801e+12
       841.70000    0.0439483  1.92801e+12
       841.80000    0.0439483  1.92801e+12
       841.90000    0.0439483  1.92757e+12
       842.00000    0.0439483  1.92757e+12
       842.10000    0.0439483  1.92581e+12
       842.20000    0.0439483  1.92450e+12
       842.30000    0.0439483  1.92318e+12
       842.40000    0.0439483  1.92142e+12
       842.50000    0.0435423  1.90236e+12
       842.60000    0.0435423  1.90149e+12
       842.70000    0.0435423  1.90019e+12
       842.80000    0.0435423  1.89931e+12
       842.90000    0.0435423  1.89801e+12
       843.00000    0.0435423  1.89714e+12
       843.10000    0.0435423  1.89627e+12
       843.20000    0.0435423  1.89540e+12
       843.30000    0.0435423  1.89496e+12
       843.40000    0.0435423  1.89409e+12
       843.50000    0.0433047  1.88332e+12
       843.60000    0.0433047  1.88289e+12
       843.70000    0.0433047  1.88245e+12
       843.80000    0.0425494  1.84920e+12
       843.90000    0.0425494  1.84920e+12
       844.00000    0.0425494  1.84877e+12
       844.10000    0.0425494  1.85005e+12
       844.20000    0.0425494  1.85090e+12
       844.30000    0.0425494  1.85175e+12
       844.40000    0.0425494  1.85260e+12
       844.50000    0.0422298  1.83953e+12
       844.60000    0.0422298  1.84037e+12
       844.70000    0.0422298  1.84080e+12
       844.80000    0.0422298  1.84164e+12
       844.90000    0.0422298  1.84206e+12
       845.00000    0.0422298  1.84291e+12
       845.10000    0.0422298  1.84333e+12
       845.20000    0.0422298  1.84375e+12
       845.30000    0.0422298  1.84460e+12
       845.40000    0.0422298  1.84502e+12
       845.50000    0.0418706  1.82933e+12
       845.60000    0.0418706  1.82975e+12
       845.70000    0.0418706  1.83017e+12
       845.80000    0.0418706  1.83058e+12
       845.90000    0.0418706  1.83058e+12
       846.00000    0.0418706  1.83100e+12
       846.10000    0.0418706  1.83100e+12
       846.20000    0.0418706  1.83100e+12
       846.30000    0.0410868  1.79672e+12
       846.40000    0.0410868  1.79714e+12
       846.50000    0.0408459  1.78660e+12
       846.60000    0.0408459  1.78619e+12
       846.70000    0.0408459  1.78619e+12
       846.80000    0.0408459  1.78619e+12
       846.90000    0.0408459  1.78578e+12
       847.00000    0.0408459  1.78578e+12
       847.10000    0.0408459  1.78538e+12
       847.20000    0.0408459  1.78538e+12
       847.30000    0.0408459  1.78497e+12
       847.40000    0.0408459  1.78456e+12
       847.50000    0.0404881  1.76852e+12
       847.60000    0.0404881  1.76811e+12
       847.70000    0.0404881  1.76771e+12
       847.80000    0.0404881  1.76730e+12
       847.90000    0.0404881  1.76650e+12
       848.00000    0.0404881  1.76609e+12
       848.10000    0.0404881  1.75759e+12
       848.20000    0.0404881  1.74989e+12
       848.30000    0.0404881  1.74220e+12
       848.40000    0.0404881  1.73491e+12
       848.50000    0.0401546  1.71380e+12
       848.60000    0.0401546  1.70777e+12
       848.70000    0.0401546  1.70175e+12
       848.80000    0.0394202  1.66511e+12
       848.90000    0.0394202  1.65998e+12
       849.00000    0.0394202  1.65525e+12
       849.10000    0.0394202  1.65052e+12
       849.20000    0.0394202  1.64658e+12
       849.30000    0.0394202  1.64303e+12
       849.40000    0.0394202  1.63948e+12
       849.50000    0.0388073  1.61128e+12
       849.60000    0.0388073  1.60856e+12
       849.70000    0.0388073  1.60662e+12
       849.80000    0.0388073  1.60468e+12
       849.90000    0.0388073  1.60313e+12
       850.00000    0.0388073  1.60197e+12
       850.10000    0.0388073  1.61050e+12
       850.20000    0.0388073  1.61865e+12
       850.30000    0.0388073  1.62603e+12
       850.40000    0.0388073  1.63262e+12
       850.50000    0.0384790  1.62497e+12
       850.60000    0.0384790  1.63035e+12
       850.70000    0.0384790  1.63497e+12
       850.80000    0.0384790  1.63920e+12
       850.90000    0.0384790  1.64267e+12
       851.00000    0.0384790  1.64575e+12
       851.10000    0.0384790  1.64805e+12
       851.20000    0.0384790  1.64998e+12
       851.30000    0.0378159  1.62268e+12
       851.40000    0.0378159  1.62306e+12
       851.50000    0.0375487  1.61159e+12
       851.60000    0.0375487  1.61084e+12
       851.70000    0.0375487  1.60971e+12
       851.80000    0.0375487  1.60784e+12
       851.90000    0.0375487  1.60521e+12
       852.00000    0.0375487  1.60220e+12
       852.10000    0.0375487  1.59845e+12
       852.20000    0.0375487  1.59432e+12
       852.30000    0.0375487  1.58944e+12
       852.40000    0.0375487  1.58418e+12
       852.50000    0.0372276  1.56431e+12
       852.60000    0.0372276  1.55798e+12
       852.70000    0.0372276  1.55053e+12
       852.80000    0.0372276  1.54309e+12
       852.90000    0.0372276  1.53452e+12
       853.00000    0.0372276  1.52559e+12
       853.10000    0.0372276  1.51591e+12
       853.20000    0.0372276  1.50586e+12
       853.30000    0.0372276  1.49506e+12
       853.40000    0.0372276  1.48389e+12
       853.50000    0.0369249  1.46001e+12
       853.60000    0.0369249  1.44746e+12
       853.70000    0.0369249  1.43453e+12
       853.80000    0.0362930  1.39656e+12
       853.90000    0.0362930  1.38276e+12
       854.00000    0.0362930  1.36825e+12
       854.10000    0.0362930  1.37841e+12
       854.20000    0.0362930  1.38857e+12
       854.30000    0.0362930  1.39837e+12
       854.40000    0.0362930  1.40781e+12
       854.50000    0.0360444  1.40717e+12
       854.60000    0.0360444  1.41619e+12
       854.70000    0.0360444  1.42484e+12
       854.80000    0.0360444  1.43313e+12
       854.90000    0.0360444  1.44142e+12
       855.00000    0.0360444  1.44935e+12
       855.10000    0.0360444  1.45692e+12
       855.20000    0.0360444  1.46412e+12
       855.30000    0.0360444  1.47133e+12
       855.40000    0.0360444  1.47782e+12
       855.50000    0.0357300  1.47172e+12
       855.60000    0.0357300  1.47779e+12
       855.70000    0.0357300  1.48387e+12
       855.80000    0.0357300  1.48958e+12
       855.90000    0.0357300  1.49494e+12
       856.00000    0.0357300  1.49995e+12
       856.10000    0.0357300  1.50388e+12
       856.20000    0.0357300  1.50745e+12
       856.30000    0.0350083  1.48050e+12
       856.40000    0.0350083  1.48400e+12
       856.50000    0.0347441  1.47593e+12
       856.60000    0.0347441  1.47905e+12
       856.70000    0.0347441  1.48183e+12
       856.80000    0.0347441  1.48461e+12
       856.90000    0.0347441  1.48705e+12
       857.00000    0.0347441  1.48948e+12
       857.10000    0.0347441  1.49191e+12
       857.20000    0.0347441  1.49399e+12
       857.30000    0.0347441  1.49608e+12
       857.40000    0.0347441  1.49782e+12
       857.50000    0.0344367  1.48629e+12
       857.60000    0.0344367  1.48801e+12
       857.70000    0.0344367  1.48939e+12
       857.80000    0.0344367  1.49076e+12
       857.90000    0.0344367  1.49180e+12
       858.00000    0.0344367  1.49318e+12
       858.10000    0.0344367  1.49386e+12
       858.20000    0.0344367  1.49455e+12
       858.30000    0.0344367  1.49524e+12
       858.40000    0.0344367  1.49559e+12
       858.50000    0.0341760  1.48461e+12
       858.60000    0.0341760  1.48495e+12
       858.70000    0.0341760  1.48495e+12
       858.80000    0.0334451  1.45319e+12
       858.90000    0.0334451  1.45285e+12
       859.00000    0.0334451  1.45252e+12
       859.10000    0.0334451  1.45219e+12
       859.20000    0.0334451  1.45152e+12
       859.30000    0.0334451  1.45085e+12
       859.40000    0.0334451  1.44984e+12
       859.50000    0.0331876  1.43769e+12
       859.60000    0.0331876  1.43669e+12
       859.70000    0.0331876  1.43536e+12
       859.80000    0.0331876  1.43370e+12
       859.90000    0.0331876  1.43238e+12
       860.00000    0.0331876  1.43072e+12
       860.10000    0.0331876  1.43039e+12
       860.20000    0.0331876  1.43005e+12
       860.30000    0.0331876  1.43005e+12
       860.40000    0.0331876  1.43005e+12
       860.50000    0.0329168  1.41805e+12
       860.60000    0.0329168  1.41805e+12
       860.70000    0.0329168  1.41805e+12
       860.80000    0.0329168  1.41805e+12
       860.90000    0.0329168  1.41805e+12
       861.00000    0.0329168  1.41805e+12
       861.10000    0.0329168  1.41805e+12
       861.20000    0.0329168  1.41805e+12
       861.30000    0.0322170  1.38791e+12
       861.40000    0.0322170  1.38823e+12
       861.50000    0.0319089  1.37496e+12
       861.60000    0.0319089  1.37496e+12
       861.70000    0.0319089  1.37528e+12
       861.80000    0.0319089  1.37559e+12
       861.90000    0.0319089  1.37559e+12
       862.00000    0.0319089  1.37591e+12
       862.10000    0.0319089  1.38038e+12
       862.20000    0.0319089  1.38421e+12
       862.30000    0.0319089  1.38772e+12
       862.40000    0.0319089  1.39091e+12
       862.50000    0.0316852  1.38369e+12
       862.60000    0.0316852  1.38591e+12
       862.70000    0.0316852  1.38781e+12
       862.80000    0.0316852  1.38940e+12
       862.90000    0.0316852  1.39035e+12
       863.00000    0.0316852  1.39098e+12
       863.10000    0.0316852  1.39130e+12
       863.20000    0.0316852  1.39130e+12
       863.30000    0.0316852  1.39066e+12
       863.40000    0.0316852  1.38971e+12
       863.50000    0.0314174  1.37671e+12
       863.60000    0.0314174  1.37482e+12
       863.70000    0.0314174  1.37263e+12
       863.80000    0.0307457  1.34082e+12
       863.90000    0.0307457  1.33805e+12
       864.00000    0.0307457  1.33467e+12
       864.10000    0.0307457  1.33098e+12
       864.20000    0.0307457  1.32698e+12
       864.30000    0.0307457  1.32237e+12
       864.40000    0.0307457  1.31776e+12
       864.50000    0.0304808  1.30092e+12
       864.60000    0.0304808  1.29543e+12
       864.70000    0.0304808  1.28934e+12
       864.80000    0.0304808  1.28324e+12
       864.90000    0.0304808  1.27623e+12
       865.00000    0.0304808  1.26922e+12
       865.10000    0.0304808  1.26160e+12
       865.20000    0.0304808  1.25368e+12
       865.30000    0.0304808  1.24545e+12
       865.40000    0.0304808  1.23661e+12
       865.50000    0.0302169  1.21684e+12
       865.60000    0.0302169  1.20747e+12
       865.70000    0.0302169  1.19780e+12
       865.80000    0.0302169  1.18753e+12
       865.90000    0.0302169  1.17695e+12
       866.00000    0.0302169  1.16607e+12
       866.10000    0.0302169  1.17030e+12
       866.20000    0.0302169  1.17423e+12
       866.30000    0.0295742  1.15339e+12
       866.40000    0.0295742  1.15724e+12
       866.50000    0.0293195  1.15109e+12
       866.60000    0.0293195  1.15490e+12
       866.70000    0.0293195  1.15871e+12
       866.80000    0.0293195  1.16252e+12
       866.90000    0.0293195  1.16604e+12
       867.00000    0.0293195  1.16956e+12
       867.10000    0.0293195  1.17307e+12
       867.20000    0.0293195  1.17659e+12
       867.30000    0.0293195  1.18011e+12
       867.40000    0.0293195  1.18334e+12
       867.50000    0.0290494  1.17563e+12
       867.60000    0.0290494  1.17882e+12
       867.70000    0.0290494  1.18202e+12
       867.80000    0.0290494  1.18522e+12
       867.90000    0.0290494  1.18812e+12
       868.00000    0.0290494  1.19103e+12
       868.10000    0.0290494  1.19422e+12
       868.20000    0.0290494  1.19742e+12
       868.30000    0.0290494  1.20032e+12
       868.40000    0.0290494  1.20323e+12
       868.50000    0.0288201  1.19661e+12
       868.60000    0.0288201  1.19920e+12
       868.70000    0.0288201  1.20209e+12
       868.80000    0.0281891  1.17802e+12
       868.90000    0.0281891  1.18056e+12
       869.00000    0.0281891  1.18282e+12
       869.10000    0.0281891  1.18507e+12
       869.20000    0.0281891  1.18733e+12
       869.30000    0.0281891  1.18958e+12
       869.40000    0.0281891  1.19155e+12
       869.50000    0.0279329  1.18268e+12
       869.60000    0.0279329  1.18436e+12
       869.70000    0.0279329  1.18603e+12
       869.80000    0.0279329  1.18771e+12
       869.90000    0.0279329  1.18938e+12
       870.00000    0.0279329  1.19106e+12
       870.10000    0.0279329  1.19246e+12
       870.20000    0.0279329  1.19385e+12
       870.30000    0.0279329  1.19497e+12
       870.40000    0.0279329  1.19609e+12
       870.50000    0.0277000  1.18722e+12
       870.60000    0.0277000  1.18833e+12
       870.70000    0.0277000  1.18916e+12
       870.80000    0.0277000  1.19027e+12
       870.90000    0.0277000  1.19082e+12
       871.00000    0.0277000  1.19165e+12
       871.10000    0.0277000  1.19221e+12
       871.20000    0.0277000  1.19276e+12
       871.30000    0.0271192  1.16830e+12
       871.40000    0.0271192  1.16857e+12
       871.50000    0.0268697  1.15808e+12
       871.60000    0.0268697  1.15835e+12
       871.70000    0.0268697  1.15835e+12
       871.80000    0.0268697  1.15862e+12
       871.90000    0.0268697  1.15835e+12
       872.00000    0.0268697  1.15835e+12
       872.10000    0.0268697  1.15754e+12
       872.20000    0.0268697  1.15701e+12
       872.30000    0.0268697  1.15620e+12
       872.40000    0.0268697  1.15566e+12
       872.50000    0.0266307  1.14459e+12
       872.60000    0.0266307  1.14406e+12
       872.70000    0.0266307  1.14352e+12
       872.80000    0.0266307  1.14299e+12
       872.90000    0.0266307  1.14219e+12
       873.00000    0.0266307  1.14166e+12
       873.10000    0.0266307  1.14113e+12
       873.20000    0.0266307  1.14059e+12
       873.30000    0.0266307  1.14006e+12
       873.40000    0.0266307  1.13953e+12
       873.50000    0.0263808  1.12831e+12
       873.60000    0.0263808  1.12778e+12
       873.70000    0.0263808  1.12725e+12
       873.80000    0.0257821  1.10141e+12
       873.90000    0.0257821  1.10090e+12
       874.00000    0.0257821  1.10038e+12
       874.10000    0.0257821  1.09961e+12
       874.20000    0.0257821  1.09883e+12
       874.30000    0.0257821  1.09832e+12
       874.40000    0.0257821  1.09754e+12
       874.50000    0.0255248  1.08608e+12
       874.60000    0.0255248  1.08557e+12
       874.70000    0.0255248  1.08506e+12
       874.80000    0.0255248  1.08481e+12
       874.90000    0.0255248  1.08430e+12
       875.00000    0.0255248  1.08404e+12
       875.10000    0.0255248  1.08378e+12
       875.20000    0.0255248  1.08353e+12
       875.30000    0.0255248  1.08353e+12
       875.40000    0.0255248  1.08327e+12
       875.50000    0.0252977  1.07363e+12
       875.60000    0.0252977  1.07363e+12
       875.70000    0.0252977  1.07363e+12
       875.80000    0.0252977  1.07389e+12
       875.90000    0.0252977  1.07389e+12
       876.00000    0.0252977  1.07414e+12
       876.10000    0.0252977  1.07439e+12
       876.20000    0.0252977  1.07464e+12
       876.30000    0.0246936  1.04923e+12
       876.40000    0.0246936  1.04972e+12
       876.50000    0.0244631  1.04042e+12
       876.60000    0.0244631  1.04091e+12
       876.70000    0.0244631  1.04140e+12
       876.80000    0.0244631  1.04188e+12
       876.90000    0.0244631  1.04262e+12
       877.00000    0.0244631  1.04335e+12
       877.10000    0.0244631  1.04409e+12
       877.20000    0.0244631  1.04482e+12
       877.30000    0.0244631  1.04555e+12
       877.40000    0.0244631  1.04653e+12
       877.50000    0.0242457  1.03820e+12
       877.60000    0.0242457  1.03917e+12
       877.70000    0.0242457  1.04014e+12
       877.80000    0.0242457  1.04111e+12
       877.90000    0.0242457  1.04232e+12
       878.00000    0.0242457  1.04354e+12
       878.10000    0.0242457  1.04208e+12
       878.20000    0.0242457  1.04087e+12
       878.30000    0.0242457  1.03966e+12
       878.40000    0.0242457  1.03844e+12
       878.50000    0.0240099  1.02714e+12
       878.60000    0.0240099  1.02618e+12
       878.70000    0.0240099  1.02498e+12
       878.80000    0.0234241  9.99039e+11
       878.90000    0.0234241  9.98102e+11
       879.00000    0.0234241  9.97165e+11
       879.10000    0.0234241  9.96228e+11
       879.20000    0.0234241  9.95525e+11
       879.30000    0.0234241  9.94588e+11
       879.40000    0.0234241  9.93886e+11
       879.50000    0.0231648  9.82186e+11
       879.60000    0.0231648  9.81491e+11
       879.70000    0.0231648  9.80796e+11
       879.80000    0.0231648  9.80333e+11
       879.90000    0.0231648  9.79638e+11
       880.00000    0.0231648  9.79175e+11
       880.10000    0.0231648  9.78943e+11
       880.20000    0.0231648  9.78480e+11
       880.30000    0.0231648  9.78248e+11
       880.40000    0.0231648  9.77785e+11
       880.50000    0.0229457  9.68307e+11
       880.60000    0.0229457  9.68077e+11
       880.70000    0.0229457  9.67848e+11
       880.80000    0.0229457  9.67848e+11
       880.90000    0.0229457  9.67618e+11
       881.00000    0.0229457  9.67389e+11
       881.10000    0.0229457  9.67389e+11
       881.20000    0.0229457  9.67389e+11
       881.30000    0.0223982  9.44310e+11
       881.40000    0.0223982  9.44086e+11
       881.50000    0.0221795  9.35087e+11
       881.60000    0.0221795  9.35087e+11
       881.70000    0.0221795  9.35087e+11
       881.80000    0.0221795  9.35309e+11
       881.90000    0.0221795  9.35309e+11
       882.00000    0.0221795  9.35530e+11
       882.10000    0.0221795  9.36639e+11
       882.20000    0.0221795  9.37527e+11
       882.30000    0.0221795  9.38414e+11
       882.40000    0.0221795  9.39301e+11
       882.50000    0.0219564  9.30733e+11
       882.60000    0.0219564  9.31392e+11
       882.70000    0.0219564  9.32051e+11
       882.80000    0.0219564  9.32709e+11
       882.90000    0.0219564  9.33148e+11
       883.00000    0.0219564  9.33587e+11
       883.10000    0.0219564  9.34027e+11
       883.20000    0.0219564  9.34466e+11
       883.30000    0.0219564  9.34685e+11
       883.40000    0.0219564  9.34905e+11
       883.50000    0.0217204  9.25070e+11
       883.60000    0.0217204  9.25070e+11
       883.70000    0.0217204  9.25070e+11
       883.80000    0.0212159  9.03584e+11
       883.90000    0.0212159  9.03372e+11
       884.00000    0.0212159  9.03160e+11
       884.10000    0.0212159  9.01887e+11
       884.20000    0.0212159  9.00614e+11
       884.30000    0.0212159  8.99341e+11
       884.40000    0.0212159  8.98068e+11
       884.50000    0.0209999  8.87666e+11
       884.60000    0.0209999  8.86616e+11
       884.70000    0.0209999  8.85566e+11
       884.80000    0.0209999  8.84726e+11
       884.90000    0.0209999  8.83676e+11
       885.00000    0.0209999  8.82836e+11
       885.10000    0.0209999  8.82206e+11
       885.20000    0.0209999  8.81366e+11
       885.30000    0.0209999  8.80736e+11
       885.40000    0.0209999  8.80106e+11
       885.50000    0.0207938  8.71052e+11
       885.60000    0.0207938  8.70428e+11
       885.70000    0.0207938  8.70012e+11
       885.80000    0.0207938  8.69804e+11
       885.90000    0.0207938  8.69388e+11
       886.00000    0.0207938  8.69180e+11
       886.10000    0.0207938  8.68972e+11
       886.20000    0.0207938  8.68764e+11
       886.30000    0.0203301  8.49390e+11
       886.40000    0.0203301  8.49390e+11
       886.50000    0.0200937  8.39513e+11
       886.60000    0.0200937  8.39714e+11
       886.70000    0.0200937  8.39915e+11
       886.80000    0.0200937  8.40116e+11
       886.90000    0.0200937  8.40317e+11
       887.00000    0.0200937  8.40719e+11
       887.10000    0.0200937  8.41120e+11
       887.20000    0.0200937  8.41522e+11
       887.30000    0.0200937  8.41924e+11
       887.40000    0.0200937  8.42527e+11
       887.50000    0.0198915  8.34648e+11
       887.60000    0.0198915  8.35443e+11
       887.70000    0.0198915  8.36040e+11
       887.80000    0.0198915  8.36836e+11
       887.90000    0.0198915  8.37830e+11
       888.00000    0.0198915  8.38626e+11
       888.10000    0.0198915  8.39621e+11
       888.20000    0.0198915  8.40416e+11
       888.30000    0.0198915  8.41411e+11
       888.40000    0.0198915  8.42207e+11
       888.50000    0.0196640  8.33359e+11
       888.60000    0.0196640  8.33949e+11
       888.70000    0.0196640  8.34539e+11
       888.80000    0.0192718  8.18474e+11
       888.90000    0.0192718  8.19052e+11
       889.00000    0.0192718  8.19630e+11
       889.10000    0.0192718  8.20015e+11
       889.20000    0.0192718  8.20401e+11
       889.30000    0.0192718  8.20786e+11
       889.40000    0.0192718  8.20979e+11
       889.50000    0.0190662  8.12601e+11
       889.60000    0.0190662  8.12791e+11
       889.70000    0.0190662  8.12982e+11
       889.80000    0.0190662  8.12982e+11
       889.90000    0.0190662  8.12982e+11
       890.00000    0.0190662  8.12982e+11
       890.10000    0.0190662  8.12410e+11
       890.20000    0.0190662  8.11838e+11
       890.30000    0.0190662  8.11266e+11
       890.40000    0.0190662  8.10694e+11
       890.50000    0.0188539  8.01102e+11
       890.60000    0.0188539  8.00537e+11
       890.70000    0.0188539  7.99971e+11
       890.80000    0.0188539  7.99406e+11
       890.90000    0.0188539  7.98840e+11
       891.00000    0.0188539  7.98463e+11
       891.10000    0.0188539  7.97897e+11
       891.20000    0.0188539  7.97520e+11
       891.30000    0.0185185  7.82779e+11
       891.40000    0.0185185  7.82409e+11
       891.50000    0.0183062  7.73071e+11
       891.60000    0.0183062  7.72705e+11
       891.70000    0.0183062  7.72339e+11
       891.80000    0.0183062  7.71973e+11
       891.90000    0.0183062  7.71607e+11
       892.00000    0.0183062  7.71241e+11
       892.10000    0.0183062  7.70874e+11
       892.20000    0.0183062  7.70691e+11
       892.30000    0.0183062  7.70325e+11
       892.40000    0.0183062  7.70142e+11
       892.50000    0.0180936  7.60835e+11
       892.60000    0.0180936  7.60654e+11
       892.70000    0.0180936  7.60473e+11
       892.80000    0.0180936  7.60292e+11
       892.90000    0.0180936  7.60111e+11
       893.00000    0.0180936  7.59930e+11
       893.10000    0.0180936  7.59749e+11
       893.20000    0.0180936  7.59568e+11
       893.30000    0.0180936  7.59387e+11
       893.40000    0.0180936  7.59387e+11
       893.50000    0.0178871  7.50542e+11
       893.60000    0.0178871  7.50542e+11
       893.70000    0.0178871  7.50363e+11
       893.80000    0.0175785  7.37417e+11
       893.90000    0.0175785  7.37417e+11
       894.00000    0.0175785  7.37417e+11
       894.10000    0.0175785  7.37945e+11
       894.20000    0.0175785  7.38296e+11
       894.30000    0.0175785  7.38824e+11
       894.40000    0.0175785  7.39175e+11
       894.50000    0.0173702  7.30939e+11
       894.60000    0.0173702  7.31286e+11
       894.70000    0.0173702  7.31634e+11
       894.80000    0.0173702  7.31981e+11
       894.90000    0.0173702  7.32329e+11
       895.00000    0.0173702  7.32676e+11
       895.10000    0.0173702  7.32850e+11
       895.20000    0.0173702  7.33197e+11
       895.30000    0.0173702  7.33371e+11
       895.40000    0.0173702  7.33545e+11
       895.50000    0.0171723  7.25532e+11
       895.60000    0.0171723  7.25703e+11
       895.70000    0.0171723  7.25875e+11
       895.80000    0.0171723  7.25875e+11
       895.90000    0.0171723  7.26047e+11
       896.00000    0.0171723  7.26219e+11
       896.10000    0.0171723  7.26390e+11
       896.20000    0.0171723  7.26390e+11
       896.30000    0.0169197  7.15874e+11
       896.40000    0.0169197  7.15874e+11
       896.50000    0.0167169  7.07290e+11
       896.60000    0.0167169  7.07290e+11
       896.70000    0.0167169  7.07290e+11
       896.80000    0.0167169  7.07290e+11
       896.90000    0.0167169  7.07290e+11
       897.00000    0.0167169  7.07123e+11
       897.10000    0.0167169  7.07123e+11
       897.20000    0.0167169  7.06956e+11
       897.30000    0.0167169  7.06789e+11
       897.40000    0.0167169  7.06622e+11
       897.50000    0.0165039  6.97290e+11
       897.60000    0.0165039  6.97125e+11
       897.70000    0.0165039  6.96794e+11
       897.80000    0.0165039  6.96629e+11
       897.90000    0.0165039  6.96299e+11
       898.00000    0.0165039  6.95969e+11
       898.10000    0.0165039  6.95474e+11
       898.20000    0.0165039  6.95144e+11
       898.30000    0.0165039  6.94814e+11
       898.40000    0.0165039  6.94319e+11
       898.50000    0.0163128  6.85792e+11
       898.60000    0.0163128  6.85303e+11
       898.70000    0.0163128  6.84813e+11
       898.80000    0.0160718  6.74213e+11
       898.90000    0.0160718  6.73570e+11
       899.00000    0.0160718  6.73088e+11
       899.10000    0.0160718  6.72445e+11
       899.20000    0.0160718  6.71803e+11
       899.30000    0.0160718  6.71160e+11
       899.40000    0.0160718  6.70517e+11
       899.50000    0.0158715  6.61523e+11
       899.60000    0.0158715  6.60730e+11
       899.70000    0.0158715  6.60095e+11
       899.80000    0.0158715  6.59301e+11
       899.90000    0.0158715  6.58508e+11
       900.00000    0.0158715  6.57714e+11
       900.10000    0.0158715  6.55809e+11
       900.20000    0.0158715  6.54222e+11
       900.30000    0.0158715  6.52476e+11
       900.40000    0.0158715  6.51048e+11
       900.50000    0.0157177  6.43325e+11
       900.60000    0.0157177  6.42068e+11
       900.70000    0.0157177  6.40810e+11
       900.80000    0.0157177  6.39867e+11
       900.90000    0.0157177  6.38924e+11
       901.00000    0.0157177  6.37981e+11
       901.10000    0.0157177  6.37352e+11
       901.20000    0.0157177  6.36724e+11
       901.30000    0.0154945  6.27061e+11
       901.40000    0.0154945  6.26751e+11
       901.50000    0.0153517  6.20667e+11
       901.60000    0.0153517  6.20514e+11
       901.70000    0.0153517  6.20360e+11
       901.80000    0.0153517  6.20360e+11
       901.90000    0.0153517  6.20514e+11
       902.00000    0.0153517  6.20821e+11
       902.10000    0.0153517  6.22970e+11
       902.20000    0.0153517  6.24966e+11
       902.30000    0.0153517  6.26962e+11
       902.40000    0.0153517  6.28804e+11
       902.50000    0.0152068  6.24694e+11
       902.60000    0.0152068  6.26366e+11
       902.70000    0.0152068  6.28039e+11
       902.80000    0.0152068  6.29560e+11
       902.90000    0.0152068  6.31081e+11
       903.00000    0.0152068  6.32449e+11
       903.10000    0.0152068  6.33818e+11
       903.20000    0.0152068  6.35034e+11
       903.30000    0.0152068  6.36099e+11
       903.40000    0.0152068  6.37163e+11
       903.50000    0.0150613  6.31972e+11
       903.60000    0.0150613  6.32876e+11
       903.70000    0.0150613  6.33779e+11
       903.80000    0.0148514  6.25542e+11
       903.90000    0.0148514  6.26284e+11
       904.00000    0.0148514  6.26730e+11
       904.10000    0.0148514  6.27175e+11
       904.20000    0.0148514  6.27621e+11
       904.30000    0.0148514  6.27918e+11
       904.40000    0.0148514  6.28066e+11
       904.50000    0.0147135  6.22380e+11
       904.60000    0.0147135  6.22527e+11
       904.70000    0.0147135  6.22527e+11
       904.80000    0.0147135  6.22380e+11
       904.90000    0.0147135  6.22233e+11
       905.00000    0.0147135  6.21939e+11
       905.10000    0.0147135  6.21644e+11
       905.20000    0.0147135  6.21203e+11
       905.30000    0.0147135  6.20762e+11
       905.40000    0.0147135  6.20173e+11
       905.50000    0.0145738  6.13558e+11
       905.60000    0.0145738  6.12829e+11
       905.70000    0.0145738  6.12100e+11
       905.80000    0.0145738  6.11226e+11
       905.90000    0.0145738  6.10206e+11
       906.00000    0.0145738  6.09185e+11
       906.10000    0.0145738  6.08602e+11
       906.20000    0.0145738  6.08165e+11
       906.30000    0.0143632  5.98947e+11
       906.40000    0.0143632  5.98372e+11
       906.50000    0.0142194  5.91953e+11
       906.60000    0.0142194  5.91526e+11
       906.70000    0.0142194  5.91100e+11
       906.80000    0.0142194  5.90673e+11
       906.90000    0.0142194  5.90247e+11
       907.00000    0.0142194  5.89820e+11
       907.10000    0.0142194  5.89393e+11
       907.20000    0.0142194  5.88967e+11
       907.30000    0.0142194  5.88540e+11
       907.40000    0.0142194  5.88114e+11
       907.50000    0.0140858  5.82165e+11
       907.60000    0.0140858  5.81884e+11
       907.70000    0.0140858  5.81461e+11
       907.80000    0.0140858  5.81038e+11
       907.90000    0.0140858  5.80757e+11
       908.00000    0.0140858  5.80334e+11
       908.10000    0.0140858  5.79771e+11
       908.20000    0.0140858  5.79348e+11
       908.30000    0.0140858  5.78785e+11
       908.40000    0.0140858  5.78362e+11
       908.50000    0.0139511  5.72415e+11
       908.60000    0.0139511  5.71997e+11
       908.70000    0.0139511  5.71718e+11
       908.80000    0.0137406  5.62677e+11
       908.90000    0.0137406  5.62402e+11
       909.00000    0.0137406  5.62128e+11
       909.10000    0.0137406  5.61853e+11
       909.20000    0.0137406  5.61578e+11
       909.30000    0.0137406  5.61303e+11
       909.40000    0.0137406  5.61166e+11
       909.50000    0.0136046  5.55476e+11
       909.60000    0.0136046  5.55339e+11
       909.70000    0.0136046  5.55203e+11
       909.80000    0.0136046  5.55067e+11
       909.90000    0.0136046  5.55067e+11
       910.00000    0.0136046  5.54931e+11
       910.10000    0.0136046  5.54931e+11
       910.20000    0.0136046  5.54931e+11
       910.30000    0.0136046  5.55067e+11
       910.40000    0.0136046  5.55067e+11
       910.50000    0.0134674  5.49606e+11
       910.60000    0.0134674  5.49606e+11
       910.70000    0.0134674  5.49740e+11
       910.80000    0.0134674  5.50010e+11
       910.90000    0.0134674  5.50144e+11
       911.00000    0.0134674  5.50279e+11
       911.10000    0.0134674  5.50548e+11
       911.20000    0.0134674  5.50818e+11
       911.30000    0.0132527  5.42302e+11
       911.40000    0.0132527  5.42567e+11
       911.50000    0.0131125  5.37217e+11
       911.60000    0.0131125  5.37480e+11
       911.70000    0.0131125  5.37873e+11
       911.80000    0.0131125  5.38266e+11
       911.90000    0.0131125  5.38660e+11
       912.00000    0.0131125  5.39184e+11
       912.10000    0.0131125  5.39840e+11
       912.20000    0.0131125  5.40364e+11
       912.30000    0.0131125  5.40889e+11
       912.40000    0.0131125  5.41413e+11
       912.50000    0.0129792  5.36430e+11
       912.60000    0.0129792  5.36949e+11
       912.70000    0.0129792  5.37468e+11
       912.80000    0.0129792  5.37858e+11
       912.90000    0.0129792  5.38247e+11
       913.00000    0.0129792  5.38636e+11
       913.10000    0.0129792  5.39026e+11
       913.20000    0.0129792  5.39285e+11
       913.30000    0.0129792  5.39675e+11
       913.40000    0.0129792  5.39934e+11
       913.50000    0.0128443  5.34581e+11
       913.60000    0.0128443  5.34838e+11
       913.70000    0.0128443  5.34966e+11
       913.80000    0.0126242  5.25924e+11
       913.90000    0.0126242  5.26176e+11
       914.00000    0.0126242  5.26302e+11
       914.10000    0.0126242  5.26050e+11
       914.20000    0.0126242  5.25924e+11
       914.30000    0.0126242  5.25797e+11
       914.40000    0.0126242  5.25671e+11
       914.50000    0.0124975  5.20273e+11
       914.60000    0.0124975  5.20023e+11
       914.70000    0.0124975  5.19898e+11
       914.80000    0.0124975  5.19773e+11
       914.90000    0.0124975  5.19648e+11
       915.00000    0.0124975  5.19523e+11
       915.10000    0.0124975  5.19398e+11
       915.20000    0.0124975  5.19273e+11
       915.30000    0.0124975  5.19148e+11
       915.40000    0.0124975  5.19023e+11
       915.50000    0.0123621  5.13273e+11
       915.60000    0.0123621  5.13149e+11
       915.70000    0.0123621  5.13026e+11
       915.80000    0.0123621  5.12902e+11
       915.90000    0.0123621  5.12779e+11
       916.00000    0.0123621  5.12655e+11
       916.10000    0.0123621  5.12531e+11
       916.20000    0.0123621  5.12408e+11
       916.30000    0.0121323  5.02762e+11
       916.40000    0.0121323  5.02640e+11
       916.50000    0.0120006  4.97064e+11
       916.60000    0.0120006  4.97064e+11
       916.70000    0.0120006  4.96943e+11
       916.80000    0.0120006  4.96823e+11
       916.90000    0.0120006  4.96703e+11
       917.00000    0.0120006  4.96583e+11
       917.10000    0.0120006  4.96583e+11
       917.20000    0.0120006  4.96463e+11
       917.30000    0.0120006  4.96343e+11
       917.40000    0.0120006  4.96223e+11
       917.50000    0.0118663  4.90671e+11
       917.60000    0.0118663  4.90552e+11
       917.70000    0.0118663  4.90433e+11
       917.80000    0.0118663  4.90433e+11
       917.90000    0.0118663  4.90315e+11
       918.00000    0.0118663  4.90196e+11
       918.10000    0.0118663  4.90433e+11
       918.20000    0.0118663  4.90671e+11
       918.30000    0.0118663  4.90908e+11
       918.40000    0.0118663  4.91027e+11
       918.50000    0.0117428  4.86036e+11
       918.60000    0.0117428  4.86154e+11
       918.70000    0.0117428  4.86154e+11
       918.80000    0.0115232  4.77060e+11
       918.90000    0.0115232  4.77060e+11
       919.00000    0.0115232  4.77060e+11
       919.10000    0.0115232  4.76945e+11
       919.20000    0.0115232  4.76829e+11
       919.30000    0.0115232  4.76714e+11
       919.40000    0.0115232  4.76484e+11
       919.50000    0.0113888  4.70700e+11
       919.60000    0.0113888  4.70473e+11
       919.70000    0.0113888  4.70245e+11
       919.80000    0.0113888  4.69903e+11
       919.90000    0.0113888  4.69675e+11
       920.00000    0.0113888  4.69334e+11
       920.10000    0.0113888  4.68309e+11
       920.20000    0.0113888  4.67398e+11
       920.30000    0.0113888  4.66487e+11
       920.40000    0.0113888  4.65575e+11
       920.50000    0.0112573  4.59299e+11
       920.60000    0.0112573  4.58511e+11
       920.70000    0.0112573  4.57723e+11
       920.80000    0.0112573  4.57048e+11
       920.90000    0.0112573  4.56260e+11
       921.00000    0.0112573  4.55584e+11
       921.10000    0.0112573  4.54909e+11
       921.20000    0.0112573  4.54346e+11
       921.30000    0.0110411  4.44958e+11
       921.40000    0.0110411  4.44406e+11
       921.50000    0.0109169  4.38860e+11
       921.60000    0.0109169  4.38423e+11
       921.70000    0.0109169  4.37986e+11
       921.80000    0.0109169  4.37550e+11
       921.90000    0.0109169  4.37113e+11
       922.00000    0.0109169  4.36786e+11
       922.10000    0.0109169  4.36349e+11
       922.20000    0.0109169  4.36131e+11
       922.30000    0.0109169  4.35803e+11
       922.40000    0.0109169  4.35585e+11
       922.50000    0.0107926  4.30303e+11
       922.60000    0.0107926  4.30195e+11
       922.70000    0.0107926  4.29979e+11
       922.80000    0.0107926  4.29871e+11
       922.90000    0.0107926  4.29763e+11
       923.00000    0.0107926  4.29655e+11
       923.10000    0.0107926  4.29655e+11
       923.20000    0.0107926  4.29547e+11
       923.30000    0.0107926  4.29547e+11
       923.40000    0.0107926  4.29655e+11
       923.50000    0.0106663  4.24626e+11
       923.60000    0.0106663  4.24733e+11
       923.70000    0.0106663  4.24839e+11
       923.80000    0.0104588  4.16782e+11
       923.90000    0.0104588  4.16886e+11
       924.00000    0.0104588  4.17095e+11
       924.10000    0.0104588  4.17095e+11
       924.20000    0.0104588  4.17095e+11
       924.30000    0.0104588  4.17095e+11
       924.40000    0.0104588  4.17095e+11
       924.50000    0.0103340  4.12121e+11
       924.60000    0.0103340  4.12121e+11
       924.70000    0.0103340  4.12224e+11
       924.80000    0.0103340  4.12328e+11
       924.90000    0.0103340  4.12328e+11
       925.00000    0.0103340  4.12431e+11
       925.10000    0.0103340  4.12638e+11
       925.20000    0.0103340  4.12741e+11
       925.30000    0.0103340  4.12844e+11
       925.40000    0.0103340  4.13051e+11
       925.50000    0.0102027  4.08007e+11
       925.60000    0.0102027  4.08211e+11
       925.70000    0.0102027  4.08415e+11
       925.80000    0.0102027  4.08619e+11
       925.90000    0.0102027  4.08823e+11
       926.00000    0.0102027  4.09129e+11
       926.10000    0.0102027  4.09741e+11
       926.20000    0.0102027  4.10455e+11
       926.30000    0.0100039  4.03057e+11
       926.40000    0.0100039  4.03657e+11
       926.50000   0.00988653  3.99515e+11
       926.60000   0.00988653  4.00009e+11
       926.70000   0.00988653  4.00503e+11
       926.80000   0.00988653  4.00998e+11
       926.90000   0.00988653  4.01492e+11
       927.00000   0.00988653  4.01887e+11
       927.10000   0.00988653  4.02283e+11
       927.20000   0.00988653  4.02678e+11
       927.30000   0.00988653  4.02975e+11
       927.40000   0.00988653  4.03272e+11
       927.50000   0.00976368  3.98553e+11
       927.60000   0.00976368  3.98749e+11
       927.70000   0.00976368  3.99042e+11
       927.80000   0.00976368  3.99237e+11
       927.90000   0.00976368  3.99335e+11
       928.00000   0.00976368  3.99432e+11
       928.10000   0.00976368  3.99237e+11
       928.20000   0.00976368  3.99042e+11
       928.30000   0.00976368  3.98749e+11
       928.40000   0.00976368  3.98553e+11
       928.50000   0.00963961  3.93296e+11
       928.60000   0.00963961  3.93103e+11
       928.70000   0.00963961  3.92911e+11
       928.80000   0.00945314  3.85121e+11
       928.90000   0.00945314  3.84932e+11
       929.00000   0.00945314  3.84837e+11
       929.10000   0.00945314  3.84648e+11
       929.20000   0.00945314  3.84459e+11
       929.30000   0.00945314  3.84365e+11
       929.40000   0.00945314  3.84176e+11
       929.50000   0.00933467  3.79268e+11
       929.60000   0.00933467  3.79174e+11
       929.70000   0.00933467  3.78987e+11
       929.80000   0.00933467  3.78894e+11
       929.90000   0.00933467  3.78801e+11
       930.00000   0.00933467  3.78707e+11
       930.10000   0.00933467  3.78707e+11
       930.20000   0.00933467  3.78707e+11
       930.30000   0.00933467  3.78614e+11
       930.40000   0.00933467  3.78614e+11
       930.50000   0.00921259  3.73663e+11
       930.60000   0.00921259  3.73663e+11
       930.70000   0.00921259  3.73571e+11
       930.80000   0.00921259  3.73571e+11
       930.90000   0.00921259  3.73571e+11
       931.00000   0.00921259  3.73571e+11
       931.10000   0.00921259  3.73571e+11
       931.20000   0.00921259  3.73479e+11
       931.30000   0.00904409  3.66647e+11
       931.40000   0.00904409  3.66647e+11
       931.50000   0.00892762  3.61926e+11
       931.60000   0.00892762  3.61926e+11
       931.70000   0.00892762  3.61926e+11
       931.80000   0.00892762  3.61926e+11
       931.90000   0.00892762  3.61926e+11
       932.00000   0.00892762  3.61926e+11
       932.10000   0.00892762  3.61926e+11
       932.20000   0.00892762  3.61926e+11
       932.30000   0.00892762  3.61926e+11
       932.40000   0.00892762  3.61926e+11
       932.50000   0.00880710  3.57040e+11
       932.60000   0.00880710  3.57040e+11
       932.70000   0.00880710  3.57040e+11
       932.80000   0.00880710  3.57128e+11
       932.90000   0.00880710  3.57128e+11
       933.00000   0.00880710  3.57128e+11
       933.10000   0.00880710  3.57128e+11
       933.20000   0.00880710  3.57128e+11
       933.30000   0.00880710  3.57216e+11
       933.40000   0.00880710  3.57216e+11
       933.50000   0.00868871  3.52414e+11
       933.60000   0.00868871  3.52501e+11
       933.70000   0.00868871  3.52501e+11
       933.80000   0.00854139  3.46524e+11
       933.90000   0.00854139  3.46610e+11
       934.00000   0.00854139  3.46610e+11
       934.10000   0.00854139  3.46354e+11
       934.20000   0.00854139  3.46097e+11
       934.30000   0.00854139  3.45841e+11
       934.40000   0.00854139  3.45585e+11
       934.50000   0.00842333  3.40555e+11
       934.60000   0.00842333  3.40387e+11
       934.70000   0.00842333  3.40218e+11
       934.80000   0.00842333  3.39966e+11
       934.90000   0.00842333  3.39797e+11
       935.00000   0.00842333  3.39713e+11
       935.10000   0.00842333  3.39544e+11
       935.20000   0.00842333  3.39376e+11
       935.30000   0.00842333  3.39292e+11
       935.40000   0.00842333  3.39207e+11
       935.50000   0.00830508  3.34363e+11
       935.60000   0.00830508  3.34280e+11
       935.70000   0.00830508  3.34197e+11
       935.80000   0.00830508  3.34114e+11
       935.90000   0.00830508  3.34114e+11
       936.00000   0.00830508  3.34031e+11
       936.10000   0.00830508  3.34280e+11
       936.20000   0.00830508  3.34529e+11
       936.30000   0.00816851  3.29273e+11
       936.40000   0.00816851  3.29518e+11
       936.50000   0.00805526  3.25110e+11
       936.60000   0.00805526  3.25271e+11
       936.70000   0.00805526  3.25433e+11
       936.80000   0.00805526  3.25594e+11
       936.90000   0.00805526  3.25674e+11
       937.00000   0.00805526  3.25835e+11
       937.10000   0.00805526  3.25916e+11
       937.20000   0.00805526  3.25996e+11
       937.30000   0.00805526  3.25996e+11
       937.40000   0.00805526  3.26077e+11
       937.50000   0.00794119  3.21459e+11
       937.60000   0.00794119  3.21459e+11
       937.70000   0.00794119  3.21459e+11
       937.80000   0.00794119  3.21459e+11
       937.90000   0.00794119  3.21380e+11
       938.00000   0.00794119  3.21380e+11
       938.10000   0.00794119  3.21301e+11
       938.20000   0.00794119  3.21142e+11
       938.30000   0.00794119  3.21062e+11
       938.40000   0.00794119  3.20904e+11
       938.50000   0.00782471  3.16118e+11
       938.60000   0.00782471  3.15962e+11
       938.70000   0.00782471  3.15727e+11
       938.80000   0.00770273  3.10651e+11
       938.90000   0.00770273  3.10420e+11
       939.00000   0.00770273  3.10266e+11
       939.10000   0.00770273  3.10035e+11
       939.20000   0.00770273  3.09727e+11
       939.30000   0.00770273  3.09496e+11
       939.40000   0.00770273  3.09187e+11
       939.50000   0.00758918  3.04326e+11
       939.60000   0.00758918  3.04023e+11
       939.70000   0.00758918  3.03719e+11
       939.80000   0.00758918  3.03415e+11
       939.90000   0.00758918  3.03036e+11
       940.00000   0.00758918  3.02657e+11
       940.10000   0.00758918  3.02125e+11
       940.20000   0.00758918  3.01594e+11
       940.30000   0.00758918  3.01139e+11
       940.40000   0.00758918  3.00683e+11
       940.50000   0.00747290  2.95628e+11
       940.60000   0.00747290  2.95254e+11
       940.70000   0.00747290  2.94880e+11
       940.80000   0.00747290  2.94507e+11
       940.90000   0.00747290  2.94133e+11
       941.00000   0.00747290  2.93834e+11
       941.10000   0.00747290  2.93535e+11
       941.20000   0.00747290  2.93311e+11
       941.30000   0.00736153  2.88719e+11
       941.40000   0.00736153  2.88498e+11
       941.50000   0.00724980  2.83902e+11
       941.60000   0.00724980  2.83757e+11
       941.70000   0.00724980  2.83612e+11
       941.80000   0.00724980  2.83467e+11
       941.90000   0.00724980  2.83322e+11
       942.00000   0.00724980  2.83250e+11
       942.10000   0.00724980  2.83467e+11
       942.20000   0.00724980  2.83612e+11
       942.30000   0.00724980  2.83829e+11
       942.40000   0.00724980  2.83975e+11
       942.50000   0.00714201  2.79895e+11
       942.60000   0.00714201  2.80109e+11
       942.70000   0.00714201  2.80252e+11
       942.80000   0.00714201  2.80395e+11
       942.90000   0.00714201  2.80538e+11
       943.00000   0.00714201  2.80681e+11
       943.10000   0.00714201  2.80895e+11
       943.20000   0.00714201  2.81038e+11
       943.30000   0.00714201  2.81181e+11
       943.40000   0.00714201  2.81324e+11
       943.50000   0.00702863  2.76998e+11
       943.60000   0.00702863  2.77139e+11
       943.70000   0.00702863  2.77280e+11
       943.80000   0.00692144  2.73189e+11
       943.90000   0.00692144  2.73328e+11
       944.00000   0.00692144  2.73466e+11
       944.10000   0.00692144  2.73604e+11
       944.20000   0.00692144  2.73743e+11
       944.30000   0.00692144  2.73812e+11
       944.40000   0.00692144  2.73950e+11
       944.50000   0.00681044  2.69693e+11
       944.60000   0.00681044  2.69830e+11
       944.70000   0.00681044  2.69898e+11
       944.80000   0.00681044  2.70034e+11
       944.90000   0.00681044  2.70170e+11
       945.00000   0.00681044  2.70238e+11
       945.10000   0.00681044  2.70374e+11
       945.20000   0.00681044  2.70511e+11
       945.30000   0.00681044  2.70579e+11
       945.40000   0.00681044  2.70715e+11
       945.50000   0.00670028  2.66403e+11
       945.60000   0.00670028  2.66537e+11
       945.70000   0.00670028  2.66604e+11
       945.80000   0.00670028  2.66738e+11
       945.90000   0.00670028  2.66805e+11
       946.00000   0.00670028  2.66872e+11
       946.10000   0.00670028  2.67006e+11
       946.20000   0.00670028  2.67140e+11
       946.30000   0.00659973  2.63263e+11
       946.40000   0.00659973  2.63395e+11
       946.50000   0.00648775  2.59056e+11
       946.60000   0.00648775  2.59121e+11
       946.70000   0.00648775  2.59251e+11
       946.80000   0.00648775  2.59316e+11
       946.90000   0.00648775  2.59380e+11
       947.00000   0.00648775  2.59510e+11
       947.10000   0.00648775  2.59575e+11
       947.20000   0.00648775  2.59640e+11
       947.30000   0.00648775  2.59705e+11
       947.40000   0.00648775  2.59770e+11
       947.50000   0.00638471  2.55644e+11
       947.60000   0.00638471  2.55707e+11
       947.70000   0.00638471  2.55771e+11
       947.80000   0.00638471  2.55771e+11
       947.90000   0.00638471  2.55835e+11
       948.00000   0.00638471  2.55835e+11
       948.10000   0.00638471  2.55835e+11
       948.20000   0.00638471  2.55835e+11
       948.30000   0.00638471  2.55771e+11
       948.40000   0.00638471  2.55771e+11
       948.50000   0.00627571  2.51342e+11
       948.60000   0.00627571  2.51342e+11
       948.70000   0.00627571  2.51342e+11
       948.80000   0.00617493  2.47244e+11
       948.90000   0.00617493  2.47244e+11
       949.00000   0.00617493  2.47183e+11
       949.10000   0.00617493  2.47183e+11
       949.20000   0.00617493  2.47121e+11
       949.30000   0.00617493  2.47121e+11
       949.40000   0.00617493  2.47059e+11
       949.50000   0.00606892  2.42817e+11
       949.60000   0.00606892  2.42757e+11
       949.70000   0.00606892  2.42696e+11
       949.80000   0.00606892  2.42696e+11
       949.90000   0.00606892  2.42635e+11
       950.00000   0.00606892  2.42575e+11
       950.10000   0.00606892  2.42575e+11
       950.20000   0.00606892  2.42514e+11
       950.30000   0.00606892  2.42453e+11
       950.40000   0.00606892  2.42453e+11
       950.50000   0.00598633  2.39094e+11
       950.60000   0.00598633  2.39034e+11
       950.70000   0.00598633  2.38974e+11
       950.80000   0.00598633  2.38974e+11
       950.90000   0.00598633  2.38914e+11
       951.00000   0.00598633  2.38855e+11
       951.10000   0.00598633  2.38795e+11
       951.20000   0.00598633  2.38735e+11
       951.30000   0.00589056  2.34915e+11
       951.40000   0.00589056  2.34857e+11
       951.50000   0.00581279  2.31698e+11
       951.60000   0.00581279  2.31640e+11
       951.70000   0.00581279  2.31581e+11
       951.80000   0.00581279  2.31523e+11
       951.90000   0.00581279  2.31465e+11
       952.00000   0.00581279  2.31407e+11
       952.10000   0.00581279  2.30942e+11
       952.20000   0.00581279  2.30477e+11
       952.30000   0.00581279  2.30070e+11
       952.40000   0.00581279  2.29663e+11
       952.50000   0.00573594  2.26225e+11
       952.60000   0.00573594  2.25824e+11
       952.70000   0.00573594  2.25480e+11
       952.80000   0.00573594  2.25135e+11
       952.90000   0.00573594  2.24791e+11
       953.00000   0.00573594  2.24505e+11
       953.10000   0.00573594  2.24218e+11
       953.20000   0.00573594  2.23931e+11
       953.30000   0.00573594  2.23701e+11
       953.40000   0.00573594  2.23415e+11
       953.50000   0.00565961  2.20215e+11
       953.60000   0.00565961  2.20046e+11
       953.70000   0.00565961  2.19819e+11
       953.80000   0.00556564  2.16002e+11
       953.90000   0.00556564  2.15835e+11
       954.00000   0.00556564  2.15724e+11
       954.10000   0.00556564  2.15669e+11
       954.20000   0.00556564  2.15613e+11
       954.30000   0.00556564  2.15613e+11
       954.40000   0.00556564  2.15613e+11
       954.50000   0.00548863  2.12575e+11
       954.60000   0.00548863  2.12575e+11
       954.70000   0.00548863  2.12575e+11
       954.80000   0.00548863  2.12575e+11
       954.90000   0.00548863  2.12630e+11
       955.00000   0.00548863  2.12630e+11
       955.10000   0.00548863  2.12684e+11
       955.20000   0.00548863  2.12684e+11
       955.30000   0.00548863  2.12739e+11
       955.40000   0.00548863  2.12794e+11
       955.50000   0.00541342  2.09932e+11
       955.60000   0.00541342  2.09986e+11
       955.70000   0.00541342  2.10041e+11
       955.80000   0.00541342  2.10149e+11
       955.90000   0.00541342  2.10203e+11
       956.00000   0.00541342  2.10311e+11
       956.10000   0.00541342  2.10419e+11
       956.20000   0.00541342  2.10474e+11
       956.30000   0.00532504  2.07144e+11
       956.40000   0.00532504  2.07304e+11
       956.50000   0.00524925  2.04458e+11
       956.60000   0.00524925  2.04563e+11
       956.70000   0.00524925  2.04721e+11
       956.80000   0.00524925  2.04826e+11
       956.90000   0.00524925  2.04983e+11
       957.00000   0.00524925  2.05141e+11
       957.10000   0.00524925  2.05298e+11
       957.20000   0.00524925  2.05456e+11
       957.30000   0.00524925  2.05666e+11
       957.40000   0.00524925  2.05823e+11
       957.50000   0.00517223  2.02958e+11
       957.60000   0.00517223  2.03165e+11
       957.70000   0.00517223  2.03372e+11
       957.80000   0.00517223  2.03579e+11
       957.90000   0.00517223  2.03786e+11
       958.00000   0.00517223  2.03993e+11
       958.10000   0.00517223  2.03993e+11
       958.20000   0.00517223  2.03941e+11
       958.30000   0.00517223  2.03941e+11
       958.40000   0.00517223  2.03941e+11
       958.50000   0.00509836  2.01028e+11
       958.60000   0.00509836  2.00977e+11
       958.70000   0.00509836  2.00977e+11
       958.80000   0.00500849  1.97435e+11
       958.90000   0.00500849  1.97384e+11
       959.00000   0.00500849  1.97384e+11
       959.10000   0.00500849  1.97334e+11
       959.20000   0.00500849  1.97334e+11
       959.30000   0.00500849  1.97284e+11
       959.40000   0.00500849  1.97234e+11
       959.50000   0.00493333  1.94274e+11
       959.60000   0.00493333  1.94225e+11
       959.70000   0.00493333  1.94225e+11
       959.80000   0.00493333  1.94176e+11
       959.90000   0.00493333  1.94126e+11
       960.00000   0.00493333  1.94077e+11
       960.10000   0.00493333  1.94028e+11
       960.20000   0.00493333  1.93978e+11
       960.30000   0.00493333  1.93929e+11
       960.40000   0.00493333  1.93880e+11
       960.50000   0.00486155  1.91010e+11
       960.60000   0.00486155  1.90962e+11
       960.70000   0.00486155  1.90913e+11
       960.80000   0.00486155  1.90865e+11
       960.90000   0.00486155  1.90816e+11
       961.00000   0.00486155  1.90767e+11
       961.10000   0.00486155  1.90719e+11
       961.20000   0.00486155  1.90670e+11
       961.30000   0.00477709  1.87310e+11
       961.40000   0.00477709  1.87262e+11
       961.50000   0.00470212  1.84276e+11
       961.60000   0.00470212  1.84182e+11
       961.70000   0.00470212  1.84135e+11
       961.80000   0.00470212  1.84088e+11
       961.90000   0.00470212  1.84041e+11
       962.00000   0.00470212  1.83994e+11
       962.10000   0.00470212  1.83900e+11
       962.20000   0.00470212  1.83853e+11
       962.30000   0.00470212  1.83806e+11
       962.40000   0.00470212  1.83712e+11
       962.50000   0.00462901  1.80809e+11
       962.60000   0.00462901  1.80763e+11
       962.70000   0.00462901  1.80670e+11
       962.80000   0.00462901  1.80624e+11
       962.90000   0.00462901  1.80531e+11
       963.00000   0.00462901  1.80485e+11
       963.10000   0.00462901  1.80439e+11
       963.20000   0.00462901  1.80346e+11
       963.30000   0.00462901  1.80300e+11
       963.40000   0.00462901  1.80207e+11
       963.50000   0.00455505  1.77283e+11
       963.60000   0.00455505  1.77192e+11
       963.70000   0.00455505  1.77146e+11
       963.80000   0.00447233  1.73840e+11
       963.90000   0.00447233  1.73750e+11
       964.00000   0.00447233  1.73705e+11
       964.10000   0.00447233  1.73616e+11
       964.20000   0.00447233  1.73482e+11
       964.30000   0.00447233  1.73392e+11
       964.40000   0.00447233  1.73348e+11
       964.50000   0.00440011  1.70460e+11
       964.60000   0.00440011  1.70372e+11
       964.70000   0.00440011  1.70328e+11
       964.80000   0.00440011  1.70240e+11
       964.90000   0.00440011  1.70196e+11
       965.00000   0.00440011  1.70108e+11
       965.10000   0.00440011  1.70064e+11
       965.20000   0.00440011  1.70020e+11
       965.30000   0.00440011  1.69976e+11
       965.40000   0.00440011  1.69976e+11
       965.50000   0.00432869  1.67174e+11
       965.60000   0.00432869  1.67131e+11
       965.70000   0.00432869  1.67131e+11
       965.80000   0.00432869  1.67087e+11
       965.90000   0.00432869  1.67087e+11
       966.00000   0.00432869  1.67087e+11
       966.10000   0.00432869  1.67131e+11
       966.20000   0.00432869  1.67174e+11
       966.30000   0.00424864  1.64167e+11
       966.40000   0.00424864  1.64210e+11
       966.50000   0.00417925  1.61570e+11
       966.60000   0.00417925  1.61612e+11
       966.70000   0.00417925  1.61653e+11
       966.80000   0.00417925  1.61695e+11
       966.90000   0.00417925  1.61737e+11
       967.00000   0.00417925  1.61779e+11
       967.10000   0.00417925  1.61821e+11
       967.20000   0.00417925  1.61862e+11
       967.30000   0.00417925  1.61904e+11
       967.40000   0.00417925  1.61946e+11
       967.50000   0.00410748  1.59165e+11
       967.60000   0.00410748  1.59206e+11
       967.70000   0.00410748  1.59247e+11
       967.80000   0.00410748  1.59247e+11
       967.90000   0.00410748  1.59288e+11
       968.00000   0.00410748  1.59329e+11
       968.10000   0.00410748  1.59329e+11
       968.20000   0.00410748  1.59370e+11
       968.30000   0.00410748  1.59370e+11
       968.40000   0.00410748  1.59370e+11
       968.50000   0.00403579  1.56629e+11
       968.60000   0.00403579  1.56629e+11
       968.70000   0.00403579  1.56629e+11
       968.80000   0.00396101  1.53766e+11
       968.90000   0.00396101  1.53766e+11
       969.00000   0.00396101  1.53766e+11
       969.10000   0.00396101  1.53766e+11
       969.20000   0.00396101  1.53766e+11
       969.30000   0.00396101  1.53766e+11
       969.40000   0.00396101  1.53766e+11
       969.50000   0.00389091  1.51045e+11
       969.60000   0.00389091  1.51045e+11
       969.70000   0.00389091  1.51045e+11
       969.80000   0.00389091  1.51045e+11
       969.90000   0.00389091  1.51045e+11
       970.00000   0.00389091  1.51045e+11
       970.10000   0.00389091  1.51084e+11
       970.20000   0.00389091  1.51123e+11
       970.30000   0.00389091  1.51123e+11
       970.40000   0.00389091  1.51162e+11
       970.50000   0.00382208  1.48488e+11
       970.60000   0.00382208  1.48526e+11
       970.70000   0.00382208  1.48526e+11
       970.80000   0.00382208  1.48526e+11
       970.90000   0.00382208  1.48526e+11
       971.00000   0.00382208  1.48526e+11
       971.10000   0.00382208  1.48526e+11
       971.20000   0.00382208  1.48488e+11
       971.30000   0.00375142  1.45743e+11
       971.40000   0.00375142  1.45705e+11
       971.50000   0.00368205  1.43011e+11
       971.60000   0.00368205  1.42974e+11
       971.70000   0.00368205  1.42937e+11
       971.80000   0.00368205  1.42901e+11
       971.90000   0.00368205  1.42864e+11
       972.00000   0.00368205  1.42790e+11
       972.10000   0.00368205  1.42643e+11
       972.20000   0.00368205  1.42495e+11
       972.30000   0.00368205  1.42385e+11
       972.40000   0.00368205  1.42238e+11
       972.50000   0.00361520  1.39547e+11
       972.60000   0.00361520  1.39402e+11
       972.70000   0.00361520  1.39294e+11
       972.80000   0.00361520  1.39185e+11
       972.90000   0.00361520  1.39077e+11
       973.00000   0.00361520  1.39005e+11
       973.10000   0.00361520  1.38896e+11
       973.20000   0.00361520  1.38824e+11
       973.30000   0.00361520  1.38751e+11
       973.40000   0.00361520  1.38679e+11
       973.50000   0.00354556  1.35937e+11
       973.60000   0.00354556  1.35866e+11
       973.70000   0.00354556  1.35830e+11
       973.80000   0.00347650  1.33115e+11
       973.90000   0.00347650  1.33080e+11
       974.00000   0.00347650  1.33046e+11
       974.10000   0.00347650  1.33080e+11
       974.20000   0.00347650  1.33150e+11
       974.30000   0.00347650  1.33185e+11
       974.40000   0.00347650  1.33219e+11
       974.50000   0.00340967  1.30693e+11
       974.60000   0.00340967  1.30727e+11
       974.70000   0.00340967  1.30761e+11
       974.80000   0.00340967  1.30795e+11
       974.90000   0.00340967  1.30795e+11
       975.00000   0.00340967  1.30829e+11
       975.10000   0.00340967  1.30863e+11
       975.20000   0.00340967  1.30863e+11
       975.30000   0.00340967  1.30897e+11
       975.40000   0.00340967  1.30897e+11
       975.50000   0.00334249  1.28318e+11
       975.60000   0.00334249  1.28351e+11
       975.70000   0.00334249  1.28351e+11
       975.80000   0.00334249  1.28351e+11
       975.90000   0.00334249  1.28351e+11
       976.00000   0.00334249  1.28351e+11
       976.10000   0.00334249  1.28318e+11
       976.20000   0.00334249  1.28285e+11
       976.30000   0.00327857  1.25799e+11
       976.40000   0.00327857  1.25766e+11
       976.50000   0.00321310  1.23254e+11
       976.60000   0.00321310  1.23222e+11
       976.70000   0.00321310  1.23190e+11
       976.80000   0.00321310  1.23158e+11
       976.90000   0.00321310  1.23158e+11
       977.00000   0.00321310  1.23126e+11
       977.10000   0.00321310  1.23094e+11
       977.20000   0.00321310  1.23062e+11
       977.30000   0.00321310  1.23062e+11
       977.40000   0.00321310  1.23029e+11
       977.50000   0.00314746  1.20485e+11
       977.60000   0.00314746  1.20485e+11
       977.70000   0.00314746  1.20453e+11
       977.80000   0.00314746  1.20422e+11
       977.90000   0.00314746  1.20422e+11
       978.00000   0.00314746  1.20390e+11
       978.10000   0.00314746  1.20390e+11
       978.20000   0.00314746  1.20359e+11
       978.30000   0.00314746  1.20359e+11
       978.40000   0.00314746  1.20327e+11
       978.50000   0.00308025  1.17727e+11
       978.60000   0.00308025  1.17727e+11
       978.70000   0.00308025  1.17727e+11
       978.80000   0.00302029  1.15405e+11
       978.90000   0.00302029  1.15405e+11
       979.00000   0.00302029  1.15375e+11
       979.10000   0.00302029  1.15375e+11
       979.20000   0.00302029  1.15345e+11
       979.30000   0.00302029  1.15345e+11
       979.40000   0.00302029  1.15345e+11
       979.50000   0.00295608  1.12863e+11
       979.60000   0.00295608  1.12863e+11
       979.70000   0.00295608  1.12863e+11
       979.80000   0.00295608  1.12834e+11
       979.90000   0.00295608  1.12834e+11
       980.00000   0.00295608  1.12834e+11
       980.10000   0.00295608  1.12893e+11
       980.20000   0.00295608  1.12922e+11
       980.30000   0.00295608  1.12981e+11
       980.40000   0.00295608  1.13011e+11
       980.50000   0.00289101  1.10581e+11
       980.60000   0.00289101  1.10610e+11
       980.70000   0.00289101  1.10639e+11
       980.80000   0.00289101  1.10668e+11
       980.90000   0.00289101  1.10697e+11
       981.00000   0.00289101  1.10726e+11
       981.10000   0.00289101  1.10755e+11
       981.20000   0.00289101  1.10783e+11
       981.30000   0.00283251  1.08542e+11
       981.40000   0.00283251  1.08570e+11
       981.50000   0.00276871  1.06125e+11
       981.60000   0.00276871  1.06125e+11
       981.70000   0.00276871  1.06152e+11
       981.80000   0.00276871  1.06152e+11
       981.90000   0.00276871  1.06152e+11
       982.00000   0.00276871  1.06125e+11
       982.10000   0.00276871  1.06097e+11
       982.20000   0.00276871  1.06041e+11
       982.30000   0.00276871  1.06014e+11
       982.40000   0.00276871  1.05958e+11
       982.50000   0.00270360  1.03440e+11
       982.60000   0.00270360  1.03386e+11
       982.70000   0.00270360  1.03359e+11
       982.80000   0.00270360  1.03332e+11
       982.90000   0.00270360  1.03278e+11
       983.00000   0.00270360  1.03251e+11
       983.10000   0.00270360  1.03224e+11
       983.20000   0.00270360  1.03197e+11
       983.30000   0.00270360  1.03170e+11
       983.40000   0.00270360  1.03115e+11
       983.50000   0.00264113  1.00706e+11
       983.60000   0.00264113  1.00680e+11
       983.70000   0.00264113  1.00654e+11
       983.80000   0.00258904  9.86425e+10
       983.90000   0.00258904  9.86166e+10
       984.00000   0.00258904  9.85907e+10
       984.10000   0.00258904  9.85907e+10
       984.20000   0.00258904  9.85648e+10
       984.30000   0.00258904  9.85389e+10
       984.40000   0.00258904  9.85131e+10
       984.50000   0.00252707  9.61549e+10
       984.60000   0.00252707  9.61297e+10
       984.70000   0.00252707  9.61044e+10
       984.80000   0.00252707  9.61044e+10
       984.90000   0.00252707  9.60791e+10
       985.00000   0.00252707  9.60538e+10
       985.10000   0.00252707  9.60538e+10
       985.20000   0.00252707  9.60286e+10
       985.30000   0.00252707  9.60286e+10
       985.40000   0.00252707  9.60286e+10
       985.50000   0.00246401  9.36078e+10
       985.60000   0.00246401  9.36078e+10
       985.70000   0.00246401  9.36078e+10
       985.80000   0.00246401  9.35832e+10
       985.90000   0.00246401  9.35832e+10
       986.00000   0.00246401  9.35832e+10
       986.10000   0.00246401  9.35585e+10
       986.20000   0.00246401  9.35585e+10
       986.30000   0.00241545  9.17146e+10
       986.40000   0.00241545  9.16904e+10
       986.50000   0.00235525  8.93817e+10
       986.60000   0.00235525  8.93817e+10
       986.70000   0.00235525  8.93582e+10
       986.80000   0.00235525  8.93582e+10
       986.90000   0.00235525  8.93346e+10
       987.00000   0.00235525  8.93111e+10
       987.10000   0.00235525  8.92875e+10
       987.20000   0.00235525  8.92875e+10
       987.30000   0.00235525  8.92639e+10
       987.40000   0.00235525  8.92404e+10
       987.50000   0.00229422  8.69051e+10
       987.60000   0.00229422  8.68821e+10
       987.70000   0.00229422  8.68592e+10
       987.80000   0.00229422  8.68362e+10
       987.90000   0.00229422  8.68133e+10
       988.00000   0.00229422  8.67904e+10
       988.10000   0.00229422  8.67215e+10
       988.20000   0.00229422  8.66757e+10
       988.30000   0.00229422  8.66068e+10
       988.40000   0.00229422  8.65609e+10
       988.50000   0.00223260  8.41912e+10
       988.60000   0.00223260  8.41465e+10
       988.70000   0.00223260  8.41019e+10
       988.80000   0.00218909  8.24194e+10
       988.90000   0.00218909  8.23756e+10
       989.00000   0.00218909  8.23538e+10
       989.10000   0.00218909  8.23319e+10
       989.20000   0.00218909  8.22881e+10
       989.30000   0.00218909  8.22662e+10
       989.40000   0.00218909  8.22443e+10
       989.50000   0.00212758  7.99120e+10
       989.60000   0.00212758  7.98907e+10
       989.70000   0.00212758  7.98907e+10
       989.80000   0.00212758  7.98694e+10
       989.90000   0.00212758  7.98694e+10
       990.00000   0.00212758  7.98694e+10
       990.10000   0.00212758  7.98481e+10
       990.20000   0.00212758  7.98481e+10
       990.30000   0.00212758  7.98694e+10
       990.40000   0.00212758  7.98694e+10
       990.50000   0.00206859  7.76549e+10
       990.60000   0.00206859  7.76755e+10
       990.70000   0.00206859  7.76755e+10
       990.80000   0.00206859  7.76962e+10
       990.90000   0.00206859  7.77169e+10
       991.00000   0.00206859  7.77376e+10
       991.10000   0.00206859  7.77583e+10
       991.20000   0.00206859  7.77790e+10
       991.30000   0.00203026  7.63580e+10
       991.40000   0.00203026  7.63986e+10
       991.50000   0.00197059  7.41728e+10
       991.60000   0.00197059  7.42123e+10
       991.70000   0.00197059  7.42517e+10
       991.80000   0.00197059  7.42911e+10
       991.90000   0.00197059  7.43305e+10
       992.00000   0.00197059  7.43699e+10
       992.10000   0.00197059  7.43896e+10
       992.20000   0.00197059  7.43896e+10
       992.30000   0.00197059  7.43896e+10
       992.40000   0.00197059  7.43896e+10
       992.50000   0.00191055  7.21424e+10
       992.60000   0.00191055  7.21424e+10
       992.70000   0.00191055  7.21424e+10
       992.80000   0.00191055  7.21424e+10
       992.90000   0.00191055  7.21424e+10
       993.00000   0.00191055  7.21615e+10
       993.10000   0.00191055  7.21615e+10
       993.20000   0.00191055  7.21615e+10
       993.30000   0.00191055  7.21615e+10
       993.40000   0.00191055  7.21615e+10
       993.50000   0.00185212  6.99545e+10
       993.60000   0.00185212  6.99545e+10
       993.70000   0.00185212  6.99545e+10
       993.80000   0.00182015  6.87472e+10
       993.90000   0.00182015  6.87290e+10
       994.00000   0.00182015  6.87290e+10
       994.10000   0.00182015  6.87290e+10
       994.20000   0.00182015  6.87108e+10
       994.30000   0.00182015  6.87108e+10
       994.40000   0.00182015  6.86926e+10
       994.50000   0.00176179  6.64899e+10
       994.60000   0.00176179  6.64723e+10
       994.70000   0.00176179  6.64723e+10
       994.80000   0.00176179  6.64547e+10
       994.90000   0.00176179  6.64547e+10
       995.00000   0.00176179  6.64371e+10
       995.10000   0.00176179  6.64371e+10
       995.20000   0.00176179  6.64371e+10
       995.30000   0.00176179  6.64194e+10
       995.40000   0.00176179  6.64194e+10
       995.50000   0.00170330  6.42145e+10
       995.60000   0.00170330  6.41975e+10
       995.70000   0.00170330  6.41975e+10
       995.80000   0.00170330  6.41975e+10
       995.90000   0.00170330  6.41975e+10
       996.00000   0.00170330  6.41805e+10
       996.10000   0.00170330  6.41975e+10
       996.20000   0.00170330  6.41975e+10
       996.30000   0.00167475  6.31215e+10
       996.40000   0.00167475  6.31215e+10
       996.50000   0.00161698  6.09441e+10
       996.60000   0.00161698  6.09441e+10
       996.70000   0.00161698  6.09441e+10
       996.80000   0.00161698  6.09441e+10
       996.90000   0.00161698  6.09441e+10
       997.00000   0.00161698  6.09441e+10
       997.10000   0.00161698  6.09441e+10
       997.20000   0.00161698  6.09441e+10
       997.30000   0.00161698  6.09441e+10
       997.40000   0.00161698  6.09441e+10
       997.50000   0.00155954  5.87789e+10
       997.60000   0.00155954  5.87789e+10
       997.70000   0.00155954  5.87789e+10
       997.80000   0.00155954  5.87789e+10
       997.90000   0.00155954  5.87789e+10
       998.00000   0.00155954  5.87633e+10
       998.10000   0.00155954  5.87633e+10
       998.20000   0.00155954  5.87477e+10
       998.30000   0.00155954  5.87477e+10
       998.40000   0.00155954  5.87321e+10
       998.50000   0.00150222  5.65586e+10
       998.60000   0.00150222  5.65586e+10
       998.70000   0.00150222  5.65436e+10
       998.80000   0.00147932  5.56818e+10
       998.90000   0.00147932  5.56818e+10
       999.00000   0.00147932  5.56670e+10
       999.10000   0.00147932  5.56670e+10
       999.20000   0.00147932  5.56522e+10
       999.30000   0.00147932  5.56522e+10
       999.40000   0.00147932  5.56522e+10
       999.50000   0.00142279  5.35111e+10
       999.60000   0.00142279  5.35111e+10
       999.70000   0.00142279  5.35111e+10
       999.80000   0.00142279  5.35111e+10
       999.90000   0.00142279  5.35111e+10
       1000.0000   0.00142279  5.34969e+10
       1000.1000   0.00142279  5.34969e+10
       1000.2000   0.00142279  5.34969e+10
       1000.3000   0.00142279  5.34969e+10
       1000.4000   0.00142279  5.34969e+10
       1000.5000   0.00139873  5.25924e+10
       1000.6000   0.00139873  5.25924e+10
       1000.7000   0.00139873  5.25924e+10
       1000.8000   0.00139873  5.25924e+10
       1000.9000   0.00139873  5.25924e+10
       1001.0000   0.00139873  5.25924e+10
       1001.1000   0.00139873  5.25924e+10
       1001.2000   0.00139873  5.26063e+10
       1001.3000   0.00137809  5.18299e+10
       1001.4000   0.00137809  5.18299e+10
       1001.5000   0.00135495  5.09597e+10
       1001.6000   0.00135495  5.09597e+10
       1001.7000   0.00135495  5.09733e+10
       1001.8000   0.00135495  5.09733e+10
       1001.9000   0.00135495  5.09733e+10
       1002.0000   0.00135495  5.09868e+10
       1002.1000   0.00135495  5.09055e+10
       1002.2000   0.00135495  5.08242e+10
       1002.3000   0.00135495  5.07565e+10
       1002.4000   0.00135495  5.06752e+10
       1002.5000   0.00133097  4.97118e+10
       1002.6000   0.00133097  4.96320e+10
       1002.7000   0.00133097  4.95654e+10
       1002.8000   0.00133097  4.94989e+10
       1002.9000   0.00133097  4.94323e+10
       1003.0000   0.00133097  4.93658e+10
       1003.1000   0.00133097  4.92992e+10
       1003.2000   0.00133097  4.92327e+10
       1003.3000   0.00133097  4.91795e+10
       1003.4000   0.00133097  4.91129e+10
       1003.5000   0.00130780  4.82056e+10
       1003.6000   0.00130780  4.81533e+10
       1003.7000   0.00130780  4.80879e+10
       1003.8000   0.00128999  4.73813e+10
       1003.9000   0.00128999  4.73297e+10
       1004.0000   0.00128999  4.72781e+10
       1004.1000   0.00128999  4.72007e+10
       1004.2000   0.00128999  4.71104e+10
       1004.3000   0.00128999  4.70459e+10
       1004.4000   0.00128999  4.69685e+10
       1004.5000   0.00126624  4.60405e+10
       1004.6000   0.00126624  4.59772e+10
       1004.7000   0.00126624  4.59265e+10
       1004.8000   0.00126624  4.58759e+10
       1004.9000   0.00126624  4.58379e+10
       1005.0000   0.00126624  4.57999e+10
       1005.1000   0.00126624  4.57619e+10
       1005.2000   0.00126624  4.57366e+10
       1005.3000   0.00126624  4.57112e+10
       1005.4000   0.00126624  4.56986e+10
       1005.5000   0.00124326  4.48570e+10
       1005.6000   0.00124326  4.48446e+10
       1005.7000   0.00124326  4.48446e+10
       1005.8000   0.00124326  4.48570e+10
       1005.9000   0.00124326  4.48570e+10
       1006.0000   0.00124326  4.48694e+10
       1006.1000   0.00124326  4.48943e+10
       1006.2000   0.00124326  4.49192e+10
       1006.3000   0.00122745  4.43723e+10
       1006.4000   0.00122745  4.44091e+10
       1006.5000   0.00120431  4.36081e+10
       1006.6000   0.00120431  4.36563e+10
       1006.7000   0.00120431  4.37044e+10
       1006.8000   0.00120431  4.37526e+10
       1006.9000   0.00120431  4.38128e+10
       1007.0000   0.00120431  4.38730e+10
       1007.1000   0.00120431  4.39453e+10
       1007.2000   0.00120431  4.40176e+10
       1007.3000   0.00120431  4.40898e+10
       1007.4000   0.00120431  4.41741e+10
       1007.5000   0.00118105  4.34035e+10
       1007.6000   0.00118105  4.34980e+10
       1007.7000   0.00118105  4.35925e+10
       1007.8000   0.00118105  4.36870e+10
       1007.9000   0.00118105  4.37933e+10
       1008.0000   0.00118105  4.38996e+10
       1008.1000   0.00118105  4.39114e+10
       1008.2000   0.00118105  4.39114e+10
       1008.3000   0.00118105  4.39114e+10
       1008.4000   0.00118105  4.39114e+10
       1008.5000   0.00115803  4.30554e+10
       1008.6000   0.00115803  4.30554e+10
       1008.7000   0.00115803  4.30554e+10
       1008.8000   0.00114447  4.25515e+10
       1008.9000   0.00114447  4.25515e+10
       1009.0000   0.00114447  4.25400e+10
       1009.1000   0.00114447  4.25400e+10
       1009.2000   0.00114447  4.25400e+10
       1009.3000   0.00114447  4.25400e+10
       1009.4000   0.00114447  4.25286e+10
       1009.5000   0.00112211  4.16977e+10
       1009.6000   0.00112211  4.16977e+10
       1009.7000   0.00112211  4.16865e+10
       1009.8000   0.00112211  4.16865e+10
       1009.9000   0.00112211  4.16753e+10
       1010.0000   0.00112211  4.16753e+10
       1010.1000   0.00112211  4.16641e+10
       1010.2000   0.00112211  4.16529e+10
       1010.3000   0.00112211  4.16416e+10
       1010.4000   0.00112211  4.16304e+10
       1010.5000   0.00109929  4.07727e+10
       1010.6000   0.00109929  4.07617e+10
       1010.7000   0.00109929  4.07507e+10
       1010.8000   0.00109929  4.07397e+10
       1010.9000   0.00109929  4.07287e+10
       1011.0000   0.00109929  4.07177e+10
       1011.1000   0.00109929  4.07177e+10
       1011.2000   0.00109929  4.07067e+10
       1011.3000   0.00108716  4.02468e+10
       1011.4000   0.00108716  4.02359e+10
       1011.5000   0.00106426  3.93775e+10
       1011.6000   0.00106426  3.93669e+10
       1011.7000   0.00106426  3.93562e+10
       1011.8000   0.00106426  3.93456e+10
       1011.9000   0.00106426  3.93349e+10
       1012.0000   0.00106426  3.93243e+10
       1012.1000   0.00106426  3.93136e+10
       1012.2000   0.00106426  3.93030e+10
       1012.3000   0.00106426  3.92924e+10
       1012.4000   0.00106426  3.92817e+10
       1012.5000   0.00104196  3.84482e+10
       1012.6000   0.00104196  3.84378e+10
       1012.7000   0.00104196  3.84274e+10
       1012.8000   0.00104196  3.84170e+10
       1012.9000   0.00104196  3.84170e+10
       1013.0000   0.00104196  3.84065e+10
       1013.1000   0.00104196  3.83961e+10
       1013.2000   0.00104196  3.83857e+10
       1013.3000   0.00104196  3.83753e+10
       1013.4000   0.00104196  3.83649e+10
       1013.5000   0.00101953  3.75290e+10
       1013.6000   0.00101953  3.75188e+10
       1013.7000   0.00101953  3.75086e+10
       1013.8000   0.00100905  3.71128e+10
       1013.9000   0.00100905  3.71027e+10
       1014.0000   0.00100905  3.70926e+10
       1014.1000   0.00100905  3.70724e+10
       1014.2000   0.00100905  3.70522e+10
       1014.3000   0.00100905  3.70321e+10
       1014.4000   0.00100905  3.70119e+10
       1014.5000  0.000986436  3.61726e+10
       1014.6000  0.000986436  3.61529e+10
       1014.7000  0.000986436  3.61332e+10
       1014.8000  0.000986436  3.61233e+10
       1014.9000  0.000986436  3.61036e+10
       1015.0000  0.000986436  3.60937e+10
       1015.1000  0.000986436  3.60740e+10
       1015.2000  0.000986436  3.60641e+10
       1015.3000  0.000986436  3.60542e+10
       1015.4000  0.000986436  3.60345e+10
       1015.5000  0.000964155  3.52109e+10
       1015.6000  0.000964155  3.52013e+10
       1015.7000  0.000964155  3.51917e+10
       1015.8000  0.000964155  3.51820e+10
       1015.9000  0.000964155  3.51724e+10
       1016.0000  0.000964155  3.51627e+10
       1016.1000  0.000964155  3.51627e+10
       1016.2000  0.000964155  3.51627e+10
       1016.3000  0.000954993  3.48286e+10
       1016.4000  0.000954993  3.48190e+10
       1016.5000  0.000932703  3.40064e+10
       1016.6000  0.000932703  3.40064e+10
       1016.7000  0.000932703  3.40064e+10
       1016.8000  0.000932703  3.39970e+10
       1016.9000  0.000932703  3.39970e+10
       1017.0000  0.000932703  3.39877e+10
       1017.1000  0.000932703  3.39877e+10
       1017.2000  0.000932703  3.39784e+10
       1017.3000  0.000932703  3.39784e+10
       1017.4000  0.000932703  3.39690e+10
       1017.5000  0.000910889  3.31746e+10
       1017.6000  0.000910889  3.31655e+10
       1017.7000  0.000910889  3.31564e+10
       1017.8000  0.000910889  3.31472e+10
       1017.9000  0.000910889  3.31381e+10
       1018.0000  0.000910889  3.31381e+10
       1018.1000  0.000910889  3.31199e+10
       1018.2000  0.000910889  3.31017e+10
       1018.3000  0.000910889  3.30835e+10
       1018.4000  0.000910889  3.30653e+10
       1018.5000  0.000888367  3.22388e+10
       1018.6000  0.000888367  3.22211e+10
       1018.7000  0.000888367  3.22122e+10
       1018.8000  0.000880232  3.18996e+10
       1018.9000  0.000880232  3.18908e+10
       1019.0000  0.000880232  3.18732e+10
       1019.1000  0.000880232  3.18644e+10
       1019.2000  0.000880232  3.18556e+10
       1019.3000  0.000880232  3.18468e+10
       1019.4000  0.000880232  3.18292e+10
       1019.5000  0.000858297  3.10274e+10
       1019.6000  0.000858297  3.10188e+10
       1019.7000  0.000858297  3.10103e+10
       1019.8000  0.000858297  3.10103e+10
       1019.9000  0.000858297  3.10017e+10
       1020.0000  0.000858297  3.09931e+10
       1020.1000  0.000858297  3.09845e+10
       1020.2000  0.000858297  3.09759e+10
       1020.3000  0.000858297  3.09759e+10
       1020.4000  0.000858297  3.09673e+10
       1020.5000  0.000836481  3.01802e+10
       1020.6000  0.000836481  3.01719e+10
       1020.7000  0.000836481  3.01719e+10
       1020.8000  0.000836481  3.01635e+10
       1020.9000  0.000836481  3.01635e+10
       1021.0000  0.000836481  3.01635e+10
       1021.1000  0.000836481  3.01635e+10
       1021.2000  0.000836481  3.01635e+10
       1021.3000  0.000830266  2.99394e+10
       1021.4000  0.000830266  2.99394e+10
       1021.5000  0.000808457  2.91530e+10
       1021.6000  0.000808457  2.91530e+10
       1021.7000  0.000808457  2.91530e+10
       1021.8000  0.000808457  2.91610e+10
       1021.9000  0.000808457  2.91610e+10
       1022.0000  0.000808457  2.91691e+10
       1022.1000  0.000808457  2.91691e+10
       1022.2000  0.000808457  2.91772e+10
       1022.3000  0.000808457  2.91853e+10
       1022.4000  0.000808457  2.91853e+10
       1022.5000  0.000786454  2.83989e+10
       1022.6000  0.000786454  2.84067e+10
       1022.7000  0.000786454  2.84146e+10
       1022.8000  0.000786454  2.84225e+10
       1022.9000  0.000786454  2.84303e+10
       1023.0000  0.000786454  2.84382e+10
       1023.1000  0.000786454  2.84539e+10
       1023.2000  0.000786454  2.84618e+10
       1023.3000  0.000786454  2.84696e+10
       1023.4000  0.000786454  2.84854e+10
       1023.5000  0.000764831  2.77098e+10
       1023.6000  0.000764831  2.77251e+10
       1023.7000  0.000764831  2.77328e+10
       1023.8000  0.000760032  2.75740e+10
       1023.9000  0.000760032  2.75892e+10
       1024.0000  0.000760032  2.76044e+10
       1024.1000  0.000760032  2.76044e+10
       1024.2000  0.000760032  2.75968e+10
       1024.3000  0.000760032  2.75968e+10
       1024.4000  0.000760032  2.75968e+10
       1024.5000  0.000738510  2.68153e+10
       1024.6000  0.000738510  2.68079e+10
       1024.7000  0.000738510  2.68079e+10
       1024.8000  0.000738510  2.68079e+10
       1024.9000  0.000738510  2.68005e+10
       1025.0000  0.000738510  2.68005e+10
       1025.1000  0.000738510  2.68005e+10
       1025.2000  0.000738510  2.67931e+10
       1025.3000  0.000738510  2.67931e+10
       1025.4000  0.000738510  2.67931e+10
       1025.5000  0.000716830  2.59994e+10
       1025.6000  0.000716830  2.59994e+10
       1025.7000  0.000716830  2.59923e+10
       1025.8000  0.000716830  2.59923e+10
       1025.9000  0.000716830  2.59851e+10
       1026.0000  0.000716830  2.59851e+10
       1026.1000  0.000716830  2.59851e+10
       1026.2000  0.000716830  2.59779e+10
       1026.3000  0.000712360  2.58159e+10
       1026.4000  0.000712360  2.58088e+10
       1026.5000  0.000690580  2.50197e+10
       1026.6000  0.000690580  2.50128e+10
       1026.7000  0.000690580  2.50059e+10
       1026.8000  0.000690580  2.50059e+10
       1026.9000  0.000690580  2.49990e+10
       1027.0000  0.000690580  2.49990e+10
       1027.1000  0.000690580  2.49921e+10
       1027.2000  0.000690580  2.49852e+10
       1027.3000  0.000690580  2.49852e+10
       1027.4000  0.000690580  2.49783e+10
       1027.5000  0.000668962  2.41897e+10
       1027.6000  0.000668962  2.41897e+10
       1027.7000  0.000668962  2.41830e+10
       1027.8000  0.000668962  2.41763e+10
       1027.9000  0.000668962  2.41696e+10
       1028.0000  0.000668962  2.41629e+10
       1028.1000  0.000668962  2.41629e+10
       1028.2000  0.000668962  2.41562e+10
       1028.3000  0.000668962  2.41495e+10
       1028.4000  0.000668962  2.41429e+10
       1028.5000  0.000647379  2.33574e+10
       1028.6000  0.000647379  2.33510e+10
       1028.7000  0.000647379  2.33445e+10
       1028.8000  0.000641828  2.31379e+10
       1028.9000  0.000641828  2.31315e+10
       1029.0000  0.000641828  2.31250e+10
       1029.1000  0.000641828  2.31186e+10
       1029.2000  0.000641828  2.31122e+10
       1029.3000  0.000641828  2.31058e+10
       1029.4000  0.000641828  2.30994e+10
       1029.5000  0.000620345  2.23200e+10
       1029.6000  0.000620345  2.23138e+10
       1029.7000  0.000620345  2.23076e+10
       1029.8000  0.000620345  2.23014e+10
       1029.9000  0.000620345  2.22952e+10
       1030.0000  0.000620345  2.22828e+10
       1030.1000  0.000620345  2.22890e+10
       1030.2000  0.000620345  2.22890e+10
       1030.3000  0.000620345  2.22890e+10
       1030.4000  0.000620345  2.22890e+10
       1030.5000  0.000599032  2.15232e+10
       1030.6000  0.000599032  2.15232e+10
       1030.7000  0.000599032  2.15172e+10
       1030.8000  0.000599032  2.15172e+10
       1030.9000  0.000599032  2.15172e+10
       1031.0000  0.000599032  2.15112e+10
       1031.1000  0.000599032  2.15112e+10
       1031.2000  0.000599032  2.15053e+10
       1031.3000  0.000590882  2.12127e+10
       1031.4000  0.000590882  2.12067e+10
       1031.5000  0.000569680  2.04401e+10
       1031.6000  0.000569680  2.04344e+10
       1031.7000  0.000569680  2.04287e+10
       1031.8000  0.000569680  2.04230e+10
       1031.9000  0.000569680  2.04173e+10
       1032.0000  0.000569680  2.04117e+10
       1032.1000  0.000569680  2.03946e+10
       1032.2000  0.000569680  2.03718e+10
       1032.3000  0.000569680  2.03547e+10
       1032.4000  0.000569680  2.03433e+10
       1032.5000  0.000548555  1.95725e+10
       1032.6000  0.000548555  1.95560e+10
       1032.7000  0.000548555  1.95450e+10
       1032.8000  0.000548555  1.95286e+10
       1032.9000  0.000548555  1.95176e+10
       1033.0000  0.000548555  1.95066e+10
       1033.1000  0.000548555  1.94957e+10
       1033.2000  0.000548555  1.94902e+10
       1033.3000  0.000548555  1.94792e+10
       1033.4000  0.000548555  1.94737e+10
       1033.5000  0.000527308  1.87089e+10
       1033.6000  0.000527308  1.87036e+10
       1033.7000  0.000527308  1.86983e+10
       1033.8000  0.000517270  1.83372e+10
       1033.9000  0.000517270  1.83372e+10
       1034.0000  0.000517270  1.83321e+10
       1034.1000  0.000517270  1.83321e+10
       1034.2000  0.000517270  1.83269e+10
       1034.3000  0.000517270  1.83269e+10
       1034.4000  0.000517270  1.83269e+10
       1034.5000  0.000496356  1.75859e+10
       1034.6000  0.000496356  1.75909e+10
       1034.7000  0.000496356  1.75909e+10
       1034.8000  0.000496356  1.75958e+10
       1034.9000  0.000496356  1.75958e+10
       1035.0000  0.000496356  1.76008e+10
       1035.1000  0.000496356  1.76058e+10
       1035.2000  0.000496356  1.76107e+10
       1035.3000  0.000496356  1.76207e+10
       1035.4000  0.000496356  1.76256e+10
       1035.5000  0.000475487  1.68941e+10
       1035.6000  0.000475487  1.69036e+10
       1035.7000  0.000475487  1.69083e+10
       1035.8000  0.000475487  1.69178e+10
       1035.9000  0.000475487  1.69321e+10
       1036.0000  0.000475487  1.69416e+10
       1036.1000  0.000475487  1.69321e+10
       1036.2000  0.000475487  1.69226e+10
       1036.3000  0.000464385  1.65182e+10
       1036.4000  0.000464385  1.65089e+10
       1036.5000  0.000444120  1.57796e+10
       1036.6000  0.000444120  1.57707e+10
       1036.7000  0.000444120  1.57663e+10
       1036.8000  0.000444120  1.57574e+10
       1036.9000  0.000444120  1.57485e+10
       1037.0000  0.000444120  1.57441e+10
       1037.1000  0.000444120  1.57396e+10
       1037.2000  0.000444120  1.57307e+10
       1037.3000  0.000444120  1.57263e+10
       1037.4000  0.000444120  1.57219e+10
       1037.5000  0.000423901  1.50018e+10
       1037.6000  0.000423901  1.49976e+10
       1037.7000  0.000423901  1.49934e+10
       1037.8000  0.000423901  1.49891e+10
       1037.9000  0.000423901  1.49849e+10
       1038.0000  0.000423901  1.49806e+10
       1038.1000  0.000423901  1.49806e+10
       1038.2000  0.000423901  1.49806e+10
       1038.3000  0.000423901  1.49849e+10
       1038.4000  0.000423901  1.49849e+10
       1038.5000  0.000403606  1.42675e+10
       1038.6000  0.000403606  1.42675e+10
       1038.7000  0.000403606  1.42675e+10
       1038.8000  0.000393105  1.38963e+10
       1038.9000  0.000393105  1.38963e+10
       1039.0000  0.000393105  1.38963e+10
       1039.1000  0.000393105  1.38963e+10
       1039.2000  0.000393105  1.38963e+10
       1039.3000  0.000393105  1.38963e+10
       1039.4000  0.000393105  1.38963e+10
       1039.5000  0.000373286  1.31957e+10
       1039.6000  0.000373286  1.31957e+10
       1039.7000  0.000373286  1.31957e+10
       1039.8000  0.000373286  1.31957e+10
       1039.9000  0.000373286  1.31957e+10
       1040.0000  0.000373286  1.31957e+10
       1040.1000  0.000373286  1.31957e+10
       1040.2000  0.000373286  1.31957e+10
       1040.3000  0.000373286  1.31957e+10
       1040.4000  0.000373286  1.31957e+10
       1040.5000  0.000353445  1.24943e+10
       1040.6000  0.000353445  1.24943e+10
       1040.7000  0.000353445  1.24943e+10
       1040.8000  0.000353445  1.24943e+10
       1040.9000  0.000353445  1.24943e+10
       1041.0000  0.000353445  1.24943e+10
       1041.1000  0.000353445  1.24943e+10
       1041.2000  0.000353445  1.24943e+10
       1041.3000  0.000343322  1.21364e+10
       1041.4000  0.000343322  1.21364e+10
       1041.5000  0.000324086  1.14564e+10
       1041.6000  0.000324086  1.14564e+10
       1041.7000  0.000324086  1.14564e+10
       1041.8000  0.000324086  1.14532e+10
       1041.9000  0.000324086  1.14532e+10
       1042.0000  0.000324086  1.14532e+10
       1042.1000  0.000324086  1.14564e+10
       1042.2000  0.000324086  1.14564e+10
       1042.3000  0.000324086  1.14597e+10
       1042.4000  0.000324086  1.14597e+10
       1042.5000  0.000304694  1.07740e+10
       1042.6000  0.000304694  1.07740e+10
       1042.7000  0.000304694  1.07740e+10
       1042.8000  0.000304694  1.07709e+10
       1042.9000  0.000304694  1.07709e+10
       1043.0000  0.000304694  1.07709e+10
       1043.1000  0.000304694  1.07679e+10
       1043.2000  0.000304694  1.07648e+10
       1043.3000  0.000304694  1.07648e+10
       1043.4000  0.000304694  1.07618e+10
       1043.5000  0.000285606  1.00847e+10
       1043.6000  0.000285606  1.00819e+10
       1043.7000  0.000285606  1.00790e+10
       1043.8000  0.000277436  9.78516e+09
       1043.9000  0.000277436  9.78238e+09
       1044.0000  0.000277436  9.77683e+09
       1044.1000  0.000277436  9.76574e+09
       1044.2000  0.000277436  9.75186e+09
       1044.3000  0.000277436  9.74077e+09
       1044.4000  0.000277436  9.72967e+09
       1044.5000  0.000258656  9.06072e+09
       1044.6000  0.000258656  9.05296e+09
       1044.7000  0.000258656  9.04262e+09
       1044.8000  0.000258656  9.03486e+09
       1044.9000  0.000258656  9.02710e+09
       1045.0000  0.000258656  9.01934e+09
       1045.1000  0.000258656  9.01416e+09
       1045.2000  0.000258656  9.00640e+09
       1045.3000  0.000258656  9.00123e+09
       1045.4000  0.000258656  8.99606e+09
       1045.5000  0.000239987  8.34434e+09
       1045.6000  0.000239987  8.33954e+09
       1045.7000  0.000239987  8.33714e+09
       1045.8000  0.000239987  8.33474e+09
       1045.9000  0.000239987  8.33234e+09
       1046.0000  0.000239987  8.32994e+09
       1046.1000  0.000239987  8.32994e+09
       1046.2000  0.000239987  8.32754e+09
       1046.3000  0.000233174  8.09114e+09
       1046.4000  0.000233174  8.09114e+09
       1046.5000  0.000215059  7.46471e+09
       1046.6000  0.000215059  7.46471e+09
       1046.7000  0.000215059  7.46686e+09
       1046.8000  0.000215059  7.46901e+09
       1046.9000  0.000215059  7.47116e+09
       1047.0000  0.000215059  7.47546e+09
       1047.1000  0.000215059  7.47761e+09
       1047.2000  0.000215059  7.48191e+09
       1047.3000  0.000215059  7.48621e+09
       1047.4000  0.000215059  7.49051e+09
       1047.5000  0.000196818  6.86107e+09
       1047.6000  0.000196818  6.86500e+09
       1047.7000  0.000196818  6.87091e+09
       1047.8000  0.000196818  6.87681e+09
       1047.9000  0.000196818  6.88272e+09
       1048.0000  0.000196818  6.89059e+09
       1048.1000  0.000196818  6.89059e+09
       1048.2000  0.000196818  6.89059e+09
       1048.3000  0.000196818  6.89059e+09
       1048.4000  0.000196818  6.88862e+09
       1048.5000  0.000178601  6.25102e+09
       1048.6000  0.000178601  6.25102e+09
       1048.7000  0.000178601  6.25102e+09
       1048.8000  0.000173930  6.08754e+09
       1048.9000  0.000173930  6.08754e+09
       1049.0000  0.000173930  6.08580e+09
       1049.1000  0.000173930  6.08580e+09
       1049.2000  0.000173930  6.08580e+09
       1049.3000  0.000173930  6.08406e+09
       1049.4000  0.000173930  6.08406e+09
       1049.5000  0.000156274  5.46647e+09
       1049.6000  0.000156274  5.46490e+09
       1049.7000  0.000156274  5.46490e+09
       1049.8000  0.000156274  5.46490e+09
       1049.9000  0.000156274  5.46334e+09
       1050.0000  0.000156274  5.46334e+09
       1050.1000  0.000156274  5.46178e+09
       1050.2000  0.000156274  5.46178e+09
       1050.3000  0.000156274  5.46022e+09
       1050.4000  0.000156274  5.45865e+09
       1050.5000  0.000138556  4.83976e+09
       1050.6000  0.000138556  4.83837e+09
       1050.7000  0.000138556  4.83837e+09
       1050.8000  0.000138556  4.83698e+09
       1050.9000  0.000138556  4.83560e+09
       1051.0000  0.000138556  4.83560e+09
       1051.1000  0.000138556  4.83421e+09
       1051.2000  0.000138556  4.83421e+09
       1051.3000  0.000135455  4.72468e+09
       1051.4000  0.000135455  4.72333e+09
       1051.5000  0.000118143  4.11964e+09
       1051.6000  0.000118143  4.11846e+09
       1051.7000  0.000118143  4.11728e+09
       1051.8000  0.000118143  4.11728e+09
       1051.9000  0.000118143  4.11609e+09
       1052.0000  0.000118143  4.11609e+09
       1052.1000  0.000118143  4.11491e+09
       1052.2000  0.000118143  4.11373e+09
       1052.3000  0.000118143  4.11373e+09
       1052.4000  0.000118143  4.11255e+09
       1052.5000  0.000100828  3.50881e+09
       1052.6000  0.000100828  3.50881e+09
       1052.7000  0.000100828  3.50780e+09
       1052.8000  0.000100828  3.50679e+09
       1052.9000  0.000100828  3.50679e+09
       1053.0000  0.000100828  3.50578e+09
       1053.1000  0.000100828  3.50578e+09
       1053.2000  0.000100828  3.50477e+09
       1053.3000  0.000100828  3.50377e+09
       1053.4000  0.000100828  3.50377e+09
       1053.5000  8.35165e-05  2.90136e+09
       1053.6000  8.35165e-05  2.90053e+09
       1053.7000  8.35165e-05  2.90053e+09
       1053.8000  8.19565e-05  2.84553e+09
       1053.9000  8.19565e-05  2.84471e+09
       1054.0000  8.19565e-05  2.84471e+09
       1054.1000  8.19565e-05  2.84635e+09
       1054.2000  8.19565e-05  2.84717e+09
       1054.3000  8.19565e-05  2.84881e+09
       1054.4000  8.19565e-05  2.85045e+09
       1054.5000  6.49389e-05  2.25922e+09
       1054.6000  6.49389e-05  2.25987e+09
       1054.7000  6.49389e-05  2.26052e+09
       1054.8000  6.49389e-05  2.26117e+09
       1054.9000  6.49389e-05  2.26182e+09
       1055.0000  6.49389e-05  2.26247e+09
       1055.1000  6.49389e-05  2.26247e+09
       1055.2000  6.49389e-05  2.26247e+09
       1055.3000  6.49389e-05  2.26312e+09
       1055.4000  6.49389e-05  2.26312e+09
       1055.5000  4.79815e-05  1.67167e+09
       1055.6000  4.79815e-05  1.67167e+09
       1055.7000  4.79815e-05  1.67167e+09
       1055.8000  4.79815e-05  1.67119e+09
       1055.9000  4.79815e-05  1.67071e+09
       1056.0000  4.79815e-05  1.67023e+09
       1056.1000  4.79815e-05  1.66879e+09
       1056.2000  4.79815e-05  1.66736e+09
       1056.3000  4.71064e-05  1.63553e+09
       1056.4000  4.71064e-05  1.63365e+09
       1056.5000  3.04198e-05  1.05404e+09
       1056.6000  3.04198e-05  1.05344e+09
       1056.7000  3.04198e-05  1.05252e+09
       1056.8000  3.04198e-05  1.05161e+09
       1056.9000  3.04198e-05  1.05070e+09
       1057.0000  3.04198e-05  1.05009e+09
