PDS_VERSION_ID         = PDS3
RECORD_TYPE            = STREAM
OBJECT                 = TEXT
  PUBLICATION_DATE     = 2014-04-25
  INTERCHANGE_FORMAT   = ASCII
  NOTE                 = "System transmission vs. wavelength."
END_OBJECT             = TEXT
END
    
The systrans directory contains the non-wavelength-integrated system 
transmission values (QE*optics*filter1*filter2) for each filter combination. 
The naming convention for these files is as follows:

<camera><filter 1><filter 2>_systrans.tab

where <camera> is "issna" or "isswa," and <filter 1> and <filter 2> represent
the filter names. For polarized filter combinations, values are given for the
parallel orientation of the filter (full transmission), with values for the 
perpendicular (blocking) orientation provided in files with subscript 
"_b_systrans.tab". 

Columns in systrans files are as follows:

 1st column: Wavelength (nm)  
 2nd column: Transmitted Flux
 3rd column: Transmitted Flux * Solar Flux (phot per cm^2-s-angstrom at 1 AU)

The solar spectrum used for this calculation is provided in solarflux.tab.

\begindata
       600.00000  0.000520345  2.77136e+10
       600.10000  0.000520345  2.76719e+10
       600.20000  0.000520345  2.76251e+10
       600.30000  0.000520345  2.75679e+10
       600.40000  0.000520345  2.75002e+10
       600.50000  0.000503530  2.65461e+10
       600.60000  0.000503530  2.65814e+10
       600.70000  0.000503530  2.66116e+10
       600.80000  0.000503530  2.66418e+10
       600.90000  0.000503530  2.66619e+10
       601.00000  0.000503530  2.66770e+10
       601.10000  0.000503530  2.66821e+10
       601.20000  0.000503530  2.66871e+10
       601.30000  0.000503273  2.66735e+10
       601.40000  0.000503273  2.66634e+10
       601.50000  0.000489511  2.59245e+10
       601.60000  0.000489511  2.58119e+10
       601.70000  0.000489511  2.57189e+10
       601.80000  0.000489511  2.56357e+10
       601.90000  0.000489511  2.55721e+10
       602.00000  0.000489511  2.55231e+10
       602.10000  0.000489511  2.54840e+10
       602.20000  0.000489511  2.54644e+10
       602.30000  0.000489511  2.54595e+10
       602.40000  0.000489511  2.54693e+10
       602.50000  0.000474990  2.47327e+10
       602.60000  0.000474990  2.47707e+10
       602.70000  0.000474990  2.48230e+10
       602.80000  0.000474990  2.48895e+10
       602.90000  0.000474990  2.49702e+10
       603.00000  0.000474990  2.50652e+10
       603.10000  0.000474990  2.51745e+10
       603.20000  0.000474990  2.52980e+10
       603.30000  0.000474990  2.54357e+10
       603.40000  0.000474990  2.55877e+10
       603.50000  0.000462678  2.50864e+10
       603.60000  0.000462678  2.50771e+10
       603.70000  0.000462678  2.50679e+10
       603.80000  0.000462915  2.50715e+10
       603.90000  0.000462915  2.50576e+10
       604.00000  0.000462915  2.50483e+10
       604.10000  0.000462915  2.50344e+10
       604.20000  0.000462915  2.50252e+10
       604.30000  0.000462915  2.50113e+10
       604.40000  0.000462915  2.50020e+10
       604.50000  0.000449129  2.42440e+10
       604.60000  0.000449129  2.42260e+10
       604.70000  0.000449129  2.42081e+10
       604.80000  0.000449129  2.41901e+10
       604.90000  0.000449129  2.41721e+10
       605.00000  0.000449129  2.41587e+10
       605.10000  0.000449129  2.41452e+10
       605.20000  0.000449129  2.41362e+10
       605.30000  0.000449129  2.41227e+10
       605.40000  0.000449129  2.41138e+10
       605.50000  0.000438371  2.35274e+10
       605.60000  0.000438371  2.35230e+10
       605.70000  0.000438371  2.35142e+10
       605.80000  0.000438371  2.35098e+10
       605.90000  0.000438371  2.35098e+10
       606.00000  0.000438371  2.35054e+10
       606.10000  0.000438371  2.35054e+10
       606.20000  0.000438371  2.35054e+10
       606.30000  0.000438848  2.35310e+10
       606.40000  0.000438848  2.35354e+10
       606.50000  0.000428179  2.29675e+10
       606.60000  0.000428179  2.29761e+10
       606.70000  0.000428179  2.29804e+10
       606.80000  0.000428179  2.29889e+10
       606.90000  0.000428179  2.29889e+10
       607.00000  0.000428179  2.29932e+10
       607.10000  0.000428179  2.29932e+10
       607.20000  0.000428179  2.29932e+10
       607.30000  0.000428179  2.29889e+10
       607.40000  0.000428179  2.29847e+10
       607.50000  0.000414891  2.22672e+10
       607.60000  0.000414891  2.22423e+10
       607.70000  0.000414891  2.22216e+10
       607.80000  0.000414891  2.22050e+10
       607.90000  0.000414891  2.21884e+10
       608.00000  0.000414891  2.21718e+10
       608.10000  0.000414891  2.21593e+10
       608.20000  0.000414891  2.21469e+10
       608.30000  0.000414891  2.21386e+10
       608.40000  0.000414891  2.21303e+10
       608.50000  0.000403903  2.15401e+10
       608.60000  0.000403903  2.15361e+10
       608.70000  0.000403903  2.15321e+10
       608.80000  0.000404081  2.15415e+10
       608.90000  0.000404081  2.15456e+10
       609.00000  0.000404081  2.15496e+10
       609.10000  0.000404081  2.15537e+10
       609.20000  0.000404081  2.15617e+10
       609.30000  0.000404081  2.15698e+10
       609.40000  0.000404081  2.15819e+10
       609.50000  0.000394097  2.10645e+10
       609.60000  0.000394097  2.09699e+10
       609.70000  0.000394097  2.08871e+10
       609.80000  0.000394097  2.08162e+10
       609.90000  0.000394097  2.07571e+10
       610.00000  0.000394097  2.07059e+10
       610.10000  0.000394097  2.06625e+10
       610.20000  0.000394097  2.06310e+10
       610.30000  0.000394097  2.06113e+10
       610.40000  0.000394097  2.06034e+10
       610.50000  0.000385272  2.01382e+10
       610.60000  0.000385272  2.02383e+10
       610.70000  0.000385272  2.03269e+10
       610.80000  0.000385272  2.04078e+10
       610.90000  0.000385272  2.04772e+10
       611.00000  0.000385272  2.05350e+10
       611.10000  0.000385272  2.05851e+10
       611.20000  0.000385272  2.06236e+10
       611.30000  0.000385422  2.06625e+10
       611.40000  0.000385422  2.06817e+10
       611.50000  0.000376965  2.02355e+10
       611.60000  0.000376965  2.02355e+10
       611.70000  0.000376965  2.02242e+10
       611.80000  0.000376965  2.02053e+10
       611.90000  0.000376965  2.01752e+10
       612.00000  0.000376965  2.01375e+10
       612.10000  0.000376965  2.00885e+10
       612.20000  0.000376965  2.00282e+10
       612.30000  0.000376965  1.99603e+10
       612.40000  0.000376965  1.98811e+10
       612.50000  0.000368188  1.93335e+10
       612.60000  0.000368188  1.92857e+10
       612.70000  0.000368188  1.92415e+10
       612.80000  0.000368188  1.92047e+10
       612.90000  0.000368188  1.91752e+10
       613.00000  0.000368188  1.91495e+10
       613.10000  0.000368188  1.91310e+10
       613.20000  0.000368188  1.91163e+10
       613.30000  0.000368188  1.91090e+10
       613.40000  0.000368188  1.91090e+10
       613.50000  0.000361522  1.87666e+10
       613.60000  0.000361522  1.88208e+10
       613.70000  0.000361522  1.88678e+10
       613.80000  0.000361446  1.89072e+10
       613.90000  0.000361446  1.89506e+10
       614.00000  0.000361446  1.89904e+10
       614.10000  0.000361446  1.90229e+10
       614.20000  0.000361446  1.90554e+10
       614.30000  0.000361446  1.90843e+10
       614.40000  0.000361446  1.91096e+10
       614.50000  0.000352972  1.86828e+10
       614.60000  0.000352972  1.87005e+10
       614.70000  0.000352972  1.87146e+10
       614.80000  0.000352972  1.87252e+10
       614.90000  0.000352972  1.87322e+10
       615.00000  0.000352972  1.87358e+10
       615.10000  0.000352972  1.87393e+10
       615.20000  0.000352972  1.87358e+10
       615.30000  0.000352972  1.87322e+10
       615.40000  0.000352972  1.87252e+10
       615.50000  0.000345673  1.83241e+10
       615.60000  0.000345673  1.81202e+10
       615.70000  0.000345673  1.79335e+10
       615.80000  0.000345673  1.77710e+10
       615.90000  0.000345673  1.76328e+10
       616.00000  0.000345673  1.75118e+10
       616.10000  0.000345673  1.74150e+10
       616.20000  0.000345673  1.73389e+10
       616.30000  0.000346212  1.73106e+10
       616.40000  0.000346212  1.72795e+10
       616.50000  0.000337276  1.68200e+10
       616.60000  0.000337276  1.69650e+10
       616.70000  0.000337276  1.70999e+10
       616.80000  0.000337276  1.72247e+10
       616.90000  0.000337276  1.73428e+10
       617.00000  0.000337276  1.74541e+10
       617.10000  0.000337276  1.75552e+10
       617.20000  0.000337276  1.76463e+10
       617.30000  0.000337276  1.77306e+10
       617.40000  0.000337276  1.78082e+10
       617.50000  0.000330900  1.75377e+10
       617.60000  0.000330900  1.75939e+10
       617.70000  0.000330900  1.76436e+10
       617.80000  0.000330900  1.76866e+10
       617.90000  0.000330900  1.77164e+10
       618.00000  0.000330900  1.77429e+10
       618.10000  0.000330900  1.77594e+10
       618.20000  0.000330900  1.77660e+10
       618.30000  0.000330900  1.77660e+10
       618.40000  0.000330900  1.77561e+10
       618.50000  0.000322792  1.73049e+10
       618.60000  0.000322792  1.72726e+10
       618.70000  0.000322792  1.72403e+10
       618.80000  0.000323119  1.72352e+10
       618.90000  0.000323119  1.72126e+10
       619.00000  0.000323119  1.71964e+10
       619.10000  0.000323119  1.71835e+10
       619.20000  0.000323119  1.71770e+10
       619.30000  0.000323119  1.71738e+10
       619.40000  0.000323119  1.71738e+10
       619.50000  0.000316208  1.68128e+10
       619.60000  0.000316208  1.68729e+10
       619.70000  0.000316208  1.69266e+10
       619.80000  0.000316208  1.69741e+10
       619.90000  0.000316208  1.70152e+10
       620.00000  0.000316208  1.70468e+10
       620.10000  0.000316208  1.70721e+10
       620.20000  0.000316208  1.70910e+10
       620.30000  0.000316208  1.71037e+10
       620.40000  0.000316208  1.71069e+10
       620.50000  0.000308866  1.67096e+10
       620.60000  0.000308866  1.66417e+10
       620.70000  0.000308866  1.65768e+10
       620.80000  0.000308866  1.65212e+10
       620.90000  0.000308866  1.64718e+10
       621.00000  0.000308866  1.64286e+10
       621.10000  0.000308866  1.63915e+10
       621.20000  0.000308866  1.63637e+10
       621.30000  0.000308973  1.63447e+10
       621.40000  0.000308973  1.63262e+10
       621.50000  0.000301947  1.59458e+10
       621.60000  0.000301947  1.60002e+10
       621.70000  0.000301947  1.60485e+10
       621.80000  0.000301947  1.60877e+10
       621.90000  0.000301947  1.61240e+10
       622.00000  0.000301947  1.61511e+10
       622.10000  0.000301947  1.61723e+10
       622.20000  0.000301947  1.61843e+10
       622.30000  0.000301947  1.61934e+10
       622.40000  0.000301947  1.61934e+10
       622.50000  0.000294386  1.57820e+10
       622.60000  0.000294386  1.57702e+10
       622.70000  0.000294386  1.57526e+10
       622.80000  0.000294386  1.57290e+10
       622.90000  0.000294386  1.56966e+10
       623.00000  0.000294386  1.56613e+10
       623.10000  0.000294386  1.56172e+10
       623.20000  0.000294386  1.55642e+10
       623.30000  0.000294386  1.55082e+10
       623.40000  0.000294386  1.54435e+10
       623.50000  0.000287076  1.49940e+10
       623.60000  0.000287076  1.49911e+10
       623.70000  0.000287076  1.49911e+10
       623.80000  0.000286939  1.49782e+10
       623.90000  0.000286939  1.49754e+10
       624.00000  0.000286939  1.49696e+10
       624.10000  0.000286939  1.49610e+10
       624.20000  0.000286939  1.49524e+10
       624.30000  0.000286939  1.49438e+10
       624.40000  0.000286939  1.49323e+10
       624.50000  0.000277351  1.44223e+10
       624.60000  0.000277351  1.43668e+10
       624.70000  0.000277351  1.43224e+10
       624.80000  0.000277351  1.42836e+10
       624.90000  0.000277351  1.42531e+10
       625.00000  0.000277351  1.42309e+10
       625.10000  0.000277351  1.42170e+10
       625.20000  0.000277351  1.42087e+10
       625.30000  0.000277351  1.42115e+10
       625.40000  0.000277351  1.42198e+10
       625.50000  0.000269227  1.38194e+10
       625.60000  0.000269227  1.38410e+10
       625.70000  0.000269227  1.38733e+10
       625.80000  0.000269227  1.39110e+10
       625.90000  0.000269227  1.39567e+10
       626.00000  0.000269227  1.40106e+10
       626.10000  0.000269227  1.40725e+10
       626.20000  0.000269227  1.41398e+10
       626.30000  0.000268917  1.42015e+10
       626.40000  0.000268917  1.42849e+10
       626.50000  0.000261099  1.39558e+10
       626.60000  0.000261099  1.39584e+10
       626.70000  0.000261099  1.39610e+10
       626.80000  0.000261099  1.39636e+10
       626.90000  0.000261099  1.39662e+10
       627.00000  0.000261099  1.39688e+10
       627.10000  0.000261099  1.39714e+10
       627.20000  0.000261099  1.39714e+10
       627.30000  0.000261099  1.39740e+10
       627.40000  0.000261099  1.39767e+10
       627.50000  0.000252502  1.35190e+10
       627.60000  0.000252502  1.35291e+10
       627.70000  0.000252502  1.35366e+10
       627.80000  0.000252502  1.35417e+10
       627.90000  0.000252502  1.35467e+10
       628.00000  0.000252502  1.35493e+10
       628.10000  0.000252502  1.35518e+10
       628.20000  0.000252502  1.35518e+10
       628.30000  0.000252502  1.35493e+10
       628.40000  0.000252502  1.35467e+10
       628.50000  0.000242932  1.30284e+10
       628.60000  0.000242932  1.30211e+10
       628.70000  0.000242932  1.30139e+10
       628.80000  0.000242387  1.29750e+10
       628.90000  0.000242387  1.29629e+10
       629.00000  0.000242387  1.29508e+10
       629.10000  0.000242387  1.29362e+10
       629.20000  0.000242387  1.29217e+10
       629.30000  0.000242387  1.29047e+10
       629.40000  0.000242387  1.28853e+10
       629.50000  0.000233887  1.24147e+10
       629.60000  0.000233887  1.23890e+10
       629.70000  0.000233887  1.23633e+10
       629.80000  0.000233887  1.23399e+10
       629.90000  0.000233887  1.23188e+10
       630.00000  0.000233887  1.22978e+10
       630.10000  0.000233887  1.22767e+10
       630.20000  0.000233887  1.22603e+10
       630.30000  0.000233887  1.22416e+10
       630.40000  0.000233887  1.22276e+10
       630.50000  0.000225041  1.17516e+10
       630.60000  0.000225041  1.17381e+10
       630.70000  0.000225041  1.17269e+10
       630.80000  0.000225041  1.17179e+10
       630.90000  0.000225041  1.17089e+10
       631.00000  0.000225041  1.17021e+10
       631.10000  0.000225041  1.17089e+10
       631.20000  0.000225041  1.17156e+10
       631.30000  0.000224430  1.16928e+10
       631.40000  0.000224430  1.16995e+10
       631.50000  0.000214752  1.12015e+10
       631.60000  0.000214752  1.12079e+10
       631.70000  0.000214752  1.12143e+10
       631.80000  0.000214752  1.12186e+10
       631.90000  0.000214752  1.12251e+10
       632.00000  0.000214752  1.12315e+10
       632.10000  0.000214752  1.12380e+10
       632.20000  0.000214752  1.12423e+10
       632.30000  0.000214752  1.12487e+10
       632.40000  0.000214752  1.12551e+10
       632.50000  0.000206573  1.08306e+10
       632.60000  0.000206573  1.08348e+10
       632.70000  0.000206573  1.08410e+10
       632.80000  0.000206573  1.08451e+10
       632.90000  0.000206573  1.08492e+10
       633.00000  0.000206573  1.08554e+10
       633.10000  0.000206573  1.08596e+10
       633.20000  0.000206573  1.08637e+10
       633.30000  0.000206573  1.08678e+10
       633.40000  0.000206573  1.08720e+10
       633.50000  0.000197980  1.04236e+10
       633.60000  0.000197980  1.04276e+10
       633.70000  0.000197980  1.04316e+10
       633.80000  0.000197450  1.04056e+10
       633.90000  0.000197450  1.04096e+10
       634.00000  0.000197450  1.04135e+10
       634.10000  0.000197450  1.04155e+10
       634.20000  0.000197450  1.04194e+10
       634.30000  0.000197450  1.04214e+10
       634.40000  0.000197450  1.04254e+10
       634.50000  0.000189140  9.98850e+09
       634.60000  0.000189140  9.99039e+09
       634.70000  0.000189140  9.99417e+09
       634.80000  0.000189140  9.99607e+09
       634.90000  0.000189140  9.99796e+09
       635.00000  0.000189140  9.99985e+09
       635.10000  0.000189140  1.00017e+10
       635.20000  0.000189140  1.00017e+10
       635.30000  0.000189140  1.00036e+10
       635.40000  0.000189140  1.00036e+10
       635.50000  0.000182415  9.64977e+09
       635.60000  0.000182415  9.65160e+09
       635.70000  0.000182415  9.65160e+09
       635.80000  0.000182415  9.65342e+09
       635.90000  0.000182415  9.65342e+09
       636.00000  0.000182415  9.65525e+09
       636.10000  0.000182415  9.65525e+09
       636.20000  0.000182415  9.65707e+09
       636.30000  0.000181757  9.62224e+09
       636.40000  0.000181757  9.62406e+09
       636.50000  0.000174145  9.22095e+09
       636.60000  0.000174145  9.22270e+09
       636.70000  0.000174145  9.22270e+09
       636.80000  0.000174145  9.22444e+09
       636.90000  0.000174145  9.22444e+09
       637.00000  0.000174145  9.22444e+09
       637.10000  0.000174145  9.22618e+09
       637.20000  0.000174145  9.22618e+09
       637.30000  0.000174145  9.22792e+09
       637.40000  0.000174145  9.22792e+09
       637.50000  0.000167119  8.85563e+09
       637.60000  0.000167119  8.85730e+09
       637.70000  0.000167119  8.85730e+09
       637.80000  0.000167119  8.85897e+09
       637.90000  0.000167119  8.85897e+09
       638.00000  0.000167119  8.85897e+09
       638.10000  0.000167119  8.86064e+09
       638.20000  0.000167119  8.86064e+09
       638.30000  0.000167119  8.86064e+09
       638.40000  0.000167119  8.86231e+09
       638.50000  0.000160937  8.53451e+09
       638.60000  0.000160937  8.53451e+09
       638.70000  0.000160937  8.53612e+09
       638.80000  0.000160484  8.51207e+09
       638.90000  0.000160484  8.51207e+09
       639.00000  0.000160484  8.51207e+09
       639.10000  0.000160484  8.49923e+09
       639.20000  0.000160484  8.48639e+09
       639.30000  0.000160484  8.47355e+09
       639.40000  0.000160484  8.46232e+09
       639.50000  0.000154343  8.12618e+09
       639.60000  0.000154343  8.11692e+09
       639.70000  0.000154343  8.10612e+09
       639.80000  0.000154343  8.09685e+09
       639.90000  0.000154343  8.08914e+09
       640.00000  0.000154343  8.07988e+09
       640.10000  0.000154343  8.07216e+09
       640.20000  0.000154343  8.06599e+09
       640.30000  0.000154343  8.05981e+09
       640.40000  0.000154343  8.05364e+09
       640.50000  0.000146716  7.64975e+09
       640.60000  0.000146716  7.64535e+09
       640.70000  0.000146716  7.64095e+09
       640.80000  0.000146716  7.63801e+09
       640.90000  0.000146716  7.63361e+09
       641.00000  0.000146716  7.63215e+09
       641.10000  0.000146716  7.63508e+09
       641.20000  0.000146716  7.63801e+09
       641.30000  0.000146254  7.61692e+09
       641.40000  0.000146254  7.61984e+09
       641.50000  0.000141362  7.36780e+09
       641.60000  0.000141362  7.37063e+09
       641.70000  0.000141362  7.37345e+09
       641.80000  0.000141362  7.37628e+09
       641.90000  0.000141362  7.37911e+09
       642.00000  0.000141362  7.38194e+09
       642.10000  0.000141362  7.38335e+09
       642.20000  0.000141362  7.38618e+09
       642.30000  0.000141362  7.38900e+09
       642.40000  0.000141362  7.39183e+09
       642.50000  0.000136117  7.12028e+09
       642.60000  0.000136117  7.12300e+09
       642.70000  0.000136117  7.12573e+09
       642.80000  0.000136117  7.12845e+09
       642.90000  0.000136117  7.13117e+09
       643.00000  0.000136117  7.13389e+09
       643.10000  0.000136117  7.13525e+09
       643.20000  0.000136117  7.13798e+09
       643.30000  0.000136117  7.14070e+09
       643.40000  0.000136117  7.14342e+09
       643.50000  0.000129592  6.80360e+09
       643.60000  0.000129592  6.80620e+09
       643.70000  0.000129592  6.80749e+09
       643.80000  0.000129108  6.78461e+09
       643.90000  0.000129108  6.78720e+09
       644.00000  0.000129108  6.78978e+09
       644.10000  0.000129108  6.79236e+09
       644.20000  0.000129108  6.79365e+09
       644.30000  0.000129108  6.79623e+09
       644.40000  0.000129108  6.79882e+09
       644.50000  0.000125354  6.60367e+09
       644.60000  0.000125354  6.60492e+09
       644.70000  0.000125354  6.60743e+09
       644.80000  0.000125354  6.60994e+09
       644.90000  0.000125354  6.61244e+09
       645.00000  0.000125354  6.61370e+09
       645.10000  0.000125354  6.61244e+09
       645.20000  0.000125354  6.60994e+09
       645.30000  0.000125354  6.60868e+09
       645.40000  0.000125354  6.60618e+09
       645.50000  0.000121094  6.37800e+09
       645.60000  0.000121094  6.37558e+09
       645.70000  0.000121094  6.37316e+09
       645.80000  0.000121094  6.36952e+09
       645.90000  0.000121094  6.36589e+09
       646.00000  0.000121094  6.36226e+09
       646.10000  0.000121094  6.35863e+09
       646.20000  0.000121094  6.35499e+09
       646.30000  0.000120592  6.32382e+09
       646.40000  0.000120592  6.31900e+09
       646.50000  0.000116507  6.10147e+09
       646.60000  0.000116507  6.09564e+09
       646.70000  0.000116507  6.09098e+09
       646.80000  0.000116507  6.08632e+09
       646.90000  0.000116507  6.08049e+09
       647.00000  0.000116507  6.07583e+09
       647.10000  0.000116507  6.05952e+09
       647.20000  0.000116507  6.04438e+09
       647.30000  0.000116507  6.03040e+09
       647.40000  0.000116507  6.01642e+09
       647.50000  0.000112795  5.81235e+09
       647.60000  0.000112795  5.80220e+09
       647.70000  0.000112795  5.79092e+09
       647.80000  0.000112795  5.78189e+09
       647.90000  0.000112795  5.77287e+09
       648.00000  0.000112795  5.76497e+09
       648.10000  0.000112795  5.75820e+09
       648.20000  0.000112795  5.75257e+09
       648.30000  0.000112795  5.74693e+09
       648.40000  0.000112795  5.74241e+09
       648.50000  0.000109372  5.56485e+09
       648.60000  0.000109372  5.56266e+09
       648.70000  0.000109372  5.56047e+09
       648.80000  0.000108923  5.53654e+09
       648.90000  0.000108923  5.53654e+09
       649.00000  0.000108923  5.53763e+09
       649.10000  0.000108923  5.53872e+09
       649.20000  0.000108923  5.54199e+09
       649.30000  0.000108923  5.54417e+09
       649.40000  0.000108923  5.54853e+09
       649.50000  0.000105724  5.39089e+09
       649.60000  0.000105724  5.39617e+09
       649.70000  0.000105724  5.40252e+09
       649.80000  0.000105724  5.40992e+09
       649.90000  0.000105724  5.41732e+09
       650.00000  0.000105724  5.42577e+09
       650.10000  0.000105724  5.43529e+09
       650.20000  0.000105724  5.44586e+09
       650.30000  0.000105724  5.45749e+09
       650.40000  0.000105724  5.46912e+09
       650.50000  9.86664e-05  5.11585e+09
       650.60000  9.86664e-05  5.12868e+09
       650.70000  9.86664e-05  5.14151e+09
       650.80000  9.86664e-05  5.15631e+09
       650.90000  9.86664e-05  5.17111e+09
       651.00000  9.86664e-05  5.18689e+09
       651.10000  9.86664e-05  5.19084e+09
       651.20000  9.86664e-05  5.19479e+09
       651.30000  9.82299e-05  5.17475e+09
       651.40000  9.82299e-05  5.17770e+09
       651.50000  9.53516e-05  5.02885e+09
       651.60000  9.53516e-05  5.02980e+09
       651.70000  9.53516e-05  5.03171e+09
       651.80000  9.53516e-05  5.03266e+09
       651.90000  9.53516e-05  5.03266e+09
       652.00000  9.53516e-05  5.03266e+09
       652.10000  9.53516e-05  5.03171e+09
       652.20000  9.53516e-05  5.03075e+09
       652.30000  9.53516e-05  5.02980e+09
       652.40000  9.53516e-05  5.02789e+09
       652.50000  9.28194e-05  4.89159e+09
       652.60000  9.28194e-05  4.88880e+09
       652.70000  9.28194e-05  4.88602e+09
       652.80000  9.28194e-05  4.88137e+09
       652.90000  9.28194e-05  4.87766e+09
       653.00000  9.28194e-05  4.87302e+09
       653.10000  9.28194e-05  4.86931e+09
       653.20000  9.28194e-05  4.86560e+09
       653.30000  9.28194e-05  4.86003e+09
       653.40000  9.28194e-05  4.85446e+09
       653.50000  9.02802e-05  4.71624e+09
       653.60000  9.02802e-05  4.70992e+09
       653.70000  9.02802e-05  4.70269e+09
       653.80000  9.00697e-05  4.68362e+09
       653.90000  9.00697e-05  4.67552e+09
       654.00000  9.00697e-05  4.66651e+09
       654.10000  9.00697e-05  4.65750e+09
       654.20000  9.00697e-05  4.64670e+09
       654.30000  9.00697e-05  4.63589e+09
       654.40000  9.00697e-05  4.62508e+09
       654.50000  8.77282e-05  4.49344e+09
       654.60000  8.77282e-05  4.48115e+09
       654.70000  8.77282e-05  4.46800e+09
       654.80000  8.77282e-05  4.45484e+09
       654.90000  8.77282e-05  4.44080e+09
       655.00000  8.77282e-05  4.42589e+09
       655.10000  8.77282e-05  4.38378e+09
       655.20000  8.77282e-05  4.34342e+09
       655.30000  8.77282e-05  4.30570e+09
       655.40000  8.77282e-05  4.27061e+09
       655.50000  8.49352e-05  4.10237e+09
       655.60000  8.49352e-05  4.07264e+09
       655.70000  8.49352e-05  4.04462e+09
       655.80000  8.49352e-05  4.01914e+09
       655.90000  8.49352e-05  3.99535e+09
       656.00000  8.49352e-05  3.97412e+09
       656.10000  8.49352e-05  3.95543e+09
       656.20000  8.49352e-05  3.93845e+09
       656.30000  8.48269e-05  3.91900e+09
       656.40000  8.48269e-05  3.90628e+09
       656.50000  8.25302e-05  3.79061e+09
       656.60000  8.25302e-05  3.78319e+09
       656.70000  8.25302e-05  3.77741e+09
       656.80000  8.25302e-05  3.77411e+09
       656.90000  8.25302e-05  3.77246e+09
       657.00000  8.25302e-05  3.77328e+09
       657.10000  8.25302e-05  3.80547e+09
       657.20000  8.25302e-05  3.83683e+09
       657.30000  8.25302e-05  3.86737e+09
       657.40000  8.25302e-05  3.89708e+09
       657.50000  7.96995e-05  3.79051e+09
       657.60000  7.96995e-05  3.81761e+09
       657.70000  7.96995e-05  3.84311e+09
       657.80000  7.96995e-05  3.86782e+09
       657.90000  7.96995e-05  3.89093e+09
       658.00000  7.96995e-05  3.91404e+09
       658.10000  7.96995e-05  3.93636e+09
       658.20000  7.96995e-05  3.95708e+09
       658.30000  7.96995e-05  3.97701e+09
       658.40000  7.96995e-05  3.99613e+09
       658.50000  7.94491e-05  4.00106e+09
       658.60000  7.94491e-05  4.01854e+09
       658.70000  7.94491e-05  4.03443e+09
       658.80000  7.91835e-05  4.03678e+09
       658.90000  7.91835e-05  4.05103e+09
       659.00000  7.91835e-05  4.06370e+09
       659.10000  7.91835e-05  4.07637e+09
       659.20000  7.91835e-05  4.08824e+09
       659.30000  7.91835e-05  4.09854e+09
       659.40000  7.91835e-05  4.10804e+09
       659.50000  7.60350e-05  3.95306e+09
       659.60000  7.60350e-05  3.96066e+09
       659.70000  7.60350e-05  3.96675e+09
       659.80000  7.60350e-05  3.97283e+09
       659.90000  7.60350e-05  3.97739e+09
       660.00000  7.60350e-05  3.98119e+09
       660.10000  7.60350e-05  3.98424e+09
       660.20000  7.60350e-05  3.98576e+09
       660.30000  7.60350e-05  3.98728e+09
       660.40000  7.60350e-05  3.98728e+09
       660.50000  7.40750e-05  3.88375e+09
       660.60000  7.40750e-05  3.88227e+09
       660.70000  7.40750e-05  3.88005e+09
       660.80000  7.40750e-05  3.87634e+09
       660.90000  7.40750e-05  3.87264e+09
       661.00000  7.40750e-05  3.86745e+09
       661.10000  7.40750e-05  3.86523e+09
       661.20000  7.40750e-05  3.86227e+09
       661.30000  7.35326e-05  3.83178e+09
       661.40000  7.35326e-05  3.82958e+09
       661.50000  7.18488e-05  3.73973e+09
       661.60000  7.18488e-05  3.73830e+09
       661.70000  7.18488e-05  3.73614e+09
       661.80000  7.18488e-05  3.73470e+09
       661.90000  7.18488e-05  3.73327e+09
       662.00000  7.18488e-05  3.73183e+09
       662.10000  7.18488e-05  3.73039e+09
       662.20000  7.18488e-05  3.72895e+09
       662.30000  7.18488e-05  3.72824e+09
       662.40000  7.18488e-05  3.72752e+09
       662.50000  7.12797e-05  3.69656e+09
       662.60000  7.12797e-05  3.69656e+09
       662.70000  7.12797e-05  3.69585e+09
       662.80000  7.12797e-05  3.69514e+09
       662.90000  7.12797e-05  3.69514e+09
       663.00000  7.12797e-05  3.69514e+09
       663.10000  7.12797e-05  3.69799e+09
       663.20000  7.12797e-05  3.70013e+09
       663.30000  7.12797e-05  3.70298e+09
       663.40000  7.12797e-05  3.70512e+09
       663.50000  6.87352e-05  3.57492e+09
       663.60000  6.87352e-05  3.57698e+09
       663.70000  6.87352e-05  3.57835e+09
       663.80000  6.81700e-05  3.55097e+09
       663.90000  6.81700e-05  3.55234e+09
       664.00000  6.81700e-05  3.55302e+09
       664.10000  6.81700e-05  3.55438e+09
       664.20000  6.81700e-05  3.55506e+09
       664.30000  6.81700e-05  3.55575e+09
       664.40000  6.81700e-05  3.55643e+09
       664.50000  6.67779e-05  3.48380e+09
       664.60000  6.67779e-05  3.48380e+09
       664.70000  6.67779e-05  3.48380e+09
       664.80000  6.67779e-05  3.48380e+09
       664.90000  6.67779e-05  3.48380e+09
       665.00000  6.67779e-05  3.48313e+09
       665.10000  6.67779e-05  3.48247e+09
       665.20000  6.67779e-05  3.48180e+09
       665.30000  6.67779e-05  3.48046e+09
       665.40000  6.67779e-05  3.47913e+09
       665.50000  6.50887e-05  3.38982e+09
       665.60000  6.50887e-05  3.38852e+09
       665.70000  6.50887e-05  3.38656e+09
       665.80000  6.50887e-05  3.38526e+09
       665.90000  6.50887e-05  3.38331e+09
       666.00000  6.50887e-05  3.38071e+09
       666.10000  6.50887e-05  3.37875e+09
       666.20000  6.50887e-05  3.37615e+09
       666.30000  6.46679e-05  3.35174e+09
       666.40000  6.46679e-05  3.34915e+09
       666.50000  6.30189e-05  3.26060e+09
       666.60000  6.30189e-05  3.25744e+09
       666.70000  6.30189e-05  3.25429e+09
       666.80000  6.30189e-05  3.25114e+09
       666.90000  6.30189e-05  3.24799e+09
       667.00000  6.30189e-05  3.24421e+09
       667.10000  6.30189e-05  3.24799e+09
       667.20000  6.30189e-05  3.25114e+09
       667.30000  6.30189e-05  3.25429e+09
       667.40000  6.30189e-05  3.25744e+09
       667.50000  6.10527e-05  3.15887e+09
       667.60000  6.10527e-05  3.16131e+09
       667.70000  6.10527e-05  3.16375e+09
       667.80000  6.10527e-05  3.16558e+09
       667.90000  6.10527e-05  3.16741e+09
       668.00000  6.10527e-05  3.16924e+09
       668.10000  6.10527e-05  3.17108e+09
       668.20000  6.10527e-05  3.17230e+09
       668.30000  6.10527e-05  3.17352e+09
       668.40000  6.10527e-05  3.17413e+09
       668.50000  5.93919e-05  3.08838e+09
       668.60000  5.93919e-05  3.08897e+09
       668.70000  5.93919e-05  3.08897e+09
       668.80000  5.90511e-05  3.07125e+09
       668.90000  5.90511e-05  3.07125e+09
       669.00000  5.90511e-05  3.07066e+09
       669.10000  5.90511e-05  3.06652e+09
       669.20000  5.90511e-05  3.06239e+09
       669.30000  5.90511e-05  3.05885e+09
       669.40000  5.90511e-05  3.05530e+09
       669.50000  5.76267e-05  2.97815e+09
       669.60000  5.76267e-05  2.97469e+09
       669.70000  5.76267e-05  2.97181e+09
       669.80000  5.76267e-05  2.96893e+09
       669.90000  5.76267e-05  2.96605e+09
       670.00000  5.76267e-05  2.96374e+09
       670.10000  5.76267e-05  2.96144e+09
       670.20000  5.76267e-05  2.95913e+09
       670.30000  5.76267e-05  2.95683e+09
       670.40000  5.76267e-05  2.95510e+09
       670.50000  5.59614e-05  2.86802e+09
       670.60000  5.59614e-05  2.86634e+09
       670.70000  5.59614e-05  2.86522e+09
       670.80000  5.59614e-05  2.86410e+09
       670.90000  5.59614e-05  2.86299e+09
       671.00000  5.59614e-05  2.86243e+09
       671.10000  5.59614e-05  2.86131e+09
       671.20000  5.59614e-05  2.86131e+09
       671.30000  5.56444e-05  2.84454e+09
       671.40000  5.56444e-05  2.84454e+09
       671.50000  5.42800e-05  2.77479e+09
       671.60000  5.42800e-05  2.77479e+09
       671.70000  5.42800e-05  2.77479e+09
       671.80000  5.42800e-05  2.77534e+09
       671.90000  5.42800e-05  2.77588e+09
       672.00000  5.42800e-05  2.77697e+09
       672.10000  5.42800e-05  2.77805e+09
       672.20000  5.42800e-05  2.77914e+09
       672.30000  5.42800e-05  2.78022e+09
       672.40000  5.42800e-05  2.78185e+09
       672.50000  5.31640e-05  2.72625e+09
       672.60000  5.31640e-05  2.72784e+09
       672.70000  5.31640e-05  2.72944e+09
       672.80000  5.31640e-05  2.73157e+09
       672.90000  5.31640e-05  2.73369e+09
       673.00000  5.31640e-05  2.73635e+09
       673.10000  5.31640e-05  2.73529e+09
       673.20000  5.31640e-05  2.73422e+09
       673.30000  5.31640e-05  2.73316e+09
       673.40000  5.31640e-05  2.73263e+09
       673.50000  5.09438e-05  2.61749e+09
       673.60000  5.09438e-05  2.61698e+09
       673.70000  5.09438e-05  2.61647e+09
       673.80000  5.06269e-05  2.59918e+09
       673.90000  5.06269e-05  2.59868e+09
       674.00000  5.06269e-05  2.59817e+09
       674.10000  5.06269e-05  2.59766e+09
       674.20000  5.06269e-05  2.59716e+09
       674.30000  5.06269e-05  2.59665e+09
       674.40000  5.06269e-05  2.59615e+09
       674.50000  4.92408e-05  2.52457e+09
       674.60000  4.92408e-05  2.52457e+09
       674.70000  4.92408e-05  2.52408e+09
       674.80000  4.92408e-05  2.52408e+09
       674.90000  4.92408e-05  2.52359e+09
       675.00000  4.92408e-05  2.52359e+09
       675.10000  4.92408e-05  2.52408e+09
       675.20000  4.92408e-05  2.52457e+09
       675.30000  4.92408e-05  2.52507e+09
       675.40000  4.92408e-05  2.52556e+09
       675.50000  4.78551e-05  2.45449e+09
       675.60000  4.78551e-05  2.45497e+09
       675.70000  4.78551e-05  2.45544e+09
       675.80000  4.78551e-05  2.45544e+09
       675.90000  4.78551e-05  2.45592e+09
       676.00000  4.78551e-05  2.45592e+09
       676.10000  4.78551e-05  2.45640e+09
       676.20000  4.78551e-05  2.45640e+09
       676.30000  4.74934e-05  2.43783e+09
       676.40000  4.74934e-05  2.43783e+09
       676.50000  4.64129e-05  2.38284e+09
       676.60000  4.64129e-05  2.38284e+09
       676.70000  4.64129e-05  2.38284e+09
       676.80000  4.64129e-05  2.38237e+09
       676.90000  4.64129e-05  2.38237e+09
       677.00000  4.64129e-05  2.38237e+09
       677.10000  4.64129e-05  2.38237e+09
       677.20000  4.64129e-05  2.38191e+09
       677.30000  4.64129e-05  2.38191e+09
       677.40000  4.64129e-05  2.38145e+09
       677.50000  4.39287e-05  2.25398e+09
       677.60000  4.39287e-05  2.25354e+09
       677.70000  4.39287e-05  2.25354e+09
       677.80000  4.39287e-05  2.25310e+09
       677.90000  4.39287e-05  2.25266e+09
       678.00000  4.39287e-05  2.25222e+09
       678.10000  4.39287e-05  2.25178e+09
       678.20000  4.39287e-05  2.25135e+09
       678.30000  4.39287e-05  2.25091e+09
       678.40000  4.39287e-05  2.25047e+09
       678.50000  4.34014e-05  2.22259e+09
       678.60000  4.34014e-05  2.22215e+09
       678.70000  4.34014e-05  2.22172e+09
       678.80000  4.30743e-05  2.20411e+09
       678.90000  4.30743e-05  2.20368e+09
       679.00000  4.30743e-05  2.20282e+09
       679.10000  4.30743e-05  2.20282e+09
       679.20000  4.30743e-05  2.20325e+09
       679.30000  4.30743e-05  2.20325e+09
       679.40000  4.30743e-05  2.20325e+09
       679.50000  4.11632e-05  2.10550e+09
       679.60000  4.11632e-05  2.10550e+09
       679.70000  4.11632e-05  2.10550e+09
       679.80000  4.11632e-05  2.10550e+09
       679.90000  4.11632e-05  2.10550e+09
       680.00000  4.11632e-05  2.10509e+09
       680.10000  4.11632e-05  2.10509e+09
       680.20000  4.11632e-05  2.10509e+09
       680.30000  4.11632e-05  2.10467e+09
       680.40000  4.11632e-05  2.10467e+09
       680.50000  4.03535e-05  2.06287e+09
       680.60000  4.03535e-05  2.06287e+09
       680.70000  4.03535e-05  2.06246e+09
       680.80000  4.03535e-05  2.06206e+09
       680.90000  4.03535e-05  2.06166e+09
       681.00000  4.03535e-05  2.06166e+09
       681.10000  4.03535e-05  2.06125e+09
       681.20000  4.03535e-05  2.06085e+09
       681.30000  4.00127e-05  2.04345e+09
       681.40000  4.00127e-05  2.04305e+09
       681.50000  3.80933e-05  1.94466e+09
       681.60000  3.80933e-05  1.94428e+09
       681.70000  3.80933e-05  1.94390e+09
       681.80000  3.80933e-05  1.94314e+09
       681.90000  3.80933e-05  1.94276e+09
       682.00000  3.80933e-05  1.94238e+09
       682.10000  3.80933e-05  1.94162e+09
       682.20000  3.80933e-05  1.94086e+09
       682.30000  3.80933e-05  1.94047e+09
       682.40000  3.80933e-05  1.93971e+09
       682.50000  3.61893e-05  1.84203e+09
       682.60000  3.61893e-05  1.84131e+09
       682.70000  3.61893e-05  1.84059e+09
       682.80000  3.61893e-05  1.83986e+09
       682.90000  3.61893e-05  1.83878e+09
       683.00000  3.61893e-05  1.83805e+09
       683.10000  3.61893e-05  1.83733e+09
       683.20000  3.61893e-05  1.83624e+09
       683.30000  3.61893e-05  1.83516e+09
       683.40000  3.61893e-05  1.83407e+09
       683.50000  3.48293e-05  1.76445e+09
       683.60000  3.48293e-05  1.76341e+09
       683.70000  3.48293e-05  1.76236e+09
       683.80000  3.44986e-05  1.74425e+09
       683.90000  3.44986e-05  1.74322e+09
       684.00000  3.44986e-05  1.74218e+09
       684.10000  3.44986e-05  1.74080e+09
       684.20000  3.44986e-05  1.73977e+09
       684.30000  3.44986e-05  1.73839e+09
       684.40000  3.44986e-05  1.73735e+09
       684.50000  3.31484e-05  1.66803e+09
       684.60000  3.31484e-05  1.66670e+09
       684.70000  3.31484e-05  1.66538e+09
       684.80000  3.31484e-05  1.66405e+09
       684.90000  3.31484e-05  1.66239e+09
       685.00000  3.31484e-05  1.66107e+09
       685.10000  3.31484e-05  1.66239e+09
       685.20000  3.31484e-05  1.66405e+09
       685.30000  3.31484e-05  1.66538e+09
       685.40000  3.31484e-05  1.66637e+09
       685.50000  3.26170e-05  1.64096e+09
       685.60000  3.26170e-05  1.64227e+09
       685.70000  3.26170e-05  1.64325e+09
       685.80000  3.26170e-05  1.64422e+09
       685.90000  3.26170e-05  1.64520e+09
       686.00000  3.26170e-05  1.64618e+09
       686.10000  3.26170e-05  1.64716e+09
       686.20000  3.26170e-05  1.64781e+09
       686.30000  3.23090e-05  1.63322e+09
       686.40000  3.23090e-05  1.63387e+09
       686.50000  3.01696e-05  1.52628e+09
       686.60000  3.01696e-05  1.52688e+09
       686.70000  3.01696e-05  1.52749e+09
       686.80000  3.01696e-05  1.52779e+09
       686.90000  3.01696e-05  1.52839e+09
       687.00000  3.01696e-05  1.52869e+09
       687.10000  3.01696e-05  1.52900e+09
       687.20000  3.01696e-05  1.52900e+09
       687.30000  3.01696e-05  1.52900e+09
       687.40000  3.01696e-05  1.52900e+09
       687.50000  3.01674e-05  1.52888e+09
       687.60000  3.01674e-05  1.52888e+09
       687.70000  3.01674e-05  1.52888e+09
       687.80000  3.01674e-05  1.52888e+09
       687.90000  3.01674e-05  1.52888e+09
       688.00000  3.01674e-05  1.52858e+09
       688.10000  3.01674e-05  1.52858e+09
       688.20000  3.01674e-05  1.52858e+09
       688.30000  3.01674e-05  1.52828e+09
       688.40000  3.01674e-05  1.52828e+09
       688.50000  2.82942e-05  1.43310e+09
       688.60000  2.82942e-05  1.43282e+09
       688.70000  2.82942e-05  1.43282e+09
       688.80000  2.80620e-05  1.42078e+09
       688.90000  2.80620e-05  1.42050e+09
       689.00000  2.80620e-05  1.42022e+09
       689.10000  2.80620e-05  1.41994e+09
       689.20000  2.80620e-05  1.41965e+09
       689.30000  2.80620e-05  1.41937e+09
       689.40000  2.80620e-05  1.41909e+09
       689.50000  2.69936e-05  1.36480e+09
       689.60000  2.69936e-05  1.36453e+09
       689.70000  2.69936e-05  1.36399e+09
       689.80000  2.69936e-05  1.36372e+09
       689.90000  2.69936e-05  1.36345e+09
       690.00000  2.69936e-05  1.36291e+09
       690.10000  2.69936e-05  1.36237e+09
       690.20000  2.69936e-05  1.36210e+09
       690.30000  2.69936e-05  1.36156e+09
       690.40000  2.69936e-05  1.36102e+09
       690.50000  2.64693e-05  1.33432e+09
       690.60000  2.64693e-05  1.33379e+09
       690.70000  2.64693e-05  1.33326e+09
       690.80000  2.64693e-05  1.33273e+09
       690.90000  2.64693e-05  1.33220e+09
       691.00000  2.64693e-05  1.33167e+09
       691.10000  2.64693e-05  1.33220e+09
       691.20000  2.64693e-05  1.33247e+09
       691.30000  2.62688e-05  1.32290e+09
       691.40000  2.62688e-05  1.32316e+09
       691.50000  2.49486e-05  1.25691e+09
       691.60000  2.49486e-05  1.25741e+09
       691.70000  2.49486e-05  1.25766e+09
       691.80000  2.49486e-05  1.25791e+09
       691.90000  2.49486e-05  1.25816e+09
       692.00000  2.49486e-05  1.25816e+09
       692.10000  2.49486e-05  1.25841e+09
       692.20000  2.49486e-05  1.25866e+09
       692.30000  2.49486e-05  1.25866e+09
       692.40000  2.49486e-05  1.25866e+09
       692.50000  2.41622e-05  1.21922e+09
       692.60000  2.41622e-05  1.21922e+09
       692.70000  2.41622e-05  1.21922e+09
       692.80000  2.41622e-05  1.21922e+09
       692.90000  2.41622e-05  1.21922e+09
       693.00000  2.41622e-05  1.21898e+09
       693.10000  2.41622e-05  1.21898e+09
       693.20000  2.41622e-05  1.21874e+09
       693.30000  2.41622e-05  1.21850e+09
       693.40000  2.41622e-05  1.21826e+09
       693.50000  2.33572e-05  1.17744e+09
       693.60000  2.33572e-05  1.17720e+09
       693.70000  2.33572e-05  1.17697e+09
       693.80000  2.31961e-05  1.16862e+09
       693.90000  2.31961e-05  1.16816e+09
       694.00000  2.31961e-05  1.16792e+09
       694.10000  2.31961e-05  1.16769e+09
       694.20000  2.31961e-05  1.16723e+09
       694.30000  2.31961e-05  1.16700e+09
       694.40000  2.31961e-05  1.16653e+09
       694.50000  2.21526e-05  1.11361e+09
       694.60000  2.21526e-05  1.11339e+09
       694.70000  2.21526e-05  1.11295e+09
       694.80000  2.21526e-05  1.11251e+09
       694.90000  2.21526e-05  1.11206e+09
       695.00000  2.21526e-05  1.11162e+09
       695.10000  2.21526e-05  1.11118e+09
       695.20000  2.21526e-05  1.11073e+09
       695.30000  2.21526e-05  1.11007e+09
       695.40000  2.21526e-05  1.10963e+09
       695.50000  2.18994e-05  1.09650e+09
       695.60000  2.18994e-05  1.09584e+09
       695.70000  2.18994e-05  1.09541e+09
       695.80000  2.18994e-05  1.09475e+09
       695.90000  2.18994e-05  1.09409e+09
       696.00000  2.18994e-05  1.09365e+09
       696.10000  2.18994e-05  1.09300e+09
       696.20000  2.18994e-05  1.09234e+09
       696.30000  2.17712e-05  1.08530e+09
       696.40000  2.17712e-05  1.08464e+09
       696.50000  2.09892e-05  1.04505e+09
       696.60000  2.09892e-05  1.04442e+09
       696.70000  2.09892e-05  1.04358e+09
       696.80000  2.09892e-05  1.04295e+09
       696.90000  2.09892e-05  1.04232e+09
       697.00000  2.09892e-05  1.04149e+09
       697.10000  2.09892e-05  1.04295e+09
       697.20000  2.09892e-05  1.04400e+09
       697.30000  2.09892e-05  1.04526e+09
       697.40000  2.09892e-05  1.04631e+09
       697.50000  2.04577e-05  1.02084e+09
       697.60000  2.04577e-05  1.02166e+09
       697.70000  2.04577e-05  1.02248e+09
       697.80000  2.04577e-05  1.02309e+09
       697.90000  2.04577e-05  1.02370e+09
       698.00000  2.04577e-05  1.02411e+09
       698.10000  2.04577e-05  1.02452e+09
       698.20000  2.04577e-05  1.02493e+09
       698.30000  2.04577e-05  1.02514e+09
       698.40000  2.04577e-05  1.02534e+09
       698.50000  1.96779e-05  9.86453e+08
       698.60000  1.96779e-05  9.86453e+08
       698.70000  1.96779e-05  9.86256e+08
       698.80000  1.95573e-05  9.80014e+08
       698.90000  1.95573e-05  9.79819e+08
       699.00000  1.95573e-05  9.79428e+08
       699.10000  1.95573e-05  9.77668e+08
       699.20000  1.95573e-05  9.75712e+08
       699.30000  1.95573e-05  9.74147e+08
       699.40000  1.95573e-05  9.72387e+08
       699.50000  1.92903e-05  9.57570e+08
       699.60000  1.92903e-05  9.56027e+08
       699.70000  1.92903e-05  9.54676e+08
       699.80000  1.92903e-05  9.53326e+08
       699.90000  1.92903e-05  9.51976e+08
       700.00000  1.92903e-05  9.50818e+08
       700.10000  1.92903e-05  9.49661e+08
       700.20000  1.92903e-05  9.48503e+08
       700.30000  1.92903e-05  9.47539e+08
       700.40000  1.92903e-05  9.46574e+08
       700.50000  1.87715e-05  9.20180e+08
       700.60000  1.87715e-05  9.19429e+08
       700.70000  1.87715e-05  9.18678e+08
       700.80000  1.87715e-05  9.18115e+08
       700.90000  1.87715e-05  9.17552e+08
       701.00000  1.87715e-05  9.16989e+08
       701.10000  1.87715e-05  9.16801e+08
       701.20000  1.87715e-05  9.16614e+08
       701.30000  1.86324e-05  9.09636e+08
       701.40000  1.86324e-05  9.09636e+08
       701.50000  1.78668e-05  8.72259e+08
       701.60000  1.78668e-05  8.72259e+08
       701.70000  1.78668e-05  8.72259e+08
       701.80000  1.78668e-05  8.72438e+08
       701.90000  1.78668e-05  8.72438e+08
       702.00000  1.78668e-05  8.72616e+08
       702.10000  1.78668e-05  8.72974e+08
       702.20000  1.78668e-05  8.73152e+08
       702.30000  1.78668e-05  8.73510e+08
       702.40000  1.78668e-05  8.73689e+08
       702.50000  1.65719e-05  8.10698e+08
       702.60000  1.65719e-05  8.11196e+08
       702.70000  1.65719e-05  8.11527e+08
       702.80000  1.65719e-05  8.12024e+08
       702.90000  1.65719e-05  8.12521e+08
       703.00000  1.65719e-05  8.13018e+08
       703.10000  1.65719e-05  8.14510e+08
       703.20000  1.65719e-05  8.16001e+08
       703.30000  1.65719e-05  8.17327e+08
       703.40000  1.65719e-05  8.18653e+08
       703.50000  1.65708e-05  8.19756e+08
       703.60000  1.65708e-05  8.21081e+08
       703.70000  1.65708e-05  8.22076e+08
       703.80000  1.64170e-05  8.15595e+08
       703.90000  1.64170e-05  8.16580e+08
       704.00000  1.64170e-05  8.17401e+08
       704.10000  1.64170e-05  8.18386e+08
       704.20000  1.64170e-05  8.19206e+08
       704.30000  1.64170e-05  8.19863e+08
       704.40000  1.64170e-05  8.20520e+08
       704.50000  1.61683e-05  8.08739e+08
       704.60000  1.61683e-05  8.09386e+08
       704.70000  1.61683e-05  8.09871e+08
       704.80000  1.61683e-05  8.10194e+08
       704.90000  1.61683e-05  8.10679e+08
       705.00000  1.61683e-05  8.11003e+08
       705.10000  1.61683e-05  8.11164e+08
       705.20000  1.61683e-05  8.11326e+08
       705.30000  1.61683e-05  8.11488e+08
       705.40000  1.61683e-05  8.11649e+08
       705.50000  1.61688e-05  8.11675e+08
       705.60000  1.61688e-05  8.11675e+08
       705.70000  1.61688e-05  8.11514e+08
       705.80000  1.61688e-05  8.11352e+08
       705.90000  1.61688e-05  8.11190e+08
       706.00000  1.61688e-05  8.10867e+08
       706.10000  1.61688e-05  8.10544e+08
       706.20000  1.61688e-05  8.10059e+08
       706.30000  1.60093e-05  8.01588e+08
       706.40000  1.60093e-05  8.01108e+08
       706.50000  1.52514e-05  7.62572e+08
       706.60000  1.52514e-05  7.61961e+08
       706.70000  1.52514e-05  7.61351e+08
       706.80000  1.52514e-05  7.60589e+08
       706.90000  1.52514e-05  7.59826e+08
       707.00000  1.52514e-05  7.59064e+08
       707.10000  1.52514e-05  7.58454e+08
       707.20000  1.52514e-05  7.57996e+08
       707.30000  1.52514e-05  7.57386e+08
       707.40000  1.52514e-05  7.56929e+08
       707.50000  1.47416e-05  7.31183e+08
       707.60000  1.47416e-05  7.30740e+08
       707.70000  1.47416e-05  7.30446e+08
       707.80000  1.47416e-05  7.30003e+08
       707.90000  1.47416e-05  7.29709e+08
       708.00000  1.47416e-05  7.29414e+08
       708.10000  1.47416e-05  7.29119e+08
       708.20000  1.47416e-05  7.28824e+08
       708.30000  1.47416e-05  7.28529e+08
       708.40000  1.47416e-05  7.28234e+08
       708.50000  1.44888e-05  7.15601e+08
       708.60000  1.44888e-05  7.15311e+08
       708.70000  1.44888e-05  7.15166e+08
       708.80000  1.43228e-05  7.06831e+08
       708.90000  1.43228e-05  7.06687e+08
       709.00000  1.43228e-05  7.06687e+08
       709.10000  1.43228e-05  7.06974e+08
       709.20000  1.43228e-05  7.07260e+08
       709.30000  1.43228e-05  7.07404e+08
       709.40000  1.43228e-05  7.07690e+08
       709.50000  1.38241e-05  6.83186e+08
       709.60000  1.38241e-05  6.83463e+08
       709.70000  1.38241e-05  6.83601e+08
       709.80000  1.38241e-05  6.83739e+08
       709.90000  1.38241e-05  6.83878e+08
       710.00000  1.38241e-05  6.84016e+08
       710.10000  1.38241e-05  6.84154e+08
       710.20000  1.38241e-05  6.84292e+08
       710.30000  1.38241e-05  6.84292e+08
       710.40000  1.38241e-05  6.84431e+08
       710.50000  1.33279e-05  6.59863e+08
       710.60000  1.33279e-05  6.59863e+08
       710.70000  1.33279e-05  6.59863e+08
       710.80000  1.33279e-05  6.59863e+08
       710.90000  1.33279e-05  6.59863e+08
       711.00000  1.33279e-05  6.59863e+08
       711.10000  1.33279e-05  6.59863e+08
       711.20000  1.33279e-05  6.59729e+08
       711.30000  1.31332e-05  6.50091e+08
       711.40000  1.31332e-05  6.49960e+08
       711.50000  1.31320e-05  6.49769e+08
       711.60000  1.31320e-05  6.49638e+08
       711.70000  1.31320e-05  6.49506e+08
       711.80000  1.31320e-05  6.49375e+08
       711.90000  1.31320e-05  6.49244e+08
       712.00000  1.31320e-05  6.48981e+08
       712.10000  1.31320e-05  6.48850e+08
       712.20000  1.31320e-05  6.48587e+08
       712.30000  1.31320e-05  6.48456e+08
       712.40000  1.31320e-05  6.48193e+08
       712.50000  1.28855e-05  6.35771e+08
       712.60000  1.28855e-05  6.35513e+08
       712.70000  1.28855e-05  6.35127e+08
       712.80000  1.28855e-05  6.34869e+08
       712.90000  1.28855e-05  6.34611e+08
       713.00000  1.28855e-05  6.34225e+08
       713.10000  1.28855e-05  6.34225e+08
       713.20000  1.28855e-05  6.34225e+08
       713.30000  1.28855e-05  6.34225e+08
       713.40000  1.28855e-05  6.34096e+08
       713.50000  1.21439e-05  5.97604e+08
       713.60000  1.21439e-05  5.97604e+08
       713.70000  1.21439e-05  5.97482e+08
       713.80000  1.19784e-05  5.89339e+08
       713.90000  1.19784e-05  5.89219e+08
       714.00000  1.19784e-05  5.89219e+08
       714.10000  1.19784e-05  5.89099e+08
       714.20000  1.19784e-05  5.88979e+08
       714.30000  1.19784e-05  5.88979e+08
       714.40000  1.19784e-05  5.88859e+08
       714.50000  1.17372e-05  5.76885e+08
       714.60000  1.17372e-05  5.76768e+08
       714.70000  1.17372e-05  5.76768e+08
       714.80000  1.17372e-05  5.76651e+08
       714.90000  1.17372e-05  5.76533e+08
       715.00000  1.17372e-05  5.76416e+08
       715.10000  1.17372e-05  5.76298e+08
       715.20000  1.17372e-05  5.76298e+08
       715.30000  1.17372e-05  5.76298e+08
       715.40000  1.17372e-05  5.76181e+08
       715.50000  1.14961e-05  5.64230e+08
       715.60000  1.14961e-05  5.64115e+08
       715.70000  1.14961e-05  5.64000e+08
       715.80000  1.14961e-05  5.63886e+08
       715.90000  1.14961e-05  5.63771e+08
       716.00000  1.14961e-05  5.63541e+08
       716.10000  1.14961e-05  5.63426e+08
       716.20000  1.14961e-05  5.63196e+08
       716.30000  1.13425e-05  5.55444e+08
       716.40000  1.13425e-05  5.55217e+08
       716.50000  1.11029e-05  5.43265e+08
       716.60000  1.11029e-05  5.43043e+08
       716.70000  1.11029e-05  5.42821e+08
       716.80000  1.11029e-05  5.42488e+08
       716.90000  1.11029e-05  5.42266e+08
       717.00000  1.11029e-05  5.41933e+08
       717.10000  1.11029e-05  5.41599e+08
       717.20000  1.11029e-05  5.41266e+08
       717.30000  1.11029e-05  5.40933e+08
       717.40000  1.11029e-05  5.40600e+08
       717.50000  1.06227e-05  5.16902e+08
       717.60000  1.06227e-05  5.16477e+08
       717.70000  1.06227e-05  5.16158e+08
       717.80000  1.06227e-05  5.15733e+08
       717.90000  1.06227e-05  5.15308e+08
       718.00000  1.06227e-05  5.14884e+08
       718.10000  1.06227e-05  5.14459e+08
       718.20000  1.06227e-05  5.14034e+08
       718.30000  1.06227e-05  5.13609e+08
       718.40000  1.06227e-05  5.13078e+08
       718.50000  1.06264e-05  5.12831e+08
       718.60000  1.06264e-05  5.12299e+08
       718.70000  1.06264e-05  5.11768e+08
       718.80000  1.04988e-05  5.05097e+08
       718.90000  1.04988e-05  5.04572e+08
       719.00000  1.04988e-05  5.04047e+08
       719.10000  1.04988e-05  5.04047e+08
       719.20000  1.04988e-05  5.04047e+08
       719.30000  1.04988e-05  5.04047e+08
       719.40000  1.04988e-05  5.04152e+08
       719.50000  1.07373e-05  5.15607e+08
       719.60000  1.07373e-05  5.15715e+08
       719.70000  1.07373e-05  5.15715e+08
       719.80000  1.07373e-05  5.15822e+08
       719.90000  1.07373e-05  5.15930e+08
       720.00000  1.07373e-05  5.16144e+08
       720.10000  1.07373e-05  5.16252e+08
       720.20000  1.07373e-05  5.16359e+08
       720.30000  1.07373e-05  5.16574e+08
       720.40000  1.07373e-05  5.16681e+08
       720.50000  1.02594e-05  4.93888e+08
       720.60000  1.02594e-05  4.94093e+08
       720.70000  1.02594e-05  4.94298e+08
       720.80000  1.02594e-05  4.94503e+08
       720.90000  1.02594e-05  4.94811e+08
       721.00000  1.02594e-05  4.95016e+08
       721.10000  1.02594e-05  4.95529e+08
       721.20000  1.02594e-05  4.96042e+08
       721.30000  1.01437e-05  4.90955e+08
       721.40000  1.01437e-05  4.91361e+08
       721.50000  1.03784e-05  5.03247e+08
       721.60000  1.03784e-05  5.03662e+08
       721.70000  1.03784e-05  5.04077e+08
       721.80000  1.03784e-05  5.04596e+08
       721.90000  1.03784e-05  5.05011e+08
       722.00000  1.03784e-05  5.05322e+08
       722.10000  1.03784e-05  5.05738e+08
       722.20000  1.03784e-05  5.06153e+08
       722.30000  1.03784e-05  5.06464e+08
       722.40000  1.03784e-05  5.06775e+08
       722.50000  1.01468e-05  4.95771e+08
       722.60000  1.01468e-05  4.96177e+08
       722.70000  1.01468e-05  4.96380e+08
       722.80000  1.01468e-05  4.96684e+08
       722.90000  1.01468e-05  4.96988e+08
       723.00000  1.01468e-05  4.97191e+08
       723.10000  1.01468e-05  4.97496e+08
       723.20000  1.01468e-05  4.97699e+08
       723.30000  1.01468e-05  4.97902e+08
       723.40000  1.01468e-05  4.98105e+08
       723.50000  9.20697e-06  4.52154e+08
       723.60000  9.20697e-06  4.52246e+08
       723.70000  9.20697e-06  4.52430e+08
       723.80000  9.10304e-06  4.47414e+08
       723.90000  9.10304e-06  4.47505e+08
       724.00000  9.10304e-06  4.47597e+08
       724.10000  9.10304e-06  4.47688e+08
       724.20000  9.10304e-06  4.47779e+08
       724.30000  9.10304e-06  4.47870e+08
       724.40000  9.10304e-06  4.47961e+08
       724.50000  9.10301e-06  4.47959e+08
       724.60000  9.10301e-06  4.47959e+08
       724.70000  9.10301e-06  4.47959e+08
       724.80000  9.10301e-06  4.47959e+08
       724.90000  9.10301e-06  4.47959e+08
       725.00000  9.10301e-06  4.47959e+08
       725.10000  9.10301e-06  4.48141e+08
       725.20000  9.10301e-06  4.48323e+08
       725.30000  9.10301e-06  4.48414e+08
       725.40000  9.10301e-06  4.48596e+08
       725.50000  9.33577e-06  4.60160e+08
       725.60000  9.33577e-06  4.60253e+08
       725.70000  9.33577e-06  4.60253e+08
       725.80000  9.33577e-06  4.60347e+08
       725.90000  9.33577e-06  4.60347e+08
       726.00000  9.33577e-06  4.60347e+08
       726.10000  9.33577e-06  4.60347e+08
       726.20000  9.33577e-06  4.60347e+08
       726.30000  9.23166e-06  4.55121e+08
       726.40000  9.23166e-06  4.55029e+08
       726.50000  8.77395e-06  4.32380e+08
       726.60000  8.77395e-06  4.32292e+08
       726.70000  8.77395e-06  4.32205e+08
       726.80000  8.77395e-06  4.32029e+08
       726.90000  8.77395e-06  4.31854e+08
       727.00000  8.77395e-06  4.31678e+08
       727.10000  8.77395e-06  4.31064e+08
       727.20000  8.77395e-06  4.30450e+08
       727.30000  8.77395e-06  4.29836e+08
       727.40000  8.77395e-06  4.29309e+08
       727.50000  8.77336e-06  4.28754e+08
       727.60000  8.77336e-06  4.28228e+08
       727.70000  8.77336e-06  4.27789e+08
       727.80000  8.77336e-06  4.27350e+08
       727.90000  8.77336e-06  4.26912e+08
       728.00000  8.77336e-06  4.26561e+08
       728.10000  8.77336e-06  4.26210e+08
       728.20000  8.77336e-06  4.25859e+08
       728.30000  8.77336e-06  4.25508e+08
       728.40000  8.77336e-06  4.25245e+08
       728.50000  8.54429e-06  4.13885e+08
       728.60000  8.54429e-06  4.13714e+08
       728.70000  8.54429e-06  4.13458e+08
       728.80000  8.44900e-06  4.08763e+08
       728.90000  8.44900e-06  4.08594e+08
       729.00000  8.44900e-06  4.08509e+08
       729.10000  8.44900e-06  4.08425e+08
       729.20000  8.44900e-06  4.08340e+08
       729.30000  8.44900e-06  4.08340e+08
       729.40000  8.44900e-06  4.08256e+08
       729.50000  8.67891e-06  4.19452e+08
       729.60000  8.67891e-06  4.19452e+08
       729.70000  8.67891e-06  4.19539e+08
       729.80000  8.67891e-06  4.19625e+08
       729.90000  8.67891e-06  4.19799e+08
       730.00000  8.67891e-06  4.19973e+08
       730.10000  8.67891e-06  4.20146e+08
       730.20000  8.67891e-06  4.20320e+08
       730.30000  8.67891e-06  4.20580e+08
       730.40000  8.67891e-06  4.20840e+08
       730.50000  8.22412e-06  3.99034e+08
       730.60000  8.22412e-06  3.99363e+08
       730.70000  8.22412e-06  3.99692e+08
       730.80000  8.22412e-06  4.00021e+08
       730.90000  8.22412e-06  4.00433e+08
       731.00000  8.22412e-06  4.00844e+08
       731.10000  8.22412e-06  4.00761e+08
       731.20000  8.22412e-06  4.00679e+08
       731.30000  8.12218e-06  3.95631e+08
       731.40000  8.12218e-06  3.95631e+08
       731.50000  8.12665e-06  3.95768e+08
       731.60000  8.12665e-06  3.95687e+08
       731.70000  8.12665e-06  3.95605e+08
       731.80000  8.12665e-06  3.95605e+08
       731.90000  8.12665e-06  3.95524e+08
       732.00000  8.12665e-06  3.95443e+08
       732.10000  8.12665e-06  3.95362e+08
       732.20000  8.12665e-06  3.95280e+08
       732.30000  8.12665e-06  3.95280e+08
       732.40000  8.12665e-06  3.95199e+08
       732.50000  8.57664e-06  4.16996e+08
       732.60000  8.57664e-06  4.16911e+08
       732.70000  8.57664e-06  4.16825e+08
       732.80000  8.57664e-06  4.16739e+08
       732.90000  8.57664e-06  4.16653e+08
       733.00000  8.57664e-06  4.16568e+08
       733.10000  8.57664e-06  4.16482e+08
       733.20000  8.57664e-06  4.16310e+08
       733.30000  8.57664e-06  4.16224e+08
       733.40000  8.57664e-06  4.16053e+08
       733.50000  8.35572e-06  4.05252e+08
       733.60000  8.35572e-06  4.05169e+08
       733.70000  8.35572e-06  4.05002e+08
       733.80000  8.24107e-06  3.99362e+08
       733.90000  8.24107e-06  3.99280e+08
       734.00000  8.24107e-06  3.99197e+08
       734.10000  8.24107e-06  3.99115e+08
       734.20000  8.24107e-06  3.99032e+08
       734.30000  8.24107e-06  3.98950e+08
       734.40000  8.24107e-06  3.98950e+08
       734.50000  7.79218e-06  3.77141e+08
       734.60000  7.79218e-06  3.77063e+08
       734.70000  7.79218e-06  3.77063e+08
       734.80000  7.79218e-06  3.76986e+08
       734.90000  7.79218e-06  3.76986e+08
       735.00000  7.79218e-06  3.76908e+08
       735.10000  7.79218e-06  3.76908e+08
       735.20000  7.79218e-06  3.76908e+08
       735.30000  7.79218e-06  3.76908e+08
       735.40000  7.79218e-06  3.76830e+08
       735.50000  8.01373e-06  3.87544e+08
       735.60000  8.01373e-06  3.87544e+08
       735.70000  8.01373e-06  3.87544e+08
       735.80000  8.01373e-06  3.87624e+08
       735.90000  8.01373e-06  3.87624e+08
       736.00000  8.01373e-06  3.87624e+08
       736.10000  8.01373e-06  3.87624e+08
       736.20000  8.01373e-06  3.87704e+08
       736.30000  7.88757e-06  3.81601e+08
       736.40000  7.88757e-06  3.81679e+08
       736.50000  7.88634e-06  3.81620e+08
       736.60000  7.88634e-06  3.81699e+08
       736.70000  7.88634e-06  3.81778e+08
       736.80000  7.88634e-06  3.81778e+08
       736.90000  7.88634e-06  3.81857e+08
       737.00000  7.88634e-06  3.81936e+08
       737.10000  7.88634e-06  3.81541e+08
       737.20000  7.88634e-06  3.81068e+08
       737.30000  7.88634e-06  3.80674e+08
       737.40000  7.88634e-06  3.80279e+08
       737.50000  7.23227e-06  3.48306e+08
       737.60000  7.23227e-06  3.47944e+08
       737.70000  7.23227e-06  3.47583e+08
       737.80000  7.23227e-06  3.47221e+08
       737.90000  7.23227e-06  3.46932e+08
       738.00000  7.23227e-06  3.46570e+08
       738.10000  7.23227e-06  3.46209e+08
       738.20000  7.23227e-06  3.45847e+08
       738.30000  7.23227e-06  3.45558e+08
       738.40000  7.23227e-06  3.45268e+08
       738.50000  7.44840e-06  3.55214e+08
       738.60000  7.44840e-06  3.54916e+08
       738.70000  7.44840e-06  3.54618e+08
       738.80000  7.32024e-06  3.48224e+08
       738.90000  7.32024e-06  3.47931e+08
       739.00000  7.32024e-06  3.47638e+08
       739.10000  7.32024e-06  3.47053e+08
       739.20000  7.32024e-06  3.46540e+08
       739.30000  7.32024e-06  3.46101e+08
       739.40000  7.32024e-06  3.45662e+08
       739.50000  7.53906e-06  3.55542e+08
       739.60000  7.53906e-06  3.55165e+08
       739.70000  7.53906e-06  3.54863e+08
       739.80000  7.53906e-06  3.54487e+08
       739.90000  7.53906e-06  3.54260e+08
       740.00000  7.53906e-06  3.53959e+08
       740.10000  7.53906e-06  3.53808e+08
       740.20000  7.53906e-06  3.53582e+08
       740.30000  7.53906e-06  3.53431e+08
       740.40000  7.53906e-06  3.53356e+08
       740.50000  7.32434e-06  3.43219e+08
       740.60000  7.32434e-06  3.43145e+08
       740.70000  7.32434e-06  3.43145e+08
       740.80000  7.32434e-06  3.43145e+08
       740.90000  7.32434e-06  3.43219e+08
       741.00000  7.32434e-06  3.43292e+08
       741.10000  7.32434e-06  3.43438e+08
       741.20000  7.32434e-06  3.43585e+08
       741.30000  7.19773e-06  3.37789e+08
       741.40000  7.19773e-06  3.38005e+08
       741.50000  6.98784e-06  3.28359e+08
       741.60000  6.98784e-06  3.28638e+08
       741.70000  6.98784e-06  3.28988e+08
       741.80000  6.98784e-06  3.29267e+08
       741.90000  6.98784e-06  3.29686e+08
       742.00000  6.98784e-06  3.30036e+08
       742.10000  6.98784e-06  3.30455e+08
       742.20000  6.98784e-06  3.30944e+08
       742.30000  6.98784e-06  3.31433e+08
       742.40000  6.98784e-06  3.31923e+08
       742.50000  6.77913e-06  3.22551e+08
       742.60000  6.77913e-06  3.23093e+08
       742.70000  6.77913e-06  3.23703e+08
       742.80000  6.77913e-06  3.24314e+08
       742.90000  6.77913e-06  3.24991e+08
       743.00000  6.77913e-06  3.25669e+08
       743.10000  6.77913e-06  3.25534e+08
       743.20000  6.77913e-06  3.25466e+08
       743.30000  6.77913e-06  3.25398e+08
       743.40000  6.77913e-06  3.25263e+08
       743.50000  6.77855e-06  3.25167e+08
       743.60000  6.77855e-06  3.25099e+08
       743.70000  6.77855e-06  3.25032e+08
       743.80000  6.67393e-06  3.19948e+08
       743.90000  6.67393e-06  3.19882e+08
       744.00000  6.67393e-06  3.19815e+08
       744.10000  6.67393e-06  3.19815e+08
       744.20000  6.67393e-06  3.19748e+08
       744.30000  6.67393e-06  3.19748e+08
       744.40000  6.67393e-06  3.19748e+08
       744.50000  6.46605e-06  3.09724e+08
       744.60000  6.46605e-06  3.09724e+08
       744.70000  6.46605e-06  3.09724e+08
       744.80000  6.46605e-06  3.09724e+08
       744.90000  6.46605e-06  3.09788e+08
       745.00000  6.46605e-06  3.09788e+08
       745.10000  6.46605e-06  3.09982e+08
       745.20000  6.46605e-06  3.10176e+08
       745.30000  6.46605e-06  3.10306e+08
       745.40000  6.46605e-06  3.10500e+08
       745.50000  6.46610e-06  3.10631e+08
       745.60000  6.46610e-06  3.10761e+08
       745.70000  6.46610e-06  3.10890e+08
       745.80000  6.46610e-06  3.11019e+08
       745.90000  6.46610e-06  3.11084e+08
       746.00000  6.46610e-06  3.11213e+08
       746.10000  6.46610e-06  3.11278e+08
       746.20000  6.46610e-06  3.11343e+08
       746.30000  6.39186e-06  3.07832e+08
       746.40000  6.39186e-06  3.07896e+08
       746.50000  6.80433e-06  3.27833e+08
       746.60000  6.80433e-06  3.27833e+08
       746.70000  6.80433e-06  3.27901e+08
       746.80000  6.80433e-06  3.27901e+08
       746.90000  6.80433e-06  3.27901e+08
       747.00000  6.80433e-06  3.27901e+08
       747.10000  6.80433e-06  3.27697e+08
       747.20000  6.80433e-06  3.27560e+08
       747.30000  6.80433e-06  3.27424e+08
       747.40000  6.80433e-06  3.27288e+08
       747.50000  6.80793e-06  3.27325e+08
       747.60000  6.80793e-06  3.27189e+08
       747.70000  6.80793e-06  3.27053e+08
       747.80000  6.80793e-06  3.26917e+08
       747.90000  6.80793e-06  3.26781e+08
       748.00000  6.80793e-06  3.26645e+08
       748.10000  6.80793e-06  3.26576e+08
       748.20000  6.80793e-06  3.26440e+08
       748.30000  6.80793e-06  3.26304e+08
       748.40000  6.80793e-06  3.26236e+08
       748.50000  6.39839e-06  3.06483e+08
       748.60000  6.39839e-06  3.06355e+08
       748.70000  6.39839e-06  3.06291e+08
       748.80000  6.32533e-06  3.02667e+08
       748.90000  6.32533e-06  3.02604e+08
       749.00000  6.32533e-06  3.02540e+08
       749.10000  6.32533e-06  3.02414e+08
       749.20000  6.32533e-06  3.02351e+08
       749.30000  6.32533e-06  3.02287e+08
       749.40000  6.32533e-06  3.02224e+08
       749.50000  6.52656e-06  3.11774e+08
       749.60000  6.52656e-06  3.11709e+08
       749.70000  6.52656e-06  3.11578e+08
       749.80000  6.52656e-06  3.11513e+08
       749.90000  6.52656e-06  3.11513e+08
       750.00000  6.52656e-06  3.11448e+08
       750.10000  6.52656e-06  3.11382e+08
       750.20000  6.52656e-06  3.11317e+08
       750.30000  6.52656e-06  3.11252e+08
       750.40000  6.52656e-06  3.11252e+08
       750.50000  6.12126e-06  2.91861e+08
       750.60000  6.12126e-06  2.91800e+08
       750.70000  6.12126e-06  2.91800e+08
       750.80000  6.12126e-06  2.91739e+08
       750.90000  6.12126e-06  2.91739e+08
       751.00000  6.12126e-06  2.91678e+08
       751.10000  6.12126e-06  2.91678e+08
       751.20000  6.12126e-06  2.91678e+08
       751.30000  6.04275e-06  2.87876e+08
       751.40000  6.04275e-06  2.87876e+08
       751.50000  6.21529e-06  2.96097e+08
       751.60000  6.21529e-06  2.96097e+08
       751.70000  6.21529e-06  2.96097e+08
       751.80000  6.21529e-06  2.96097e+08
       751.90000  6.21529e-06  2.96097e+08
       752.00000  6.21529e-06  2.96097e+08
       752.10000  6.21529e-06  2.96097e+08
       752.20000  6.21529e-06  2.96097e+08
       752.30000  6.21529e-06  2.96097e+08
       752.40000  6.21529e-06  2.96097e+08
       752.50000  6.38294e-06  3.04147e+08
       752.60000  6.38294e-06  3.04147e+08
       752.70000  6.38294e-06  3.04147e+08
       752.80000  6.38294e-06  3.04211e+08
       752.90000  6.38294e-06  3.04211e+08
       753.00000  6.38294e-06  3.04275e+08
       753.10000  6.38294e-06  3.04275e+08
       753.20000  6.38294e-06  3.04275e+08
       753.30000  6.38294e-06  3.04275e+08
       753.40000  6.38294e-06  3.04275e+08
       753.50000  6.54752e-06  3.12120e+08
       753.60000  6.54752e-06  3.12120e+08
       753.70000  6.54752e-06  3.12120e+08
       753.80000  6.45536e-06  3.07727e+08
       753.90000  6.45536e-06  3.07727e+08
       754.00000  6.45536e-06  3.07727e+08
       754.10000  6.45536e-06  3.07727e+08
       754.20000  6.45536e-06  3.07662e+08
       754.30000  6.45536e-06  3.07662e+08
       754.40000  6.45536e-06  3.07662e+08
       754.50000  6.03768e-06  2.87756e+08
       754.60000  6.03768e-06  2.87756e+08
       754.70000  6.03768e-06  2.87696e+08
       754.80000  6.03768e-06  2.87696e+08
       754.90000  6.03768e-06  2.87635e+08
       755.00000  6.03768e-06  2.87635e+08
       755.10000  6.03768e-06  2.87575e+08
       755.20000  6.03768e-06  2.87575e+08
       755.30000  6.03768e-06  2.87515e+08
       755.40000  6.03768e-06  2.87515e+08
       755.50000  5.81391e-06  2.76800e+08
       755.60000  5.81391e-06  2.76742e+08
       755.70000  5.81391e-06  2.76742e+08
       755.80000  5.81391e-06  2.76684e+08
       755.90000  5.81391e-06  2.76626e+08
       756.00000  5.81391e-06  2.76626e+08
       756.10000  5.81391e-06  2.76568e+08
       756.20000  5.81391e-06  2.76509e+08
       756.30000  5.73027e-06  2.72474e+08
       756.40000  5.73027e-06  2.72474e+08
       756.50000  6.27288e-06  2.98213e+08
       756.60000  6.27288e-06  2.98150e+08
       756.70000  6.27288e-06  2.98087e+08
       756.80000  6.27288e-06  2.98087e+08
       756.90000  6.27288e-06  2.98024e+08
       757.00000  6.27288e-06  2.97962e+08
       757.10000  6.27288e-06  2.97899e+08
       757.20000  6.27288e-06  2.97836e+08
       757.30000  6.27288e-06  2.97836e+08
       757.40000  6.27288e-06  2.97773e+08
       757.50000  6.24034e-06  2.96166e+08
       757.60000  6.24034e-06  2.96104e+08
       757.70000  6.24034e-06  2.96042e+08
       757.80000  6.24034e-06  2.95979e+08
       757.90000  6.24034e-06  2.95917e+08
       758.00000  6.24034e-06  2.95917e+08
       758.10000  6.24034e-06  2.95854e+08
       758.20000  6.24034e-06  2.95792e+08
       758.30000  6.24034e-06  2.95730e+08
       758.40000  6.24034e-06  2.95667e+08
       758.50000  5.26830e-06  2.49559e+08
       758.60000  5.26830e-06  2.49507e+08
       758.70000  5.26830e-06  2.49454e+08
       758.80000  5.17507e-06  2.44988e+08
       758.90000  5.17507e-06  2.44936e+08
       759.00000  5.17507e-06  2.44884e+08
       759.10000  5.17507e-06  2.44884e+08
       759.20000  5.17507e-06  2.44833e+08
       759.30000  5.17507e-06  2.44833e+08
       759.40000  5.17507e-06  2.44781e+08
       759.50000  5.88491e-06  2.78356e+08
       759.60000  5.88491e-06  2.78356e+08
       759.70000  5.88491e-06  2.78297e+08
       759.80000  5.88491e-06  2.78297e+08
       759.90000  5.88491e-06  2.78297e+08
       760.00000  5.88491e-06  2.78297e+08
       760.10000  5.88491e-06  2.78297e+08
       760.20000  5.88491e-06  2.78297e+08
       760.30000  5.88491e-06  2.78356e+08
       760.40000  5.88491e-06  2.78356e+08
       760.50000  5.49093e-06  2.59721e+08
       760.60000  5.49093e-06  2.59776e+08
       760.70000  5.49093e-06  2.59776e+08
       760.80000  5.49093e-06  2.59831e+08
       760.90000  5.49093e-06  2.59831e+08
       761.00000  5.49093e-06  2.59886e+08
       761.10000  5.49093e-06  2.60106e+08
       761.20000  5.49093e-06  2.60270e+08
       761.30000  5.37777e-06  2.55068e+08
       761.40000  5.37777e-06  2.55229e+08
       761.50000  4.99411e-06  2.37170e+08
       761.60000  4.99411e-06  2.37270e+08
       761.70000  4.99411e-06  2.37370e+08
       761.80000  4.99411e-06  2.37470e+08
       761.90000  4.99411e-06  2.37570e+08
       762.00000  4.99411e-06  2.37620e+08
       762.10000  4.99411e-06  2.37719e+08
       762.20000  4.99411e-06  2.37769e+08
       762.30000  4.99411e-06  2.37819e+08
       762.40000  4.99411e-06  2.37819e+08
       762.50000  5.68009e-06  2.70486e+08
       762.60000  5.68009e-06  2.70543e+08
       762.70000  5.68009e-06  2.70543e+08
       762.80000  5.68009e-06  2.70486e+08
       762.90000  5.68009e-06  2.70486e+08
       763.00000  5.68009e-06  2.70429e+08
       763.10000  5.68009e-06  2.70372e+08
       763.20000  5.68009e-06  2.70315e+08
       763.30000  5.68009e-06  2.70202e+08
       763.40000  5.68009e-06  2.70088e+08
       763.50000  5.47542e-06  2.60247e+08
       763.60000  5.47542e-06  2.60137e+08
       763.70000  5.47542e-06  2.60028e+08
       763.80000  5.33852e-06  2.53366e+08
       763.90000  5.33852e-06  2.53206e+08
       764.00000  5.33852e-06  2.53046e+08
       764.10000  5.33852e-06  2.52886e+08
       764.20000  5.33852e-06  2.52672e+08
       764.30000  5.33852e-06  2.52459e+08
       764.40000  5.33852e-06  2.52245e+08
       764.50000  4.96790e-06  2.34535e+08
       764.60000  4.96790e-06  2.34336e+08
       764.70000  4.96790e-06  2.34087e+08
       764.80000  4.96790e-06  2.33839e+08
       764.90000  4.96790e-06  2.33591e+08
       765.00000  4.96790e-06  2.33293e+08
       765.10000  4.96790e-06  2.32746e+08
       765.20000  4.96790e-06  2.32200e+08
       765.30000  4.96790e-06  2.31703e+08
       765.40000  4.96790e-06  2.31206e+08
       765.50000  5.11377e-06  2.37535e+08
       765.60000  5.11377e-06  2.37125e+08
       765.70000  5.11377e-06  2.36665e+08
       765.80000  5.11377e-06  2.36307e+08
       765.90000  5.11377e-06  2.35949e+08
       766.00000  5.11377e-06  2.35591e+08
       766.10000  5.11377e-06  2.35284e+08
       766.20000  5.11377e-06  2.34978e+08
       766.30000  4.98752e-06  2.28927e+08
       766.40000  4.98752e-06  2.28728e+08
       766.50000  5.29043e-06  2.42407e+08
       766.60000  5.29043e-06  2.42196e+08
       766.70000  5.29043e-06  2.42090e+08
       766.80000  5.29043e-06  2.41931e+08
       766.90000  5.29043e-06  2.41825e+08
       767.00000  5.29043e-06  2.41772e+08
       767.10000  5.29043e-06  2.42037e+08
       767.20000  5.29043e-06  2.42354e+08
       767.30000  5.29043e-06  2.42619e+08
       767.40000  5.29043e-06  2.42883e+08
       767.50000  4.93467e-06  2.26797e+08
       767.60000  4.93467e-06  2.27044e+08
       767.70000  4.93467e-06  2.27291e+08
       767.80000  4.93467e-06  2.27488e+08
       767.90000  4.93467e-06  2.27735e+08
       768.00000  4.93467e-06  2.27932e+08
       768.10000  4.93467e-06  2.28130e+08
       768.20000  4.93467e-06  2.28327e+08
       768.30000  4.93467e-06  2.28475e+08
       768.40000  4.93467e-06  2.28672e+08
       768.50000  4.74503e-06  2.20027e+08
       768.60000  4.74503e-06  2.20170e+08
       768.70000  4.74503e-06  2.20312e+08
       768.80000  4.63712e-06  2.15441e+08
       768.90000  4.63712e-06  2.15580e+08
       769.00000  4.63712e-06  2.15673e+08
       769.10000  4.63712e-06  2.15812e+08
       769.20000  4.63712e-06  2.15904e+08
       769.30000  4.63712e-06  2.15997e+08
       769.40000  4.63712e-06  2.16090e+08
       769.50000  4.93242e-06  2.29900e+08
       769.60000  4.93242e-06  2.29999e+08
       769.70000  4.93242e-06  2.30048e+08
       769.80000  4.93242e-06  2.30147e+08
       769.90000  4.93242e-06  2.30196e+08
       770.00000  4.93242e-06  2.30196e+08
       770.10000  4.93242e-06  2.30245e+08
       770.20000  4.93242e-06  2.30295e+08
       770.30000  4.93242e-06  2.30295e+08
       770.40000  4.93242e-06  2.30295e+08
       770.50000  4.43232e-06  2.06945e+08
       770.60000  4.43232e-06  2.06945e+08
       770.70000  4.43232e-06  2.06945e+08
       770.80000  4.43232e-06  2.06945e+08
       770.90000  4.43232e-06  2.06901e+08
       771.00000  4.43232e-06  2.06856e+08
       771.10000  4.43232e-06  2.07034e+08
       771.20000  4.43232e-06  2.07167e+08
       771.30000  4.34877e-06  2.03392e+08
       771.40000  4.34877e-06  2.03522e+08
       771.50000  4.47814e-06  2.09712e+08
       771.60000  4.47814e-06  2.09801e+08
       771.70000  4.47814e-06  2.09935e+08
       771.80000  4.47814e-06  2.10025e+08
       771.90000  4.47814e-06  2.10070e+08
       772.00000  4.47814e-06  2.10159e+08
       772.10000  4.47814e-06  2.10204e+08
       772.20000  4.47814e-06  2.10249e+08
       772.30000  4.47814e-06  2.10294e+08
       772.40000  4.47814e-06  2.10338e+08
       772.50000  4.30269e-06  2.02097e+08
       772.60000  4.30269e-06  2.02097e+08
       772.70000  4.30269e-06  2.02097e+08
       772.80000  4.30269e-06  2.02054e+08
       772.90000  4.30269e-06  2.02054e+08
       773.00000  4.30269e-06  2.02011e+08
       773.10000  4.30269e-06  2.01753e+08
       773.20000  4.30269e-06  2.01538e+08
       773.30000  4.30269e-06  2.01280e+08
       773.40000  4.30269e-06  2.01065e+08
       773.50000  4.73757e-06  2.21150e+08
       773.60000  4.73757e-06  2.20960e+08
       773.70000  4.73757e-06  2.20771e+08
       773.80000  4.66362e-06  2.17138e+08
       773.90000  4.66362e-06  2.16952e+08
       774.00000  4.66362e-06  2.16765e+08
       774.10000  4.66362e-06  2.16625e+08
       774.20000  4.66362e-06  2.16485e+08
       774.30000  4.66362e-06  2.16392e+08
       774.40000  4.66362e-06  2.16252e+08
       774.50000  4.64025e-06  2.15076e+08
       774.60000  4.64025e-06  2.15029e+08
       774.70000  4.64025e-06  2.14936e+08
       774.80000  4.64025e-06  2.14890e+08
       774.90000  4.64025e-06  2.14844e+08
       775.00000  4.64025e-06  2.14797e+08
       775.10000  4.64025e-06  2.14797e+08
       775.20000  4.64025e-06  2.14797e+08
       775.30000  4.64025e-06  2.14797e+08
       775.40000  4.64025e-06  2.14797e+08
       775.50000  4.61387e-06  2.13622e+08
       775.60000  4.61387e-06  2.13668e+08
       775.70000  4.61387e-06  2.13715e+08
       775.80000  4.61387e-06  2.13761e+08
       775.90000  4.61387e-06  2.13853e+08
       776.00000  4.61387e-06  2.13945e+08
       776.10000  4.61387e-06  2.14038e+08
       776.20000  4.61387e-06  2.14176e+08
       776.30000  4.54708e-06  2.11212e+08
       776.40000  4.54708e-06  2.11348e+08
       776.50000  4.23044e-06  1.96758e+08
       776.60000  4.23044e-06  1.96927e+08
       776.70000  4.23044e-06  1.97096e+08
       776.80000  4.23044e-06  1.97265e+08
       776.90000  4.23044e-06  1.97477e+08
       777.00000  4.23044e-06  1.97646e+08
       777.10000  4.23044e-06  1.97561e+08
       777.20000  4.23044e-06  1.97519e+08
       777.30000  4.23044e-06  1.97435e+08
       777.40000  4.23044e-06  1.97350e+08
       777.50000  4.06322e-06  1.89468e+08
       777.60000  4.06322e-06  1.89427e+08
       777.70000  4.06322e-06  1.89346e+08
       777.80000  4.06322e-06  1.89305e+08
       777.90000  4.06322e-06  1.89265e+08
       778.00000  4.06322e-06  1.89184e+08
       778.10000  4.06322e-06  1.89143e+08
       778.20000  4.06322e-06  1.89102e+08
       778.30000  4.06322e-06  1.89062e+08
       778.40000  4.06322e-06  1.89021e+08
       778.50000  4.32841e-06  2.01358e+08
       778.60000  4.32841e-06  2.01315e+08
       778.70000  4.32841e-06  2.01271e+08
       778.80000  4.27961e-06  1.99002e+08
       778.90000  4.27961e-06  1.99002e+08
       779.00000  4.27961e-06  1.98959e+08
       779.10000  4.27961e-06  1.99044e+08
       779.20000  4.27961e-06  1.99087e+08
       779.30000  4.27961e-06  1.99173e+08
       779.40000  4.27961e-06  1.99216e+08
       779.50000  4.25518e-06  1.98121e+08
       779.60000  4.25518e-06  1.98164e+08
       779.70000  4.25518e-06  1.98206e+08
       779.80000  4.25518e-06  1.98249e+08
       779.90000  4.25518e-06  1.98291e+08
       780.00000  4.25518e-06  1.98334e+08
       780.10000  4.25518e-06  1.98334e+08
       780.20000  4.25518e-06  1.98376e+08
       780.30000  4.25518e-06  1.98376e+08
       780.40000  4.25518e-06  1.98376e+08
       780.50000  4.37367e-06  2.03900e+08
       780.60000  4.37367e-06  2.03900e+08
       780.70000  4.37367e-06  2.03900e+08
       780.80000  4.37367e-06  2.03900e+08
       780.90000  4.37367e-06  2.03900e+08
       781.00000  4.37367e-06  2.03857e+08
       781.10000  4.37367e-06  2.03857e+08
       781.20000  4.37367e-06  2.03813e+08
       781.30000  4.33421e-06  2.01931e+08
       781.40000  4.33421e-06  2.01888e+08
       781.50000  4.03142e-06  1.87743e+08
       781.60000  4.03142e-06  1.87703e+08
       781.70000  4.03142e-06  1.87663e+08
       781.80000  4.03142e-06  1.87622e+08
       781.90000  4.03142e-06  1.87542e+08
       782.00000  4.03142e-06  1.87501e+08
       782.10000  4.03142e-06  1.87421e+08
       782.20000  4.03142e-06  1.87340e+08
       782.30000  4.03142e-06  1.87300e+08
       782.40000  4.03142e-06  1.87219e+08
       782.50000  3.87185e-06  1.79731e+08
       782.60000  3.87185e-06  1.79615e+08
       782.70000  3.87185e-06  1.79538e+08
       782.80000  3.87185e-06  1.79460e+08
       782.90000  3.87185e-06  1.79344e+08
       783.00000  3.87185e-06  1.79267e+08
       783.10000  3.87185e-06  1.79344e+08
       783.20000  3.87185e-06  1.79422e+08
       783.30000  3.87185e-06  1.79499e+08
       783.40000  3.87185e-06  1.79538e+08
       783.50000  4.40149e-06  2.04185e+08
       783.60000  4.40149e-06  2.04273e+08
       783.70000  4.40149e-06  2.04317e+08
       783.80000  4.36134e-06  2.02541e+08
       783.90000  4.36134e-06  2.02628e+08
       784.00000  4.36134e-06  2.02672e+08
       784.10000  4.36134e-06  2.02715e+08
       784.20000  4.36134e-06  2.02802e+08
       784.30000  4.36134e-06  2.02846e+08
       784.40000  4.36134e-06  2.02890e+08
       784.50000  3.65967e-06  1.70284e+08
       784.60000  3.65967e-06  1.70321e+08
       784.70000  3.65967e-06  1.70358e+08
       784.80000  3.65967e-06  1.70394e+08
       784.90000  3.65967e-06  1.70431e+08
       785.00000  3.65967e-06  1.70431e+08
       785.10000  3.65967e-06  1.70431e+08
       785.20000  3.65967e-06  1.70431e+08
       785.30000  3.65967e-06  1.70431e+08
       785.40000  3.65967e-06  1.70431e+08
       785.50000  3.90854e-06  1.82021e+08
       785.60000  3.90854e-06  1.82021e+08
       785.70000  3.90854e-06  1.82021e+08
       785.80000  3.90854e-06  1.82021e+08
       785.90000  3.90854e-06  1.82021e+08
       786.00000  3.90854e-06  1.82021e+08
       786.10000  3.90854e-06  1.82021e+08
       786.20000  3.90854e-06  1.82021e+08
       786.30000  3.86250e-06  1.79877e+08
       786.40000  3.86250e-06  1.79877e+08
       786.50000  4.23775e-06  1.97352e+08
       786.60000  4.23775e-06  1.97352e+08
       786.70000  4.23775e-06  1.97352e+08
       786.80000  4.23775e-06  1.97352e+08
       786.90000  4.23775e-06  1.97352e+08
       787.00000  4.23775e-06  1.97352e+08
       787.10000  4.23775e-06  1.97352e+08
       787.20000  4.23775e-06  1.97352e+08
       787.30000  4.23775e-06  1.97352e+08
       787.40000  4.23775e-06  1.97352e+08
       787.50000  4.21280e-06  1.96190e+08
       787.60000  4.21280e-06  1.96190e+08
       787.70000  4.21280e-06  1.96190e+08
       787.80000  4.21280e-06  1.96190e+08
       787.90000  4.21280e-06  1.96190e+08
       788.00000  4.21280e-06  1.96190e+08
       788.10000  4.21280e-06  1.96190e+08
       788.20000  4.21280e-06  1.96190e+08
       788.30000  4.21280e-06  1.96190e+08
       788.40000  4.21280e-06  1.96190e+08
       788.50000  3.40463e-06  1.58554e+08
       788.60000  3.40463e-06  1.58554e+08
       788.70000  3.40463e-06  1.58554e+08
       788.80000  3.36314e-06  1.56622e+08
       788.90000  3.36314e-06  1.56622e+08
       789.00000  3.36314e-06  1.56622e+08
       789.10000  3.36314e-06  1.56554e+08
       789.20000  3.36314e-06  1.56453e+08
       789.30000  3.36314e-06  1.56353e+08
       789.40000  3.36314e-06  1.56285e+08
       789.50000  3.98697e-06  1.85155e+08
       789.60000  3.98697e-06  1.85035e+08
       789.70000  3.98697e-06  1.84956e+08
       789.80000  3.98697e-06  1.84836e+08
       789.90000  3.98697e-06  1.84716e+08
       790.00000  3.98697e-06  1.84637e+08
       790.10000  3.98697e-06  1.84517e+08
       790.20000  3.98697e-06  1.84437e+08
       790.30000  3.98697e-06  1.84318e+08
       790.40000  3.98697e-06  1.84238e+08
       790.50000  3.70866e-06  1.71266e+08
       790.60000  3.70866e-06  1.71155e+08
       790.70000  3.70866e-06  1.71080e+08
       790.80000  3.70866e-06  1.70969e+08
       790.90000  3.70866e-06  1.70895e+08
       791.00000  3.70866e-06  1.70784e+08
       791.10000  3.70866e-06  1.70673e+08
       791.20000  3.70866e-06  1.70598e+08
       791.30000  3.65252e-06  1.67907e+08
       791.40000  3.65252e-06  1.67797e+08
       791.50000  3.88266e-06  1.78253e+08
       791.60000  3.88266e-06  1.78136e+08
       791.70000  3.88266e-06  1.78059e+08
       791.80000  3.88266e-06  1.77942e+08
       791.90000  3.88266e-06  1.77865e+08
       792.00000  3.88266e-06  1.77748e+08
       792.10000  3.88266e-06  1.77670e+08
       792.20000  3.88266e-06  1.77593e+08
       792.30000  3.88266e-06  1.77476e+08
       792.40000  3.88266e-06  1.77399e+08
       792.50000  3.61048e-06  1.64891e+08
       792.60000  3.61048e-06  1.64818e+08
       792.70000  3.61048e-06  1.64746e+08
       792.80000  3.61048e-06  1.64674e+08
       792.90000  3.61048e-06  1.64602e+08
       793.00000  3.61048e-06  1.64529e+08
       793.10000  3.61048e-06  1.64421e+08
       793.20000  3.61048e-06  1.64277e+08
       793.30000  3.61048e-06  1.64168e+08
       793.40000  3.61048e-06  1.64060e+08
       793.50000  3.71311e-06  1.68612e+08
       793.60000  3.71311e-06  1.68538e+08
       793.70000  3.71311e-06  1.68427e+08
       793.80000  3.64888e-06  1.65477e+08
       793.90000  3.64888e-06  1.65404e+08
       794.00000  3.64888e-06  1.65367e+08
       794.10000  3.64888e-06  1.65294e+08
       794.20000  3.64888e-06  1.65294e+08
       794.30000  3.64888e-06  1.65258e+08
       794.40000  3.64888e-06  1.65258e+08
       794.50000  3.87190e-06  1.75358e+08
       794.60000  3.87190e-06  1.75358e+08
       794.70000  3.87190e-06  1.75397e+08
       794.80000  3.87190e-06  1.75397e+08
       794.90000  3.87190e-06  1.75436e+08
       795.00000  3.87190e-06  1.75513e+08
       795.10000  3.87190e-06  1.75784e+08
       795.20000  3.87190e-06  1.76055e+08
       795.30000  3.87190e-06  1.76326e+08
       795.40000  3.87190e-06  1.76597e+08
       795.50000  3.72795e-06  1.70255e+08
       795.60000  3.72795e-06  1.70479e+08
       795.70000  3.72795e-06  1.70665e+08
       795.80000  3.72795e-06  1.70852e+08
       795.90000  3.72795e-06  1.71038e+08
       796.00000  3.72795e-06  1.71187e+08
       796.10000  3.72795e-06  1.71336e+08
       796.20000  3.72795e-06  1.71486e+08
       796.30000  3.64993e-06  1.68006e+08
       796.40000  3.64993e-06  1.68116e+08
       796.50000  3.39380e-06  1.56420e+08
       796.60000  3.39380e-06  1.56488e+08
       796.70000  3.39380e-06  1.56556e+08
       796.80000  3.39380e-06  1.56590e+08
       796.90000  3.39380e-06  1.56624e+08
       797.00000  3.39380e-06  1.56658e+08
       797.10000  3.39380e-06  1.56692e+08
       797.20000  3.39380e-06  1.56692e+08
       797.30000  3.39380e-06  1.56692e+08
       797.40000  3.39380e-06  1.56658e+08
       797.50000  3.60693e-06  1.66460e+08
       797.60000  3.60693e-06  1.66424e+08
       797.70000  3.60693e-06  1.66352e+08
       797.80000  3.60693e-06  1.66280e+08
       797.90000  3.60693e-06  1.66208e+08
       798.00000  3.60693e-06  1.66099e+08
       798.10000  3.60693e-06  1.65991e+08
       798.20000  3.60693e-06  1.65883e+08
       798.30000  3.60693e-06  1.65739e+08
       798.40000  3.60693e-06  1.65594e+08
       798.50000  3.70171e-06  1.69797e+08
       798.60000  3.70171e-06  1.69612e+08
       798.70000  3.70171e-06  1.69427e+08
       798.80000  3.61554e-06  1.65302e+08
       798.90000  3.61554e-06  1.65085e+08
       799.00000  3.61554e-06  1.64868e+08
       799.10000  3.61554e-06  1.64977e+08
       799.20000  3.61554e-06  1.65122e+08
       799.30000  3.61554e-06  1.65266e+08
       799.40000  3.61554e-06  1.65375e+08
       799.50000  3.93017e-06  1.79884e+08
       799.60000  3.93017e-06  1.80002e+08
       799.70000  3.93017e-06  1.80120e+08
       799.80000  3.93017e-06  1.80198e+08
       799.90000  3.93017e-06  1.80277e+08
       800.00000  3.93017e-06  1.80356e+08
       800.10000  3.93017e-06  1.80434e+08
       800.20000  3.93017e-06  1.80513e+08
       800.30000  3.93017e-06  1.80591e+08
       800.40000  3.93017e-06  1.80631e+08
       800.50000  3.34865e-06  1.53937e+08
       800.60000  3.34865e-06  1.53971e+08
       800.70000  3.34865e-06  1.53971e+08
       800.80000  3.34865e-06  1.54004e+08
       800.90000  3.34865e-06  1.54004e+08
       801.00000  3.34865e-06  1.54004e+08
       801.10000  3.34865e-06  1.53937e+08
       801.20000  3.34865e-06  1.53870e+08
       801.30000  3.27145e-06  1.50258e+08
       801.40000  3.27145e-06  1.50192e+08
       801.50000  3.36033e-06  1.54206e+08
       801.60000  3.36033e-06  1.54138e+08
       801.70000  3.36033e-06  1.54071e+08
       801.80000  3.36033e-06  1.54004e+08
       801.90000  3.36033e-06  1.53937e+08
       802.00000  3.36033e-06  1.53870e+08
       802.10000  3.36033e-06  1.53802e+08
       802.20000  3.36033e-06  1.53735e+08
       802.30000  3.36033e-06  1.53668e+08
       802.40000  3.36033e-06  1.53601e+08
       802.50000  3.66365e-06  1.67392e+08
       802.60000  3.66365e-06  1.67319e+08
       802.70000  3.66365e-06  1.67246e+08
       802.80000  3.66365e-06  1.67136e+08
       802.90000  3.66365e-06  1.67062e+08
       803.00000  3.66365e-06  1.66989e+08
       803.10000  3.66365e-06  1.66916e+08
       803.20000  3.66365e-06  1.66843e+08
       803.30000  3.66365e-06  1.66769e+08
       803.40000  3.66365e-06  1.66659e+08
       803.50000  3.21294e-06  1.46092e+08
       803.60000  3.21294e-06  1.46028e+08
       803.70000  3.21294e-06  1.45964e+08
       803.80000  3.13764e-06  1.42480e+08
       803.90000  3.13764e-06  1.42386e+08
       804.00000  3.13764e-06  1.42323e+08
       804.10000  3.13764e-06  1.42261e+08
       804.20000  3.13764e-06  1.42198e+08
       804.30000  3.13764e-06  1.42104e+08
       804.40000  3.13764e-06  1.42041e+08
       804.50000  2.90971e-06  1.31664e+08
       804.60000  2.90971e-06  1.31577e+08
       804.70000  2.90971e-06  1.31519e+08
       804.80000  2.90971e-06  1.31461e+08
       804.90000  2.90971e-06  1.31373e+08
       805.00000  2.90971e-06  1.31315e+08
       805.10000  2.90971e-06  1.31432e+08
       805.20000  2.90971e-06  1.31577e+08
       805.30000  2.90971e-06  1.31664e+08
       805.40000  2.90971e-06  1.31781e+08
       805.50000  2.47912e-06  1.12354e+08
       805.60000  2.47912e-06  1.12428e+08
       805.70000  2.47912e-06  1.12502e+08
       805.80000  2.47912e-06  1.12552e+08
       805.90000  2.47912e-06  1.12602e+08
       806.00000  2.47912e-06  1.12651e+08
       806.10000  2.47912e-06  1.12676e+08
       806.20000  2.47912e-06  1.12701e+08
       806.30000  2.41706e-06  1.09904e+08
       806.40000  2.41706e-06  1.09928e+08
       806.50000  2.70358e-06  1.22959e+08
       806.60000  2.70358e-06  1.22959e+08
       806.70000  2.70358e-06  1.22932e+08
       806.80000  2.70358e-06  1.22932e+08
       806.90000  2.70358e-06  1.22905e+08
       807.00000  2.70358e-06  1.22851e+08
       807.10000  2.70358e-06  1.22634e+08
       807.20000  2.70358e-06  1.22391e+08
       807.30000  2.70358e-06  1.22175e+08
       807.40000  2.70358e-06  1.21986e+08
       807.50000  2.88475e-06  1.29958e+08
       807.60000  2.88475e-06  1.29756e+08
       807.70000  2.88475e-06  1.29583e+08
       807.80000  2.88475e-06  1.29439e+08
       807.90000  2.88475e-06  1.29295e+08
       808.00000  2.88475e-06  1.29150e+08
       808.10000  2.88475e-06  1.29035e+08
       808.20000  2.88475e-06  1.28920e+08
       808.30000  2.88475e-06  1.28804e+08
       808.40000  2.88475e-06  1.28718e+08
       808.50000  3.06366e-06  1.36639e+08
       808.60000  3.06366e-06  1.36578e+08
       808.70000  3.06366e-06  1.36517e+08
       808.80000  2.98727e-06  1.33083e+08
       808.90000  2.98727e-06  1.33053e+08
       809.00000  2.98727e-06  1.33053e+08
       809.10000  2.98727e-06  1.33053e+08
       809.20000  2.98727e-06  1.33083e+08
       809.30000  2.98727e-06  1.33113e+08
       809.40000  2.98727e-06  1.33142e+08
       809.50000  2.96984e-06  1.32425e+08
       809.60000  2.96984e-06  1.32514e+08
       809.70000  2.96984e-06  1.32603e+08
       809.80000  2.96984e-06  1.32693e+08
       809.90000  2.96984e-06  1.32811e+08
       810.00000  2.96984e-06  1.32930e+08
       810.10000  2.96984e-06  1.33079e+08
       810.20000  2.96984e-06  1.33227e+08
       810.30000  2.96984e-06  1.33376e+08
       810.40000  2.96984e-06  1.33554e+08
       810.50000  3.42782e-06  1.54389e+08
       810.60000  3.42782e-06  1.54595e+08
       810.70000  3.42782e-06  1.54869e+08
       810.80000  3.42782e-06  1.55143e+08
       810.90000  3.42782e-06  1.55418e+08
       811.00000  3.42782e-06  1.55726e+08
       811.10000  3.42782e-06  1.55760e+08
       811.20000  3.42782e-06  1.55829e+08
       811.30000  3.34115e-06  1.51922e+08
       811.40000  3.34115e-06  1.51989e+08
       811.50000  3.04351e-06  1.38480e+08
       811.60000  3.04351e-06  1.38510e+08
       811.70000  3.04351e-06  1.38541e+08
       811.80000  3.04351e-06  1.38571e+08
       811.90000  3.04351e-06  1.38601e+08
       812.00000  3.04351e-06  1.38632e+08
       812.10000  3.04351e-06  1.38632e+08
       812.20000  3.04351e-06  1.38662e+08
       812.30000  3.04351e-06  1.38693e+08
       812.40000  3.04351e-06  1.38693e+08
       812.50000  2.65757e-06  1.21105e+08
       812.60000  2.65757e-06  1.21132e+08
       812.70000  2.65757e-06  1.21132e+08
       812.80000  2.65757e-06  1.21132e+08
       812.90000  2.65757e-06  1.21132e+08
       813.00000  2.65757e-06  1.21132e+08
       813.10000  2.65757e-06  1.21079e+08
       813.20000  2.65757e-06  1.21052e+08
       813.30000  2.65757e-06  1.20999e+08
       813.40000  2.65757e-06  1.20972e+08
       813.50000  2.82028e-06  1.28323e+08
       813.60000  2.82028e-06  1.28294e+08
       813.70000  2.82028e-06  1.28266e+08
       813.80000  2.75167e-06  1.25118e+08
       813.90000  2.75167e-06  1.25091e+08
       814.00000  2.75167e-06  1.25036e+08
       814.10000  2.75167e-06  1.25008e+08
       814.20000  2.75167e-06  1.24981e+08
       814.30000  2.75167e-06  1.24953e+08
       814.40000  2.75167e-06  1.24953e+08
       814.50000  2.47189e-06  1.12224e+08
       814.60000  2.47189e-06  1.12199e+08
       814.70000  2.47189e-06  1.12174e+08
       814.80000  2.47189e-06  1.12150e+08
       814.90000  2.47189e-06  1.12150e+08
       815.00000  2.47189e-06  1.12125e+08
       815.10000  2.47189e-06  1.12224e+08
       815.20000  2.47189e-06  1.12298e+08
       815.30000  2.47189e-06  1.12372e+08
       815.40000  2.47189e-06  1.12422e+08
       815.50000  2.62945e-06  1.19666e+08
       815.60000  2.62945e-06  1.19693e+08
       815.70000  2.62945e-06  1.19745e+08
       815.80000  2.62945e-06  1.19745e+08
       815.90000  2.62945e-06  1.19771e+08
       816.00000  2.62945e-06  1.19771e+08
       816.10000  2.62945e-06  1.19771e+08
       816.20000  2.62945e-06  1.19745e+08
       816.30000  2.56336e-06  1.16710e+08
       816.40000  2.56336e-06  1.16684e+08
       816.50000  2.37618e-06  1.08116e+08
       816.60000  2.37618e-06  1.08069e+08
       816.70000  2.37618e-06  1.07997e+08
       816.80000  2.37618e-06  1.07926e+08
       816.90000  2.37618e-06  1.07855e+08
       817.00000  2.37618e-06  1.07760e+08
       817.10000  2.37618e-06  1.07427e+08
       817.20000  2.37618e-06  1.07118e+08
       817.30000  2.37618e-06  1.06833e+08
       817.40000  2.37618e-06  1.06548e+08
       817.50000  2.44576e-06  1.09399e+08
       817.60000  2.44576e-06  1.09154e+08
       817.70000  2.44576e-06  1.08910e+08
       817.80000  2.44576e-06  1.08665e+08
       817.90000  2.44576e-06  1.08470e+08
       818.00000  2.44576e-06  1.08249e+08
       818.10000  2.44576e-06  1.08078e+08
       818.20000  2.44576e-06  1.07907e+08
       818.30000  2.44576e-06  1.07736e+08
       818.40000  2.44576e-06  1.07614e+08
       818.50000  2.09527e-06  9.20660e+07
       818.60000  2.09527e-06  9.19822e+07
       818.70000  2.09527e-06  9.18984e+07
       818.80000  2.04218e-06  8.94885e+07
       818.90000  2.04218e-06  8.94477e+07
       819.00000  2.04218e-06  8.93864e+07
       819.10000  2.04218e-06  8.93660e+07
       819.20000  2.04218e-06  8.93456e+07
       819.30000  2.04218e-06  8.93252e+07
       819.40000  2.04218e-06  8.93252e+07
       819.50000  2.27184e-06  9.93929e+07
       819.60000  2.27184e-06  9.94156e+07
       819.70000  2.27184e-06  9.94610e+07
       819.80000  2.27184e-06  9.95292e+07
       819.90000  2.27184e-06  9.95974e+07
       820.00000  2.27184e-06  9.96882e+07
       820.10000  2.27184e-06  9.97791e+07
       820.20000  2.27184e-06  9.98927e+07
       820.30000  2.27184e-06  1.00029e+08
       820.40000  2.27184e-06  1.00165e+08
       820.50000  2.17567e-06  9.60776e+07
       820.60000  2.17567e-06  9.62299e+07
       820.70000  2.17567e-06  9.64039e+07
       820.80000  2.17567e-06  9.65780e+07
       820.90000  2.17567e-06  9.67738e+07
       821.00000  2.17567e-06  9.69914e+07
       821.10000  2.17567e-06  9.69479e+07
       821.20000  2.17567e-06  9.69261e+07
       821.30000  2.12549e-06  9.46482e+07
       821.40000  2.12549e-06  9.46270e+07
       821.50000  3.28202e-06  1.46050e+08
       821.60000  3.28202e-06  1.46017e+08
       821.70000  3.28202e-06  1.45984e+08
       821.80000  3.28202e-06  1.45919e+08
       821.90000  3.28202e-06  1.45886e+08
       822.00000  3.28202e-06  1.45853e+08
       822.10000  3.28202e-06  1.45853e+08
       822.20000  3.28202e-06  1.45820e+08
       822.30000  3.28202e-06  1.45788e+08
       822.40000  3.28202e-06  1.45788e+08
       822.50000  2.33061e-06  1.03502e+08
       822.60000  2.33061e-06  1.03502e+08
       822.70000  2.33061e-06  1.03479e+08
       822.80000  2.33061e-06  1.03479e+08
       822.90000  2.33061e-06  1.03479e+08
       823.00000  2.33061e-06  1.03479e+08
       823.10000  2.33061e-06  1.03479e+08
       823.20000  2.33061e-06  1.03479e+08
       823.30000  2.33061e-06  1.03479e+08
       823.40000  2.33061e-06  1.03479e+08
       823.50000  2.31324e-06  1.02731e+08
       823.60000  2.31324e-06  1.02731e+08
       823.70000  2.31324e-06  1.02754e+08
       823.80000  2.26182e-06  1.00470e+08
       823.90000  2.26182e-06  1.00493e+08
       824.00000  2.26182e-06  1.00515e+08
       824.10000  2.26182e-06  1.00538e+08
       824.20000  2.26182e-06  1.00561e+08
       824.30000  2.26182e-06  1.00583e+08
       824.40000  2.26182e-06  1.00628e+08
       824.50000  2.17282e-06  9.66905e+07
       824.60000  2.17282e-06  9.67339e+07
       824.70000  2.17282e-06  9.67556e+07
       824.80000  2.17282e-06  9.67991e+07
       824.90000  2.17282e-06  9.68426e+07
       825.00000  2.17282e-06  9.68860e+07
       825.10000  2.17282e-06  9.69295e+07
       825.20000  2.17282e-06  9.69729e+07
       825.30000  2.17282e-06  9.70381e+07
       825.40000  2.17282e-06  9.70816e+07
       825.50000  2.30553e-06  1.03080e+08
       825.60000  2.30553e-06  1.03126e+08
       825.70000  2.30553e-06  1.03195e+08
       825.80000  2.30553e-06  1.03265e+08
       825.90000  2.30553e-06  1.03334e+08
       826.00000  2.30553e-06  1.03403e+08
       826.10000  2.30553e-06  1.03472e+08
       826.20000  2.30553e-06  1.03518e+08
       826.30000  2.25860e-06  1.01479e+08
       826.40000  2.25860e-06  1.01524e+08
       826.50000  2.31437e-06  1.04054e+08
       826.60000  2.31437e-06  1.04100e+08
       826.70000  2.31437e-06  1.04147e+08
       826.80000  2.31437e-06  1.04170e+08
       826.90000  2.31437e-06  1.04193e+08
       827.00000  2.31437e-06  1.04216e+08
       827.10000  2.31437e-06  1.04216e+08
       827.20000  2.31437e-06  1.04239e+08
       827.30000  2.31437e-06  1.04239e+08
       827.40000  2.31437e-06  1.04239e+08
       827.50000  2.15453e-06  9.70400e+07
       827.60000  2.15453e-06  9.70400e+07
       827.70000  2.15453e-06  9.70185e+07
       827.80000  2.15453e-06  9.69969e+07
       827.90000  2.15453e-06  9.69754e+07
       828.00000  2.15453e-06  9.69538e+07
       828.10000  2.15453e-06  9.68892e+07
       828.20000  2.15453e-06  9.68030e+07
       828.30000  2.15453e-06  9.67168e+07
       828.40000  2.15453e-06  9.66307e+07
       828.50000  1.71069e-06  7.66734e+07
       828.60000  1.71069e-06  7.66049e+07
       828.70000  1.71069e-06  7.65536e+07
       828.80000  1.67710e-06  7.50001e+07
       828.90000  1.67710e-06  7.49330e+07
       829.00000  1.67710e-06  7.48827e+07
       829.10000  1.67710e-06  7.48324e+07
       829.20000  1.67710e-06  7.47821e+07
       829.30000  1.67710e-06  7.47318e+07
       829.40000  1.67710e-06  7.46815e+07
       829.50000  2.08142e-06  9.26230e+07
       829.60000  2.08142e-06  9.25606e+07
       829.70000  2.08142e-06  9.24982e+07
       829.80000  2.08142e-06  9.24357e+07
       829.90000  2.08142e-06  9.23941e+07
       830.00000  2.08142e-06  9.23316e+07
       830.10000  2.08142e-06  9.22900e+07
       830.20000  2.08142e-06  9.22276e+07
       830.30000  2.08142e-06  9.21859e+07
       830.40000  2.08142e-06  9.21235e+07
       830.50000  2.06737e-06  9.14604e+07
       830.60000  2.06737e-06  9.14190e+07
       830.70000  2.06737e-06  9.13570e+07
       830.80000  2.06737e-06  9.13156e+07
       830.90000  2.06737e-06  9.12743e+07
       831.00000  2.06737e-06  9.12330e+07
       831.10000  2.06737e-06  9.11916e+07
       831.20000  2.06737e-06  9.11503e+07
       831.30000  2.02617e-06  8.93136e+07
       831.40000  2.02617e-06  8.92731e+07
       831.50000  1.94466e-06  8.56428e+07
       831.60000  1.94466e-06  8.56233e+07
       831.70000  1.94466e-06  8.55844e+07
       831.80000  1.94466e-06  8.55455e+07
       831.90000  1.94466e-06  8.55261e+07
       832.00000  1.94466e-06  8.55066e+07
       832.10000  1.94466e-06  8.54288e+07
       832.20000  1.94466e-06  8.53511e+07
       832.30000  1.94466e-06  8.52927e+07
       832.40000  1.94466e-06  8.52344e+07
       832.50000  1.46441e-06  6.41414e+07
       832.60000  1.46441e-06  6.41121e+07
       832.70000  1.46441e-06  6.40828e+07
       832.80000  1.46441e-06  6.40389e+07
       832.90000  1.46441e-06  6.40242e+07
       833.00000  1.46441e-06  6.39949e+07
       833.10000  1.46441e-06  6.39656e+07
       833.20000  1.46441e-06  6.39510e+07
       833.30000  1.46441e-06  6.39364e+07
       833.40000  1.46441e-06  6.39217e+07
       833.50000  1.58617e-06  6.92364e+07
       833.60000  1.58617e-06  6.92206e+07
       833.70000  1.58617e-06  6.92206e+07
       833.80000  1.55657e-06  6.79288e+07
       833.90000  1.55657e-06  6.79443e+07
       834.00000  1.55657e-06  6.79443e+07
       834.10000  1.55657e-06  6.80222e+07
       834.20000  1.55657e-06  6.80844e+07
       834.30000  1.55657e-06  6.81623e+07
       834.40000  1.55657e-06  6.82245e+07
       834.50000  1.86738e-06  8.19217e+07
       834.60000  1.86738e-06  8.19964e+07
       834.70000  1.86738e-06  8.20525e+07
       834.80000  1.86738e-06  8.21085e+07
       834.90000  1.86738e-06  8.21832e+07
       835.00000  1.86738e-06  8.22392e+07
       835.10000  1.86738e-06  8.22766e+07
       835.20000  1.86738e-06  8.23326e+07
       835.30000  1.86738e-06  8.23699e+07
       835.40000  1.86738e-06  8.24073e+07
       835.50000  1.98333e-06  8.75642e+07
       835.60000  1.98333e-06  8.76039e+07
       835.70000  1.98333e-06  8.76237e+07
       835.80000  1.98333e-06  8.76634e+07
       835.90000  1.98333e-06  8.76832e+07
       836.00000  1.98333e-06  8.77031e+07
       836.10000  1.98333e-06  8.76634e+07
       836.20000  1.98333e-06  8.76436e+07
       836.30000  1.95128e-06  8.61880e+07
       836.40000  1.95128e-06  8.61685e+07
       836.50000  1.80990e-06  7.99070e+07
       836.60000  1.80990e-06  7.98708e+07
       836.70000  1.80990e-06  7.98527e+07
       836.80000  1.80990e-06  7.98346e+07
       836.90000  1.80990e-06  7.97984e+07
       837.00000  1.80990e-06  7.97803e+07
       837.10000  1.80990e-06  7.97622e+07
       837.20000  1.80990e-06  7.97441e+07
       837.30000  1.80990e-06  7.97260e+07
       837.40000  1.80990e-06  7.97079e+07
       837.50000  1.98322e-06  8.73210e+07
       837.60000  1.98322e-06  8.73012e+07
       837.70000  1.98322e-06  8.72814e+07
       837.80000  1.98322e-06  8.72615e+07
       837.90000  1.98322e-06  8.72615e+07
       838.00000  1.98322e-06  8.72417e+07
       838.10000  1.98322e-06  8.72219e+07
       838.20000  1.98322e-06  8.72219e+07
       838.30000  1.98322e-06  8.72219e+07
       838.40000  1.98322e-06  8.72219e+07
       838.50000  1.59841e-06  7.02823e+07
       838.60000  1.59841e-06  7.02823e+07
       838.70000  1.59841e-06  7.02823e+07
       838.80000  1.57491e-06  6.92332e+07
       838.90000  1.57491e-06  6.92332e+07
       839.00000  1.57491e-06  6.92332e+07
       839.10000  1.57491e-06  6.92175e+07
       839.20000  1.57491e-06  6.92175e+07
       839.30000  1.57491e-06  6.92175e+07
       839.40000  1.57491e-06  6.92017e+07
       839.50000  1.74480e-06  7.66666e+07
       839.60000  1.74480e-06  7.66666e+07
       839.70000  1.74480e-06  7.66492e+07
       839.80000  1.74480e-06  7.66492e+07
       839.90000  1.74480e-06  7.66492e+07
       840.00000  1.74480e-06  7.66317e+07
       840.10000  1.74480e-06  7.66317e+07
       840.20000  1.74480e-06  7.66317e+07
       840.30000  1.74480e-06  7.66143e+07
       840.40000  1.74480e-06  7.66143e+07
       840.50000  1.91005e-06  8.38702e+07
       840.60000  1.91005e-06  8.38511e+07
       840.70000  1.91005e-06  8.38511e+07
       840.80000  1.91005e-06  8.38511e+07
       840.90000  1.91005e-06  8.38320e+07
       841.00000  1.91005e-06  8.38320e+07
       841.10000  1.91005e-06  8.38320e+07
       841.20000  1.91005e-06  8.38320e+07
       841.30000  1.87912e-06  8.24558e+07
       841.40000  1.87912e-06  8.24558e+07
       841.50000  1.68931e-06  7.41268e+07
       841.60000  1.68931e-06  7.41099e+07
       841.70000  1.68931e-06  7.41099e+07
       841.80000  1.68931e-06  7.41099e+07
       841.90000  1.68931e-06  7.40930e+07
       842.00000  1.68931e-06  7.40930e+07
       842.10000  1.68931e-06  7.40254e+07
       842.20000  1.68931e-06  7.39748e+07
       842.30000  1.68931e-06  7.39241e+07
       842.40000  1.68931e-06  7.38565e+07
       842.50000  1.96596e-06  8.58927e+07
       842.60000  1.96596e-06  8.58534e+07
       842.70000  1.96596e-06  8.57944e+07
       842.80000  1.96596e-06  8.57551e+07
       842.90000  1.96596e-06  8.56961e+07
       843.00000  1.96596e-06  8.56568e+07
       843.10000  1.96596e-06  8.56175e+07
       843.20000  1.96596e-06  8.55781e+07
       843.30000  1.96596e-06  8.55585e+07
       843.40000  1.96596e-06  8.55192e+07
       843.50000  1.49121e-06  6.48526e+07
       843.60000  1.49121e-06  6.48376e+07
       843.70000  1.49121e-06  6.48227e+07
       843.80000  1.46520e-06  6.36775e+07
       843.90000  1.46520e-06  6.36775e+07
       844.00000  1.46520e-06  6.36628e+07
       844.10000  1.46520e-06  6.37068e+07
       844.20000  1.46520e-06  6.37361e+07
       844.30000  1.46520e-06  6.37654e+07
       844.40000  1.46520e-06  6.37947e+07
       844.50000  1.67846e-06  7.31137e+07
       844.60000  1.67846e-06  7.31472e+07
       844.70000  1.67846e-06  7.31640e+07
       844.80000  1.67846e-06  7.31976e+07
       844.90000  1.67846e-06  7.32144e+07
       845.00000  1.67846e-06  7.32480e+07
       845.10000  1.67846e-06  7.32647e+07
       845.20000  1.67846e-06  7.32815e+07
       845.30000  1.67846e-06  7.33151e+07
       845.40000  1.67846e-06  7.33319e+07
       845.50000  1.49855e-06  6.54716e+07
       845.60000  1.49855e-06  6.54866e+07
       845.70000  1.49855e-06  6.55015e+07
       845.80000  1.49855e-06  6.55165e+07
       845.90000  1.49855e-06  6.55165e+07
       846.00000  1.49855e-06  6.55315e+07
       846.10000  1.49855e-06  6.55315e+07
       846.20000  1.49855e-06  6.55315e+07
       846.30000  1.47049e-06  6.43047e+07
       846.40000  1.47049e-06  6.43194e+07
       846.50000  1.13379e-06  4.95919e+07
       846.60000  1.13379e-06  4.95806e+07
       846.70000  1.13379e-06  4.95806e+07
       846.80000  1.13379e-06  4.95806e+07
       846.90000  1.13379e-06  4.95692e+07
       847.00000  1.13379e-06  4.95692e+07
       847.10000  1.13379e-06  4.95579e+07
       847.20000  1.13379e-06  4.95579e+07
       847.30000  1.13379e-06  4.95466e+07
       847.40000  1.13379e-06  4.95352e+07
       847.50000  1.28576e-06  5.61620e+07
       847.60000  1.28576e-06  5.61491e+07
       847.70000  1.28576e-06  5.61363e+07
       847.80000  1.28576e-06  5.61234e+07
       847.90000  1.28576e-06  5.60977e+07
       848.00000  1.28576e-06  5.60848e+07
       848.10000  1.28576e-06  5.58148e+07
       848.20000  1.28576e-06  5.55705e+07
       848.30000  1.28576e-06  5.53262e+07
       848.40000  1.28576e-06  5.50948e+07
       848.50000  1.33021e-06  5.67735e+07
       848.60000  1.33021e-06  5.65740e+07
       848.70000  1.33021e-06  5.63745e+07
       848.80000  1.30588e-06  5.51606e+07
       848.90000  1.30588e-06  5.49908e+07
       849.00000  1.30588e-06  5.48341e+07
       849.10000  1.30588e-06  5.46774e+07
       849.20000  1.30588e-06  5.45468e+07
       849.30000  1.30588e-06  5.44293e+07
       849.40000  1.30588e-06  5.43117e+07
       849.50000  1.39851e-06  5.80660e+07
       849.60000  1.39851e-06  5.79681e+07
       849.70000  1.39851e-06  5.78982e+07
       849.80000  1.39851e-06  5.78283e+07
       849.90000  1.39851e-06  5.77723e+07
       850.00000  1.39851e-06  5.77304e+07
       850.10000  1.39851e-06  5.80380e+07
       850.20000  1.39851e-06  5.83317e+07
       850.30000  1.39851e-06  5.85974e+07
       850.40000  1.39851e-06  5.88352e+07
       850.50000  1.64387e-06  6.94206e+07
       850.60000  1.64387e-06  6.96507e+07
       850.70000  1.64387e-06  6.98480e+07
       850.80000  1.64387e-06  7.00288e+07
       850.90000  1.64387e-06  7.01767e+07
       851.00000  1.64387e-06  7.03082e+07
       851.10000  1.64387e-06  7.04069e+07
       851.20000  1.64387e-06  7.04891e+07
       851.30000  1.61554e-06  6.93229e+07
       851.40000  1.61554e-06  6.93390e+07
       851.50000  1.25140e-06  5.37100e+07
       851.60000  1.25140e-06  5.36849e+07
       851.70000  1.25140e-06  5.36474e+07
       851.80000  1.25140e-06  5.35848e+07
       851.90000  1.25140e-06  5.34972e+07
       852.00000  1.25140e-06  5.33971e+07
       852.10000  1.25140e-06  5.32720e+07
       852.20000  1.25140e-06  5.31343e+07
       852.30000  1.25140e-06  5.29716e+07
       852.40000  1.25140e-06  5.27964e+07
       852.50000  9.93158e-07  4.17325e+07
       852.60000  9.93158e-07  4.15637e+07
       852.70000  9.93158e-07  4.13650e+07
       852.80000  9.93158e-07  4.11664e+07
       852.90000  9.93158e-07  4.09380e+07
       853.00000  9.93158e-07  4.06996e+07
       853.10000  9.93158e-07  4.04414e+07
       853.20000  9.93158e-07  4.01732e+07
       853.30000  9.93158e-07  3.98852e+07
       853.40000  9.93158e-07  3.95873e+07
       853.50000  1.18234e-06  4.67499e+07
       853.60000  1.18234e-06  4.63479e+07
       853.70000  1.18234e-06  4.59341e+07
       853.80000  1.16211e-06  4.47180e+07
       853.90000  1.16211e-06  4.42764e+07
       854.00000  1.16211e-06  4.38115e+07
       854.10000  1.16211e-06  4.41369e+07
       854.20000  1.16211e-06  4.44623e+07
       854.30000  1.16211e-06  4.47761e+07
       854.40000  1.16211e-06  4.50782e+07
       854.50000  1.29672e-06  5.06241e+07
       854.60000  1.29672e-06  5.09483e+07
       854.70000  1.29672e-06  5.12595e+07
       854.80000  1.29672e-06  5.15578e+07
       854.90000  1.29672e-06  5.18560e+07
       855.00000  1.29672e-06  5.21413e+07
       855.10000  1.29672e-06  5.24136e+07
       855.20000  1.29672e-06  5.26730e+07
       855.30000  1.29672e-06  5.29323e+07
       855.40000  1.29672e-06  5.31657e+07
       855.50000  9.92257e-07  4.08710e+07
       855.60000  9.92257e-07  4.10397e+07
       855.70000  9.92257e-07  4.12084e+07
       855.80000  9.92257e-07  4.13672e+07
       855.90000  9.92257e-07  4.15160e+07
       856.00000  9.92257e-07  4.16549e+07
       856.10000  9.92257e-07  4.17641e+07
       856.20000  9.92257e-07  4.18633e+07
       856.30000  9.72213e-07  4.11149e+07
       856.40000  9.72213e-07  4.12121e+07
       856.50000  1.43303e-06  6.08752e+07
       856.60000  1.43303e-06  6.10041e+07
       856.70000  1.43303e-06  6.11188e+07
       856.80000  1.43303e-06  6.12334e+07
       856.90000  1.43303e-06  6.13337e+07
       857.00000  1.43303e-06  6.14341e+07
       857.10000  1.43303e-06  6.15344e+07
       857.20000  1.43303e-06  6.16204e+07
       857.30000  1.43303e-06  6.17063e+07
       857.40000  1.43303e-06  6.17780e+07
       857.50000  7.80374e-07  3.36809e+07
       857.60000  7.80374e-07  3.37199e+07
       857.70000  7.80374e-07  3.37512e+07
       857.80000  7.80374e-07  3.37824e+07
       857.90000  7.80374e-07  3.38058e+07
       858.00000  7.80374e-07  3.38370e+07
       858.10000  7.80374e-07  3.38526e+07
       858.20000  7.80374e-07  3.38682e+07
       858.30000  7.80374e-07  3.38838e+07
       858.40000  7.80374e-07  3.38916e+07
       858.50000  1.27461e-06  5.53690e+07
       858.60000  1.27461e-06  5.53817e+07
       858.70000  1.27461e-06  5.53817e+07
       858.80000  1.24735e-06  5.41973e+07
       858.90000  1.24735e-06  5.41848e+07
       859.00000  1.24735e-06  5.41723e+07
       859.10000  1.24735e-06  5.41598e+07
       859.20000  1.24735e-06  5.41349e+07
       859.30000  1.24735e-06  5.41100e+07
       859.40000  1.24735e-06  5.40725e+07
       859.50000  5.23258e-07  2.26675e+07
       859.60000  5.23258e-07  2.26518e+07
       859.70000  5.23258e-07  2.26309e+07
       859.80000  5.23258e-07  2.26047e+07
       859.90000  5.23258e-07  2.25838e+07
       860.00000  5.23258e-07  2.25576e+07
       860.10000  5.23258e-07  2.25524e+07
       860.20000  5.23258e-07  2.25472e+07
       860.30000  5.23258e-07  2.25472e+07
       860.40000  5.23258e-07  2.25472e+07
       860.50000  1.17748e-06  5.07258e+07
       860.60000  1.17748e-06  5.07258e+07
       860.70000  1.17748e-06  5.07258e+07
       860.80000  1.17748e-06  5.07258e+07
       860.90000  1.17748e-06  5.07258e+07
       861.00000  1.17748e-06  5.07258e+07
       861.10000  1.17748e-06  5.07258e+07
       861.20000  1.17748e-06  5.07258e+07
       861.30000  1.15245e-06  4.96474e+07
       861.40000  1.15245e-06  4.96589e+07
       861.50000  1.52972e-06  6.59158e+07
       861.60000  1.52972e-06  6.59158e+07
       861.70000  1.52972e-06  6.59311e+07
       861.80000  1.52972e-06  6.59464e+07
       861.90000  1.52972e-06  6.59464e+07
       862.00000  1.52972e-06  6.59617e+07
       862.10000  1.52972e-06  6.61758e+07
       862.20000  1.52972e-06  6.63594e+07
       862.30000  1.52972e-06  6.65277e+07
       862.40000  1.52972e-06  6.66806e+07
       862.50000  1.47476e-06  6.44028e+07
       862.60000  1.47476e-06  6.45060e+07
       862.70000  1.47476e-06  6.45945e+07
       862.80000  1.47476e-06  6.46683e+07
       862.90000  1.47476e-06  6.47125e+07
       863.00000  1.47476e-06  6.47420e+07
       863.10000  1.47476e-06  6.47567e+07
       863.20000  1.47476e-06  6.47567e+07
       863.30000  1.47476e-06  6.47272e+07
       863.40000  1.47476e-06  6.46830e+07
       863.50000  1.21154e-06  5.30898e+07
       863.60000  1.21154e-06  5.30172e+07
       863.70000  1.21154e-06  5.29323e+07
       863.80000  1.18564e-06  5.17058e+07
       863.90000  1.18564e-06  5.15990e+07
       864.00000  1.18564e-06  5.14686e+07
       864.10000  1.18564e-06  5.13263e+07
       864.20000  1.18564e-06  5.11722e+07
       864.30000  1.18564e-06  5.09944e+07
       864.40000  1.18564e-06  5.08165e+07
       864.50000  6.07995e-07  2.59492e+07
       864.60000  6.07995e-07  2.58398e+07
       864.70000  6.07995e-07  2.57182e+07
       864.80000  6.07995e-07  2.55966e+07
       864.90000  6.07995e-07  2.54567e+07
       865.00000  6.07995e-07  2.53169e+07
       865.10000  6.07995e-07  2.51649e+07
       865.20000  6.07995e-07  2.50068e+07
       865.30000  6.07995e-07  2.48427e+07
       865.40000  6.07995e-07  2.46663e+07
       865.50000  9.64064e-07  3.88228e+07
       865.60000  9.64064e-07  3.85240e+07
       865.70000  9.64064e-07  3.82155e+07
       865.80000  9.64064e-07  3.78877e+07
       865.90000  9.64064e-07  3.75503e+07
       866.00000  9.64064e-07  3.72032e+07
       866.10000  9.64064e-07  3.73382e+07
       866.20000  9.64064e-07  3.74635e+07
       866.30000  9.43558e-07  3.67988e+07
       866.40000  9.43558e-07  3.69214e+07
       866.50000  7.79151e-07  3.05895e+07
       866.60000  7.79151e-07  3.06908e+07
       866.70000  7.79151e-07  3.07921e+07
       866.80000  7.79151e-07  3.08934e+07
       866.90000  7.79151e-07  3.09869e+07
       867.00000  7.79151e-07  3.10804e+07
       867.10000  7.79151e-07  3.11738e+07
       867.20000  7.79151e-07  3.12673e+07
       867.30000  7.79151e-07  3.13608e+07
       867.40000  7.79151e-07  3.14466e+07
       867.50000  1.69894e-06  6.87562e+07
       867.60000  1.69894e-06  6.89431e+07
       867.70000  1.69894e-06  6.91300e+07
       867.80000  1.69894e-06  6.93168e+07
       867.90000  1.69894e-06  6.94867e+07
       868.00000  1.69894e-06  6.96566e+07
       868.10000  1.69894e-06  6.98435e+07
       868.20000  1.69894e-06  7.00304e+07
       868.30000  1.69894e-06  7.02003e+07
       868.40000  1.69894e-06  7.03702e+07
       868.50000  7.65203e-07  3.17712e+07
       868.60000  7.65203e-07  3.18401e+07
       868.70000  7.65203e-07  3.19166e+07
       868.80000  7.48451e-07  3.12778e+07
       868.90000  7.48451e-07  3.13451e+07
       869.00000  7.48451e-07  3.14050e+07
       869.10000  7.48451e-07  3.14649e+07
       869.20000  7.48451e-07  3.15248e+07
       869.30000  7.48451e-07  3.15846e+07
       869.40000  7.48451e-07  3.16370e+07
       869.50000  5.56303e-07  2.35539e+07
       869.60000  5.56303e-07  2.35872e+07
       869.70000  5.56303e-07  2.36206e+07
       869.80000  5.56303e-07  2.36540e+07
       869.90000  5.56303e-07  2.36874e+07
       870.00000  5.56303e-07  2.37207e+07
       870.10000  5.56303e-07  2.37486e+07
       870.20000  5.56303e-07  2.37764e+07
       870.30000  5.56303e-07  2.37986e+07
       870.40000  5.56303e-07  2.38209e+07
       870.50000  1.46954e-07  6.29845e+06
       870.60000  1.46954e-07  6.30433e+06
       870.70000  1.46954e-07  6.30874e+06
       870.80000  1.46954e-07  6.31462e+06
       870.90000  1.46954e-07  6.31756e+06
       871.00000  1.46954e-07  6.32196e+06
       871.10000  1.46954e-07  6.32490e+06
       871.20000  1.46954e-07  6.32784e+06
       871.30000  1.43873e-07  6.19805e+06
       871.40000  1.43873e-07  6.19949e+06
       871.50000  9.98042e-07  4.30156e+07
       871.60000  9.98042e-07  4.30256e+07
       871.70000  9.98042e-07  4.30256e+07
       871.80000  9.98042e-07  4.30356e+07
       871.90000  9.98042e-07  4.30256e+07
       872.00000  9.98042e-07  4.30256e+07
       872.10000  9.98042e-07  4.29956e+07
       872.20000  9.98042e-07  4.29757e+07
       872.30000  9.98042e-07  4.29457e+07
       872.40000  9.98042e-07  4.29258e+07
       872.50000  4.23791e-07  1.82145e+07
       872.60000  4.23791e-07  1.82060e+07
       872.70000  4.23791e-07  1.81976e+07
       872.80000  4.23791e-07  1.81891e+07
       872.90000  4.23791e-07  1.81764e+07
       873.00000  4.23791e-07  1.81679e+07
       873.10000  4.23791e-07  1.81594e+07
       873.20000  4.23791e-07  1.81510e+07
       873.30000  4.23791e-07  1.81425e+07
       873.40000  4.23791e-07  1.81340e+07
       873.50000  6.99682e-08  2.99254e+06
       873.60000  6.99682e-08  2.99114e+06
       873.70000  6.99682e-08  2.98974e+06
       873.80000  6.83803e-08  2.92121e+06
       873.90000  6.83803e-08  2.91984e+06
       874.00000  6.83803e-08  2.91847e+06
       877.00000  1.13458e-06  4.83900e+07
       877.10000  1.13458e-06  4.84241e+07
       877.20000  1.13458e-06  4.84581e+07
       877.30000  1.13458e-06  4.84922e+07
       877.40000  1.13458e-06  4.85375e+07
       877.50000  2.31135e-06  9.89721e+07
       877.60000  2.31135e-06  9.90645e+07
       877.70000  2.31135e-06  9.91570e+07
       877.80000  2.31135e-06  9.92494e+07
       877.90000  2.31135e-06  9.93650e+07
       878.00000  2.31135e-06  9.94806e+07
       878.10000  2.31135e-06  9.93419e+07
       878.20000  2.31135e-06  9.92263e+07
       878.30000  2.31135e-06  9.91108e+07
       878.40000  2.31135e-06  9.89952e+07
       878.50000  7.62858e-07  3.26351e+07
       878.60000  7.62858e-07  3.26046e+07
       878.70000  7.62858e-07  3.25664e+07
       878.80000  7.44246e-07  3.17421e+07
       878.90000  7.44246e-07  3.17123e+07
       879.00000  7.44246e-07  3.16826e+07
       883.00000  5.51868e-07  2.34654e+07
       883.10000  5.51868e-07  2.34764e+07
       883.20000  5.51868e-07  2.34875e+07
       883.30000  5.51868e-07  2.34930e+07
       883.40000  5.51868e-07  2.34985e+07
       883.50000  1.23553e-06  5.26210e+07
       883.60000  1.23553e-06  5.26210e+07
       883.70000  1.23553e-06  5.26210e+07
       883.80000  1.20683e-06  5.13988e+07
       883.90000  1.20683e-06  5.13868e+07
       884.00000  1.20683e-06  5.13747e+07
       886.00000  2.60991e-06  1.09094e+08
       888.00000  2.83846e-06  1.19670e+08
       890.00000  2.87066e-06  1.22405e+08
       890.10000  2.87066e-06  1.22319e+08
       890.20000  2.87066e-06  1.22233e+08
       890.30000  2.87066e-06  1.22147e+08
       890.40000  2.87066e-06  1.22061e+08
       890.50000  3.93342e-06  1.67131e+08
       890.60000  3.93342e-06  1.67013e+08
       890.70000  3.93342e-06  1.66895e+08
       890.80000  3.93342e-06  1.66777e+08
       890.90000  3.93342e-06  1.66659e+08
       891.00000  3.93342e-06  1.66580e+08
       893.00000  1.14649e-06  4.81524e+07
       899.00000  1.40989e-06  5.90461e+07
       899.10000  1.40989e-06  5.89897e+07
       899.20000  1.40989e-06  5.89333e+07
       899.30000  1.40989e-06  5.88769e+07
       899.40000  1.40989e-06  5.88205e+07
       899.50000  8.95343e-06  3.73179e+08
       899.60000  8.95343e-06  3.72731e+08
       899.70000  8.95343e-06  3.72373e+08
       899.80000  8.95343e-06  3.71926e+08
       899.90000  8.95343e-06  3.71478e+08
       900.00000  8.95343e-06  3.71030e+08
       900.10000  8.95343e-06  3.69956e+08
       900.20000  8.95343e-06  3.69060e+08
       900.30000  8.95343e-06  3.68076e+08
       900.40000  8.95343e-06  3.67270e+08
       900.50000  1.03328e-05  4.22921e+08
       900.60000  1.03328e-05  4.22094e+08
       900.70000  1.03328e-05  4.21267e+08
       900.80000  1.03328e-05  4.20648e+08
       900.90000  1.03328e-05  4.20028e+08
       901.00000  1.03328e-05  4.19408e+08
       901.10000  1.03328e-05  4.18994e+08
       901.20000  1.03328e-05  4.18581e+08
       901.30000  1.01860e-05  4.12229e+08
       901.40000  1.01860e-05  4.12025e+08
       901.50000  8.87772e-06  3.58926e+08
       901.60000  8.87772e-06  3.58838e+08
       901.70000  8.87772e-06  3.58749e+08
       901.80000  8.87772e-06  3.58749e+08
       901.90000  8.87772e-06  3.58838e+08
       902.00000  8.87772e-06  3.59015e+08
       902.10000  8.87772e-06  3.60258e+08
       902.20000  8.87772e-06  3.61412e+08
       902.30000  8.87772e-06  3.62566e+08
       902.40000  8.87772e-06  3.63632e+08
       902.50000  8.25180e-06  3.38984e+08
       902.60000  8.25180e-06  3.39891e+08
       902.70000  8.25180e-06  3.40799e+08
       902.80000  8.25180e-06  3.41624e+08
       902.90000  8.25180e-06  3.42450e+08
       903.00000  8.25180e-06  3.43192e+08
       903.10000  8.25180e-06  3.43935e+08
       903.20000  8.25180e-06  3.44595e+08
       903.30000  8.25180e-06  3.45173e+08
       903.40000  8.25180e-06  3.45750e+08
       903.50000  8.42524e-06  3.53523e+08
       903.60000  8.42524e-06  3.54029e+08
       903.70000  8.42524e-06  3.54534e+08
       903.80000  8.30784e-06  3.49926e+08
       903.90000  8.30784e-06  3.50341e+08
       904.00000  8.30784e-06  3.50591e+08
       904.10000  8.30784e-06  3.50840e+08
       904.20000  8.30784e-06  3.51089e+08
       904.30000  8.30784e-06  3.51255e+08
       904.40000  8.30784e-06  3.51338e+08
       904.50000  9.47161e-06  4.00649e+08
       904.60000  9.47161e-06  4.00744e+08
       904.70000  9.47161e-06  4.00744e+08
       904.80000  9.47161e-06  4.00649e+08
       904.90000  9.47161e-06  4.00554e+08
       905.00000  9.47161e-06  4.00365e+08
       905.10000  9.47161e-06  4.00175e+08
       905.20000  9.47161e-06  3.99891e+08
       905.30000  9.47161e-06  3.99607e+08
       905.40000  9.47161e-06  3.99228e+08
       905.50000  8.47770e-06  3.56911e+08
       905.60000  8.47770e-06  3.56487e+08
       905.70000  8.47770e-06  3.56063e+08
       905.80000  8.47770e-06  3.55555e+08
       905.90000  8.47770e-06  3.54961e+08
       906.00000  8.47770e-06  3.54368e+08
       906.10000  8.47770e-06  3.54029e+08
       906.20000  8.47770e-06  3.53774e+08
       906.30000  8.35520e-06  3.48412e+08
       906.40000  8.35520e-06  3.48078e+08
       906.50000  9.30036e-06  3.87174e+08
       906.60000  9.30036e-06  3.86895e+08
       906.70000  9.30036e-06  3.86616e+08
       906.80000  9.30036e-06  3.86337e+08
       906.90000  9.30036e-06  3.86058e+08
       907.00000  9.30036e-06  3.85779e+08
       907.10000  9.30036e-06  3.85500e+08
       907.20000  9.30036e-06  3.85221e+08
       907.30000  9.30036e-06  3.84942e+08
       907.40000  9.30036e-06  3.84663e+08
       907.50000  5.42937e-06  2.24396e+08
       907.60000  5.42937e-06  2.24287e+08
       907.70000  5.42937e-06  2.24124e+08
       907.80000  5.42937e-06  2.23962e+08
       907.90000  5.42937e-06  2.23853e+08
       908.00000  5.42937e-06  2.23690e+08
       908.10000  5.42937e-06  2.23473e+08
       908.20000  5.42937e-06  2.23310e+08
       908.30000  5.42937e-06  2.23093e+08
       908.40000  5.42937e-06  2.22930e+08
       908.50000  6.97212e-06  2.86066e+08
       908.60000  6.97212e-06  2.85857e+08
       908.70000  6.97212e-06  2.85718e+08
       908.80000  6.86690e-06  2.81200e+08
       908.90000  6.86690e-06  2.81062e+08
       909.00000  6.86690e-06  2.80925e+08
       909.10000  6.86690e-06  2.80787e+08
       909.20000  6.86690e-06  2.80650e+08
       909.30000  6.86690e-06  2.80513e+08
       909.40000  6.86690e-06  2.80444e+08
       909.50000  5.45603e-06  2.22770e+08
       909.60000  5.45603e-06  2.22715e+08
       909.70000  5.45603e-06  2.22661e+08
       909.80000  5.45603e-06  2.22606e+08
       909.90000  5.45603e-06  2.22606e+08
       910.00000  5.45603e-06  2.22551e+08
       910.10000  5.45603e-06  2.22551e+08
       910.20000  5.45603e-06  2.22551e+08
       910.30000  5.45603e-06  2.22606e+08
       910.40000  5.45603e-06  2.22606e+08
       910.50000  7.06345e-06  2.88260e+08
       910.60000  7.06345e-06  2.88260e+08
       910.70000  7.06345e-06  2.88330e+08
       910.80000  7.06345e-06  2.88471e+08
       910.90000  7.06345e-06  2.88542e+08
       911.00000  7.06345e-06  2.88613e+08
       911.10000  7.06345e-06  2.88754e+08
       911.20000  7.06345e-06  2.88895e+08
       911.30000  6.95085e-06  2.84429e+08
       911.40000  6.95085e-06  2.84568e+08
       911.50000  5.32650e-06  2.18227e+08
       911.60000  5.32650e-06  2.18333e+08
       911.70000  5.32650e-06  2.18493e+08
       911.80000  5.32650e-06  2.18653e+08
       911.90000  5.32650e-06  2.18813e+08
       912.00000  5.32650e-06  2.19026e+08
       912.10000  5.32650e-06  2.19292e+08
       912.20000  5.32650e-06  2.19505e+08
       912.30000  5.32650e-06  2.19718e+08
       912.40000  5.32650e-06  2.19931e+08
       912.50000  5.04889e-06  2.08671e+08
       912.60000  5.04889e-06  2.08873e+08
       912.70000  5.04889e-06  2.09074e+08
       912.80000  5.04889e-06  2.09226e+08
       912.90000  5.04889e-06  2.09377e+08
       913.00000  5.04889e-06  2.09529e+08
       913.10000  5.04889e-06  2.09680e+08
       913.20000  5.04889e-06  2.09781e+08
       913.30000  5.04889e-06  2.09933e+08
       913.40000  5.04889e-06  2.10034e+08
       913.50000  6.70065e-06  2.78881e+08
       913.60000  6.70065e-06  2.79015e+08
       913.70000  6.70065e-06  2.79082e+08
       913.80000  6.58580e-06  2.74364e+08
       913.90000  6.58580e-06  2.74496e+08
       914.00000  6.58580e-06  2.74562e+08
       914.10000  6.58580e-06  2.74430e+08
       914.20000  6.58580e-06  2.74364e+08
       914.30000  6.58580e-06  2.74299e+08
       914.40000  6.58580e-06  2.74233e+08
       914.50000  6.79461e-06  2.82859e+08
       914.60000  6.79461e-06  2.82724e+08
       914.70000  6.79461e-06  2.82656e+08
       914.80000  6.79461e-06  2.82588e+08
       914.90000  6.79461e-06  2.82520e+08
       915.00000  6.79461e-06  2.82452e+08
       915.10000  6.79461e-06  2.82384e+08
       915.20000  6.79461e-06  2.82316e+08
       915.30000  6.79461e-06  2.82248e+08
       915.40000  6.79461e-06  2.82180e+08
       915.50000  4.59444e-06  1.90761e+08
       915.60000  4.59444e-06  1.90715e+08
       915.70000  4.59444e-06  1.90669e+08
       915.80000  4.59444e-06  1.90623e+08
       915.90000  4.59444e-06  1.90577e+08
       916.00000  4.59444e-06  1.90531e+08
       916.10000  4.59444e-06  1.90485e+08
       916.20000  4.59444e-06  1.90440e+08
       916.30000  4.50904e-06  1.86855e+08
       916.40000  4.50904e-06  1.86810e+08
       916.50000  4.94749e-06  2.04925e+08
       916.60000  4.94749e-06  2.04925e+08
       916.70000  4.94749e-06  2.04876e+08
       916.80000  4.94749e-06  2.04826e+08
       916.90000  4.94749e-06  2.04777e+08
       917.00000  4.94749e-06  2.04727e+08
       917.10000  4.94749e-06  2.04727e+08
       917.20000  4.94749e-06  2.04678e+08
       917.30000  4.94749e-06  2.04628e+08
       917.40000  4.94749e-06  2.04579e+08
       917.50000  5.20309e-06  2.15148e+08
       917.60000  5.20309e-06  2.15096e+08
       917.70000  5.20309e-06  2.15044e+08
       917.80000  5.20309e-06  2.15044e+08
       917.90000  5.20309e-06  2.14992e+08
       918.00000  5.20309e-06  2.14940e+08
       918.10000  5.20309e-06  2.15044e+08
       918.20000  5.20309e-06  2.15148e+08
       918.30000  5.20309e-06  2.15252e+08
       918.40000  5.20309e-06  2.15304e+08
       918.50000  5.19341e-06  2.14955e+08
       918.60000  5.19341e-06  2.15007e+08
       918.70000  5.19341e-06  2.15007e+08
       918.80000  5.09626e-06  2.10985e+08
       918.90000  5.09626e-06  2.10985e+08
       919.00000  5.09626e-06  2.10985e+08
       919.10000  5.09626e-06  2.10934e+08
       919.20000  5.09626e-06  2.10883e+08
       919.30000  5.09626e-06  2.10832e+08
       919.40000  5.09626e-06  2.10730e+08
       919.50000  3.13840e-06  1.29710e+08
       919.60000  3.13840e-06  1.29647e+08
       919.70000  3.13840e-06  1.29585e+08
       919.80000  3.13840e-06  1.29491e+08
       919.90000  3.13840e-06  1.29428e+08
       920.00000  3.13840e-06  1.29334e+08
       920.10000  3.13840e-06  1.29051e+08
       920.20000  3.13840e-06  1.28800e+08
       920.30000  3.13840e-06  1.28549e+08
       920.40000  3.13840e-06  1.28298e+08
       920.50000  5.09646e-06  2.07936e+08
       920.60000  5.09646e-06  2.07579e+08
       920.70000  5.09646e-06  2.07222e+08
       920.80000  5.09646e-06  2.06916e+08
       920.90000  5.09646e-06  2.06560e+08
       921.00000  5.09646e-06  2.06254e+08
       921.10000  5.09646e-06  2.05948e+08
       921.20000  5.09646e-06  2.05693e+08
       921.30000  4.99859e-06  2.01443e+08
       921.40000  4.99859e-06  2.01193e+08
       921.50000  4.41097e-06  1.77321e+08
       921.60000  4.41097e-06  1.77145e+08
       921.70000  4.41097e-06  1.76968e+08
       921.80000  4.41097e-06  1.76792e+08
       921.90000  4.41097e-06  1.76615e+08
       922.00000  4.41097e-06  1.76483e+08
       922.10000  4.41097e-06  1.76306e+08
       922.20000  4.41097e-06  1.76218e+08
       922.30000  4.41097e-06  1.76086e+08
       922.40000  4.41097e-06  1.75998e+08
       922.50000  5.49173e-06  2.18955e+08
       922.60000  5.49173e-06  2.18900e+08
       922.70000  5.49173e-06  2.18790e+08
       922.80000  5.49173e-06  2.18736e+08
       922.90000  5.49173e-06  2.18681e+08
       923.00000  5.49173e-06  2.18626e+08
       923.10000  5.49173e-06  2.18626e+08
       923.20000  5.49173e-06  2.18571e+08
       923.30000  5.49173e-06  2.18571e+08
       923.40000  5.49173e-06  2.18626e+08
       923.50000  5.37039e-06  2.13795e+08
       923.60000  5.37039e-06  2.13849e+08
       923.70000  5.37039e-06  2.13903e+08
       923.80000  5.26590e-06  2.09846e+08
       923.90000  5.26590e-06  2.09899e+08
       924.00000  5.26590e-06  2.10004e+08
       924.10000  5.26590e-06  2.10004e+08
       924.20000  5.26590e-06  2.10004e+08
       924.30000  5.26590e-06  2.10004e+08
       924.40000  5.26590e-06  2.10004e+08
       924.50000  4.11825e-06  1.64236e+08
       924.60000  4.11825e-06  1.64236e+08
       924.70000  4.11825e-06  1.64277e+08
       924.80000  4.11825e-06  1.64318e+08
       924.90000  4.11825e-06  1.64318e+08
       925.00000  4.11825e-06  1.64359e+08
       925.10000  4.11825e-06  1.64442e+08
       925.20000  4.11825e-06  1.64483e+08
       925.30000  4.11825e-06  1.64524e+08
       925.40000  4.11825e-06  1.64606e+08
       925.50000  3.47746e-06  1.39064e+08
       925.60000  3.47746e-06  1.39133e+08
       925.70000  3.47746e-06  1.39203e+08
       925.80000  3.47746e-06  1.39272e+08
       925.90000  3.47746e-06  1.39342e+08
       926.00000  3.47746e-06  1.39446e+08
       926.10000  3.47746e-06  1.39655e+08
       926.20000  3.47746e-06  1.39898e+08
       926.30000  3.40969e-06  1.37376e+08
       926.40000  3.40969e-06  1.37581e+08
       926.50000  3.88679e-06  1.57065e+08
       926.60000  3.88679e-06  1.57260e+08
       926.70000  3.88679e-06  1.57454e+08
       926.80000  3.88679e-06  1.57648e+08
       926.90000  3.88679e-06  1.57843e+08
       927.00000  3.88679e-06  1.57998e+08
       927.10000  3.88679e-06  1.58154e+08
       927.20000  3.88679e-06  1.58309e+08
       927.30000  3.88679e-06  1.58426e+08
       927.40000  3.88679e-06  1.58542e+08
       927.50000  4.36219e-06  1.78065e+08
       927.60000  4.36219e-06  1.78152e+08
       927.70000  4.36219e-06  1.78283e+08
       927.80000  4.36219e-06  1.78370e+08
       927.90000  4.36219e-06  1.78414e+08
       928.00000  4.36219e-06  1.78457e+08
       928.10000  4.36219e-06  1.78370e+08
       928.20000  4.36219e-06  1.78283e+08
       928.30000  4.36219e-06  1.78152e+08
       928.40000  4.36219e-06  1.78065e+08
       928.50000  3.61179e-06  1.47361e+08
       928.60000  3.61179e-06  1.47289e+08
       928.70000  3.61179e-06  1.47216e+08
       928.80000  3.54192e-06  1.44298e+08
       928.90000  3.54192e-06  1.44227e+08
       929.00000  3.54192e-06  1.44191e+08
       929.10000  3.54192e-06  1.44121e+08
       929.20000  3.54192e-06  1.44050e+08
       929.30000  3.54192e-06  1.44014e+08
       929.40000  3.54192e-06  1.43944e+08
       929.50000  4.89021e-06  1.98689e+08
       929.60000  4.89021e-06  1.98640e+08
       929.70000  4.89021e-06  1.98543e+08
       929.80000  4.89021e-06  1.98494e+08
       929.90000  4.89021e-06  1.98445e+08
       930.00000  4.89021e-06  1.98396e+08
       930.10000  4.89021e-06  1.98396e+08
       930.20000  4.89021e-06  1.98396e+08
       930.30000  4.89021e-06  1.98347e+08
       930.40000  4.89021e-06  1.98347e+08
       930.50000  3.70329e-06  1.50205e+08
       930.60000  3.70329e-06  1.50205e+08
       930.70000  3.70329e-06  1.50168e+08
       930.80000  3.70329e-06  1.50168e+08
       930.90000  3.70329e-06  1.50168e+08
       931.00000  3.70329e-06  1.50168e+08
       931.10000  3.70329e-06  1.50168e+08
       931.20000  3.70329e-06  1.50131e+08
       931.30000  3.63555e-06  1.47385e+08
       931.40000  3.63555e-06  1.47385e+08
       931.50000  3.55297e-06  1.44037e+08
       931.60000  3.55297e-06  1.44037e+08
       931.70000  3.55297e-06  1.44037e+08
       931.80000  3.55297e-06  1.44037e+08
       931.90000  3.55297e-06  1.44037e+08
       932.00000  3.55297e-06  1.44037e+08
       932.10000  3.55297e-06  1.44037e+08
       932.20000  3.55297e-06  1.44037e+08
       932.30000  3.55297e-06  1.44037e+08
       932.40000  3.55297e-06  1.44037e+08
       932.50000  3.26232e-06  1.32254e+08
       932.60000  3.26232e-06  1.32254e+08
       932.70000  3.26232e-06  1.32254e+08
       932.80000  3.26232e-06  1.32287e+08
       932.90000  3.26232e-06  1.32287e+08
       933.00000  3.26232e-06  1.32287e+08
       933.10000  3.26232e-06  1.32287e+08
       933.20000  3.26232e-06  1.32287e+08
       933.30000  3.26232e-06  1.32320e+08
       933.40000  3.26232e-06  1.32320e+08
       933.50000  3.34319e-06  1.35600e+08
       933.60000  3.34319e-06  1.35633e+08
       933.70000  3.34319e-06  1.35633e+08
       933.80000  3.28651e-06  1.33334e+08
       933.90000  3.28651e-06  1.33366e+08
       934.00000  3.28651e-06  1.33366e+08
       934.10000  3.28651e-06  1.33268e+08
       934.20000  3.28651e-06  1.33169e+08
       934.30000  3.28651e-06  1.33071e+08
       934.40000  3.28651e-06  1.32972e+08
       934.50000  3.86942e-06  1.56440e+08
       934.60000  3.86942e-06  1.56363e+08
       934.70000  3.86942e-06  1.56286e+08
       934.80000  3.86942e-06  1.56170e+08
       934.90000  3.86942e-06  1.56092e+08
       935.00000  3.86942e-06  1.56054e+08
       935.10000  3.86942e-06  1.55976e+08
       935.20000  3.86942e-06  1.55899e+08
       935.30000  3.86942e-06  1.55860e+08
       935.40000  3.86942e-06  1.55821e+08
       935.50000  3.90104e-06  1.57056e+08
       935.60000  3.90104e-06  1.57017e+08
       935.70000  3.90104e-06  1.56978e+08
       935.80000  3.90104e-06  1.56939e+08
       935.90000  3.90104e-06  1.56939e+08
       936.00000  3.90104e-06  1.56900e+08
       936.10000  3.90104e-06  1.57017e+08
       936.20000  3.90104e-06  1.57134e+08
       936.30000  3.83689e-06  1.54665e+08
       936.40000  3.83689e-06  1.54780e+08
       936.50000  3.31895e-06  1.33953e+08
       936.60000  3.31895e-06  1.34019e+08
       936.70000  3.31895e-06  1.34086e+08
       936.80000  3.31895e-06  1.34152e+08
       936.90000  3.31895e-06  1.34185e+08
       937.00000  3.31895e-06  1.34251e+08
       937.10000  3.31895e-06  1.34285e+08
       937.20000  3.31895e-06  1.34318e+08
       937.30000  3.31895e-06  1.34318e+08
       937.40000  3.31895e-06  1.34351e+08
       937.50000  2.87676e-06  1.16451e+08
       937.60000  2.87676e-06  1.16451e+08
       937.70000  2.87676e-06  1.16451e+08
       937.80000  2.87676e-06  1.16451e+08
       937.90000  2.87676e-06  1.16422e+08
       938.00000  2.87676e-06  1.16422e+08
       938.10000  2.87676e-06  1.16394e+08
       938.20000  2.87676e-06  1.16336e+08
       938.30000  2.87676e-06  1.16307e+08
       938.40000  2.87676e-06  1.16250e+08
       938.50000  3.86708e-06  1.56230e+08
       938.60000  3.86708e-06  1.56152e+08
       938.70000  3.86708e-06  1.56036e+08
       938.80000  3.80679e-06  1.53528e+08
       938.90000  3.80679e-06  1.53414e+08
       939.00000  3.80679e-06  1.53338e+08
       939.10000  3.80679e-06  1.53223e+08
       939.20000  3.80679e-06  1.53071e+08
       939.30000  3.80679e-06  1.52957e+08
       939.40000  3.80679e-06  1.52805e+08
       939.50000  3.02574e-06  1.21332e+08
       939.60000  3.02574e-06  1.21211e+08
       939.70000  3.02574e-06  1.21090e+08
       939.80000  3.02574e-06  1.20969e+08
       939.90000  3.02574e-06  1.20818e+08
       940.00000  3.02574e-06  1.20667e+08
       940.10000  3.02574e-06  1.20455e+08
       940.20000  3.02574e-06  1.20243e+08
       940.30000  3.02574e-06  1.20061e+08
       940.40000  3.02574e-06  1.19880e+08
       940.50000  2.52987e-06  1.00082e+08
       940.60000  2.52987e-06  9.99551e+07
       940.70000  2.52987e-06  9.98286e+07
       940.80000  2.52987e-06  9.97021e+07
       940.90000  2.52987e-06  9.95756e+07
       941.00000  2.52987e-06  9.94744e+07
       941.10000  2.52987e-06  9.93732e+07
       941.20000  2.52987e-06  9.92973e+07
       941.30000  2.49216e-06  9.77427e+07
       941.40000  2.49216e-06  9.76679e+07
       941.50000  2.89010e-06  1.13176e+08
       941.60000  2.89010e-06  1.13118e+08
       941.70000  2.89010e-06  1.13061e+08
       941.80000  2.89010e-06  1.13003e+08
       941.90000  2.89010e-06  1.12945e+08
       942.00000  2.89010e-06  1.12916e+08
       942.10000  2.89010e-06  1.13003e+08
       942.20000  2.89010e-06  1.13061e+08
       942.30000  2.89010e-06  1.13147e+08
       942.40000  2.89010e-06  1.13205e+08
       942.50000  3.65774e-06  1.43347e+08
       942.60000  3.65774e-06  1.43456e+08
       942.70000  3.65774e-06  1.43530e+08
       942.80000  3.65774e-06  1.43603e+08
       942.90000  3.65774e-06  1.43676e+08
       943.00000  3.65774e-06  1.43749e+08
       943.10000  3.65774e-06  1.43859e+08
       943.20000  3.65774e-06  1.43932e+08
       943.30000  3.65774e-06  1.44005e+08
       943.40000  3.65774e-06  1.44078e+08
       943.50000  2.55251e-06  1.00594e+08
       943.60000  2.55251e-06  1.00645e+08
       943.70000  2.55251e-06  1.00696e+08
       943.80000  2.51358e-06  9.92110e+07
       943.90000  2.51358e-06  9.92613e+07
       944.00000  2.51358e-06  9.93115e+07
       944.10000  2.51358e-06  9.93618e+07
       944.20000  2.51358e-06  9.94121e+07
       944.30000  2.51358e-06  9.94372e+07
       944.40000  2.51358e-06  9.94875e+07
       944.50000  2.74860e-06  1.08845e+08
       944.60000  2.74860e-06  1.08900e+08
       944.70000  2.74860e-06  1.08927e+08
       944.80000  2.74860e-06  1.08982e+08
       944.90000  2.74860e-06  1.09037e+08
       945.00000  2.74860e-06  1.09065e+08
       945.10000  2.74860e-06  1.09120e+08
       945.20000  2.74860e-06  1.09174e+08
       945.30000  2.74860e-06  1.09202e+08
       945.40000  2.74860e-06  1.09257e+08
       945.50000  2.30998e-06  9.18448e+07
       945.60000  2.30998e-06  9.18910e+07
       945.70000  2.30998e-06  9.19141e+07
       945.80000  2.30998e-06  9.19603e+07
       945.90000  2.30998e-06  9.19834e+07
       946.00000  2.30998e-06  9.20065e+07
       946.10000  2.30998e-06  9.20527e+07
       946.20000  2.30998e-06  9.20989e+07
       946.30000  2.27532e-06  9.07623e+07
       946.40000  2.27532e-06  9.08078e+07
       946.50000  1.82968e-06  7.30592e+07
       946.60000  1.82968e-06  7.30775e+07
       946.70000  1.82968e-06  7.31141e+07
       946.80000  1.82968e-06  7.31324e+07
       946.90000  1.82968e-06  7.31507e+07
       947.00000  1.82968e-06  7.31872e+07
       947.10000  1.82968e-06  7.32055e+07
       947.20000  1.82968e-06  7.32238e+07
       947.30000  1.82968e-06  7.32421e+07
       947.40000  1.82968e-06  7.32604e+07
       947.50000  4.25123e-06  1.70219e+08
       947.60000  4.25123e-06  1.70262e+08
       947.70000  4.25123e-06  1.70304e+08
       947.80000  4.25123e-06  1.70304e+08
       947.90000  4.25123e-06  1.70347e+08
       948.00000  4.25123e-06  1.70347e+08
       948.10000  4.25123e-06  1.70347e+08
       948.20000  4.25123e-06  1.70347e+08
       948.30000  4.25123e-06  1.70304e+08
       948.40000  4.25123e-06  1.70304e+08
       948.50000  2.74449e-06  1.09917e+08
       948.60000  2.74449e-06  1.09917e+08
       948.70000  2.74449e-06  1.09917e+08
       948.80000  2.70042e-06  1.08125e+08
       948.90000  2.70042e-06  1.08125e+08
       949.00000  2.70042e-06  1.08098e+08
       949.10000  2.70042e-06  1.08098e+08
       949.20000  2.70042e-06  1.08071e+08
       949.30000  2.70042e-06  1.08071e+08
       949.40000  2.70042e-06  1.08044e+08
       949.50000  2.89874e-06  1.15979e+08
       949.60000  2.89874e-06  1.15950e+08
       949.70000  2.89874e-06  1.15921e+08
       949.80000  2.89874e-06  1.15921e+08
       949.90000  2.89874e-06  1.15892e+08
       950.00000  2.89874e-06  1.15863e+08
       950.10000  2.89874e-06  1.15863e+08
       950.20000  2.89874e-06  1.15834e+08
       950.30000  2.89874e-06  1.15805e+08
       950.40000  2.89874e-06  1.15805e+08
       950.50000  2.39803e-06  9.57773e+07
       950.60000  2.39803e-06  9.57534e+07
       950.70000  2.39803e-06  9.57294e+07
       950.80000  2.39803e-06  9.57294e+07
       950.90000  2.39803e-06  9.57054e+07
       951.00000  2.39803e-06  9.56814e+07
       951.10000  2.39803e-06  9.56574e+07
       951.20000  2.39803e-06  9.56334e+07
       951.30000  2.35967e-06  9.41035e+07
       951.40000  2.35967e-06  9.40799e+07
       951.50000  1.37257e-06  5.47108e+07
       951.60000  1.37257e-06  5.46971e+07
       951.70000  1.37257e-06  5.46833e+07
       951.80000  1.37257e-06  5.46696e+07
       951.90000  1.37257e-06  5.46559e+07
       952.00000  1.37257e-06  5.46422e+07
       952.10000  1.37257e-06  5.45324e+07
       952.20000  1.37257e-06  5.44226e+07
       952.30000  1.37257e-06  5.43265e+07
       952.40000  1.37257e-06  5.42304e+07
       952.50000  3.01510e-06  1.18916e+08
       952.60000  3.01510e-06  1.18705e+08
       952.70000  3.01510e-06  1.18524e+08
       952.80000  3.01510e-06  1.18343e+08
       952.90000  3.01510e-06  1.18162e+08
       953.00000  3.01510e-06  1.18011e+08
       953.10000  3.01510e-06  1.17860e+08
       953.20000  3.01510e-06  1.17710e+08
       953.30000  3.01510e-06  1.17589e+08
       953.40000  3.01510e-06  1.17438e+08
       953.50000  2.70879e-06  1.05399e+08
       953.60000  2.70879e-06  1.05318e+08
       953.70000  2.70879e-06  1.05209e+08
       953.80000  2.66381e-06  1.03382e+08
       953.90000  2.66381e-06  1.03303e+08
       954.00000  2.66381e-06  1.03249e+08
       954.10000  2.66381e-06  1.03223e+08
       954.20000  2.66381e-06  1.03196e+08
       954.30000  2.66381e-06  1.03196e+08
       954.40000  2.66381e-06  1.03196e+08
       954.50000  1.96817e-06  7.62272e+07
       954.60000  1.96817e-06  7.62272e+07
       954.70000  1.96817e-06  7.62272e+07
       954.80000  1.96817e-06  7.62272e+07
       954.90000  1.96817e-06  7.62468e+07
       955.00000  1.96817e-06  7.62468e+07
       955.10000  1.96817e-06  7.62665e+07
       955.20000  1.96817e-06  7.62665e+07
       955.30000  1.96817e-06  7.62862e+07
       955.40000  1.96817e-06  7.63059e+07
       955.50000  1.52440e-06  5.91164e+07
       955.60000  1.52440e-06  5.91316e+07
       955.70000  1.52440e-06  5.91469e+07
       955.80000  1.52440e-06  5.91773e+07
       955.90000  1.52440e-06  5.91926e+07
       956.00000  1.52440e-06  5.92231e+07
       956.10000  1.52440e-06  5.92536e+07
       956.20000  1.52440e-06  5.92688e+07
       956.30000  1.49952e-06  5.83313e+07
       956.40000  1.49952e-06  5.83762e+07
       956.50000  1.86808e-06  7.27616e+07
       956.60000  1.86808e-06  7.27990e+07
       956.70000  1.86808e-06  7.28551e+07
       956.80000  1.86808e-06  7.28924e+07
       956.90000  1.86808e-06  7.29485e+07
       957.00000  1.86808e-06  7.30045e+07
       957.10000  1.86808e-06  7.30605e+07
       957.20000  1.86808e-06  7.31166e+07
       957.30000  1.86808e-06  7.31913e+07
       957.40000  1.86808e-06  7.32473e+07
       957.50000  1.84722e-06  7.24848e+07
       957.60000  1.84722e-06  7.25587e+07
       957.70000  1.84722e-06  7.26326e+07
       957.80000  1.84722e-06  7.27065e+07
       957.90000  1.84722e-06  7.27804e+07
       958.00000  1.84722e-06  7.28542e+07
       958.10000  1.84722e-06  7.28542e+07
       958.20000  1.84722e-06  7.28358e+07
       958.30000  1.84722e-06  7.28358e+07
       958.40000  1.84722e-06  7.28358e+07
       958.50000  1.67408e-06  6.60088e+07
       958.60000  1.67408e-06  6.59921e+07
       958.70000  1.67408e-06  6.59921e+07
       958.80000  1.64457e-06  6.48288e+07
       958.90000  1.64457e-06  6.48123e+07
       959.00000  1.64457e-06  6.48123e+07
       959.10000  1.64457e-06  6.47959e+07
       959.20000  1.64457e-06  6.47959e+07
       959.30000  1.64457e-06  6.47794e+07
       959.40000  1.64457e-06  6.47630e+07
       959.50000  1.42684e-06  5.61889e+07
       959.60000  1.42684e-06  5.61746e+07
       959.70000  1.42684e-06  5.61746e+07
       959.80000  1.42684e-06  5.61603e+07
       959.90000  1.42684e-06  5.61460e+07
       960.00000  1.42684e-06  5.61318e+07
       960.10000  1.42684e-06  5.61175e+07
       960.20000  1.42684e-06  5.61032e+07
       960.30000  1.42684e-06  5.60890e+07
       960.40000  1.42684e-06  5.60747e+07
       960.50000  2.20374e-06  8.65851e+07
       960.60000  2.20374e-06  8.65630e+07
       960.70000  2.20374e-06  8.65410e+07
       960.80000  2.20374e-06  8.65190e+07
       960.90000  2.20374e-06  8.64969e+07
       961.00000  2.20374e-06  8.64749e+07
       961.10000  2.20374e-06  8.64529e+07
       961.20000  2.20374e-06  8.64308e+07
       961.30000  2.16546e-06  8.49075e+07
       961.40000  2.16546e-06  8.48858e+07
       961.50000  2.13116e-06  8.35201e+07
       961.60000  2.13116e-06  8.34775e+07
       961.70000  2.13116e-06  8.34562e+07
       961.80000  2.13116e-06  8.34349e+07
       961.90000  2.13116e-06  8.34136e+07
       962.00000  2.13116e-06  8.33923e+07
       962.10000  2.13116e-06  8.33496e+07
       962.20000  2.13116e-06  8.33283e+07
       962.30000  2.13116e-06  8.33070e+07
       962.40000  2.13116e-06  8.32644e+07
       962.50000  1.97111e-06  7.69915e+07
       962.60000  1.97111e-06  7.69718e+07
       962.70000  1.97111e-06  7.69323e+07
       962.80000  1.97111e-06  7.69126e+07
       962.90000  1.97111e-06  7.68732e+07
       963.00000  1.97111e-06  7.68535e+07
       963.10000  1.97111e-06  7.68338e+07
       963.20000  1.97111e-06  7.67944e+07
       963.30000  1.97111e-06  7.67747e+07
       963.40000  1.97111e-06  7.67352e+07
       963.50000  2.10554e-06  8.19475e+07
       963.60000  2.10554e-06  8.19054e+07
       963.70000  2.10554e-06  8.18843e+07
       963.80000  2.06730e-06  8.03559e+07
       963.90000  2.06730e-06  8.03146e+07
       964.00000  2.06730e-06  8.02939e+07
       964.10000  2.06730e-06  8.02525e+07
       964.20000  2.06730e-06  8.01905e+07
       964.30000  2.06730e-06  8.01492e+07
       964.40000  2.06730e-06  8.01285e+07
       964.50000  2.34267e-06  9.07551e+07
       964.60000  2.34267e-06  9.07083e+07
       964.70000  2.34267e-06  9.06848e+07
       964.80000  2.34267e-06  9.06380e+07
       964.90000  2.34267e-06  9.06146e+07
       965.00000  2.34267e-06  9.05677e+07
       965.10000  2.34267e-06  9.05443e+07
       965.20000  2.34267e-06  9.05209e+07
       965.30000  2.34267e-06  9.04974e+07
       965.40000  2.34267e-06  9.04974e+07
       965.50000  1.84796e-06  7.13684e+07
       965.60000  1.84796e-06  7.13499e+07
       965.70000  1.84796e-06  7.13499e+07
       965.80000  1.84796e-06  7.13314e+07
       965.90000  1.84796e-06  7.13314e+07
       966.00000  1.84796e-06  7.13314e+07
       966.10000  1.84796e-06  7.13499e+07
       966.20000  1.84796e-06  7.13684e+07
       966.30000  1.81379e-06  7.00848e+07
       966.40000  1.81379e-06  7.01029e+07
       966.50000  1.96344e-06  7.59065e+07
       966.60000  1.96344e-06  7.59261e+07
       966.70000  1.96344e-06  7.59458e+07
       966.80000  1.96344e-06  7.59654e+07
       966.90000  1.96344e-06  7.59850e+07
       967.00000  1.96344e-06  7.60046e+07
       967.10000  1.96344e-06  7.60243e+07
       967.20000  1.96344e-06  7.60439e+07
       967.30000  1.96344e-06  7.60636e+07
       967.40000  1.96344e-06  7.60832e+07
       967.50000  1.62471e-06  6.29575e+07
       967.60000  1.62471e-06  6.29738e+07
       967.70000  1.62471e-06  6.29900e+07
       967.80000  1.62471e-06  6.29900e+07
       967.90000  1.62471e-06  6.30062e+07
       968.00000  1.62471e-06  6.30225e+07
       968.10000  1.62471e-06  6.30225e+07
       968.20000  1.62471e-06  6.30387e+07
       968.30000  1.62471e-06  6.30387e+07
       968.40000  1.62471e-06  6.30387e+07
       968.50000  1.34418e-06  5.21678e+07
       968.60000  1.34418e-06  5.21678e+07
       968.70000  1.34418e-06  5.21678e+07
       968.80000  1.31928e-06  5.12144e+07
       968.90000  1.31928e-06  5.12144e+07
       969.00000  1.31928e-06  5.12144e+07
       969.10000  1.31928e-06  5.12144e+07
       969.20000  1.31928e-06  5.12144e+07
       969.30000  1.31928e-06  5.12144e+07
       969.40000  1.31928e-06  5.12144e+07
       969.50000  1.57896e-06  6.12954e+07
       969.60000  1.57896e-06  6.12954e+07
       969.70000  1.57896e-06  6.12954e+07
       969.80000  1.57896e-06  6.12954e+07
       969.90000  1.57896e-06  6.12954e+07
       970.00000  1.57896e-06  6.12954e+07
       970.10000  1.57896e-06  6.13111e+07
       970.20000  1.57896e-06  6.13269e+07
       970.30000  1.57896e-06  6.13269e+07
       970.40000  1.57896e-06  6.13427e+07
       970.50000  1.65022e-06  6.41111e+07
       970.60000  1.65022e-06  6.41276e+07
       970.70000  1.65022e-06  6.41276e+07
       970.80000  1.65022e-06  6.41276e+07
       970.90000  1.65022e-06  6.41276e+07
       971.00000  1.65022e-06  6.41276e+07
       971.10000  1.65022e-06  6.41276e+07
       971.20000  1.65022e-06  6.41111e+07
       971.30000  1.61971e-06  6.29258e+07
       971.40000  1.61971e-06  6.29096e+07
       971.50000  1.79072e-06  6.95516e+07
       971.60000  1.79072e-06  6.95337e+07
       971.70000  1.79072e-06  6.95158e+07
       971.80000  1.79072e-06  6.94978e+07
       971.90000  1.79072e-06  6.94799e+07
       972.00000  1.79072e-06  6.94441e+07
       972.10000  1.79072e-06  6.93725e+07
       972.20000  1.79072e-06  6.93009e+07
       972.30000  1.79072e-06  6.92471e+07
       972.40000  1.79072e-06  6.91755e+07
       972.50000  1.35353e-06  5.22461e+07
       972.60000  1.35353e-06  5.21920e+07
       972.70000  1.35353e-06  5.21514e+07
       972.80000  1.35353e-06  5.21108e+07
       972.90000  1.35353e-06  5.20701e+07
       973.00000  1.35353e-06  5.20431e+07
       973.10000  1.35353e-06  5.20025e+07
       973.20000  1.35353e-06  5.19754e+07
       973.30000  1.35353e-06  5.19483e+07
       973.40000  1.35353e-06  5.19213e+07
       973.50000  1.54849e-06  5.93692e+07
       973.60000  1.54849e-06  5.93383e+07
       973.70000  1.54849e-06  5.93228e+07
       973.80000  1.51833e-06  5.81369e+07
       973.90000  1.51833e-06  5.81217e+07
       974.00000  1.51833e-06  5.81065e+07
       974.10000  1.51833e-06  5.81217e+07
       974.20000  1.51833e-06  5.81520e+07
       974.30000  1.51833e-06  5.81672e+07
       974.40000  1.51833e-06  5.81824e+07
       974.50000  1.72837e-06  6.62483e+07
       974.60000  1.72837e-06  6.62656e+07
       974.70000  1.72837e-06  6.62829e+07
       974.80000  1.72837e-06  6.63001e+07
       974.90000  1.72837e-06  6.63001e+07
       975.00000  1.72837e-06  6.63174e+07
       975.10000  1.72837e-06  6.63347e+07
       975.20000  1.72837e-06  6.63347e+07
       975.30000  1.72837e-06  6.63520e+07
       975.40000  1.72837e-06  6.63520e+07
       975.50000  1.61571e-06  6.20271e+07
       975.60000  1.61571e-06  6.20432e+07
       975.70000  1.61571e-06  6.20432e+07
       975.80000  1.61571e-06  6.20432e+07
       975.90000  1.61571e-06  6.20432e+07
       976.00000  1.61571e-06  6.20432e+07
       976.10000  1.61571e-06  6.20271e+07
       976.20000  1.61571e-06  6.20109e+07
       976.30000  1.58481e-06  6.08093e+07
       976.40000  1.58481e-06  6.07934e+07
       976.50000  1.29413e-06  4.96429e+07
       976.60000  1.29413e-06  4.96300e+07
       976.70000  1.29413e-06  4.96170e+07
       976.80000  1.29413e-06  4.96041e+07
       976.90000  1.29413e-06  4.96041e+07
       977.00000  1.29413e-06  4.95911e+07
       977.10000  1.29413e-06  4.95782e+07
       977.20000  1.29413e-06  4.95652e+07
       977.30000  1.29413e-06  4.95652e+07
       977.40000  1.29413e-06  4.95523e+07
       977.50000  1.88870e-06  7.22994e+07
       977.60000  1.88870e-06  7.22994e+07
       977.70000  1.88870e-06  7.22805e+07
       977.80000  1.88870e-06  7.22616e+07
       977.90000  1.88870e-06  7.22616e+07
       978.00000  1.88870e-06  7.22427e+07
       978.10000  1.88870e-06  7.22427e+07
       978.20000  1.88870e-06  7.22238e+07
       978.30000  1.88870e-06  7.22238e+07
       978.40000  1.88870e-06  7.22049e+07
       978.50000  1.31616e-06  5.03037e+07
       978.60000  1.31616e-06  5.03037e+07
       978.70000  1.31616e-06  5.03037e+07
       978.80000  1.29054e-06  4.93117e+07
       978.90000  1.29054e-06  4.93117e+07
       979.00000  1.29054e-06  4.92988e+07
       979.10000  1.29054e-06  4.92988e+07
       979.20000  1.29054e-06  4.92859e+07
       979.30000  1.29054e-06  4.92859e+07
       979.40000  1.29054e-06  4.92859e+07
       979.50000  8.82849e-07  3.37072e+07
       979.60000  8.82849e-07  3.37072e+07
       979.70000  8.82849e-07  3.37072e+07
       979.80000  8.82849e-07  3.36984e+07
       979.90000  8.82849e-07  3.36984e+07
       980.00000  8.82849e-07  3.36984e+07
       980.10000  8.82849e-07  3.37160e+07
       980.20000  8.82849e-07  3.37248e+07
       980.30000  8.82849e-07  3.37425e+07
       980.40000  8.82849e-07  3.37513e+07
       980.50000  1.14098e-06  4.36426e+07
       980.60000  1.14098e-06  4.36540e+07
       980.70000  1.14098e-06  4.36654e+07
       980.80000  1.14098e-06  4.36768e+07
       980.90000  1.14098e-06  4.36882e+07
       981.00000  1.14098e-06  4.36996e+07
       981.10000  1.14098e-06  4.37110e+07
       981.20000  1.14098e-06  4.37224e+07
       981.30000  1.11789e-06  4.28377e+07
       981.40000  1.11789e-06  4.28489e+07
       981.50000  1.17168e-06  4.49107e+07
       981.60000  1.17168e-06  4.49107e+07
       981.70000  1.17168e-06  4.49224e+07
       981.80000  1.17168e-06  4.49224e+07
       981.90000  1.17168e-06  4.49224e+07
       982.00000  1.17168e-06  4.49107e+07
       982.10000  1.17168e-06  4.48989e+07
       982.20000  1.17168e-06  4.48755e+07
       982.30000  1.17168e-06  4.48638e+07
       982.40000  1.17168e-06  4.48404e+07
       982.50000  1.05623e-06  4.04114e+07
       982.60000  1.05623e-06  4.03903e+07
       982.70000  1.05623e-06  4.03797e+07
       982.80000  1.05623e-06  4.03692e+07
       982.90000  1.05623e-06  4.03480e+07
       983.00000  1.05623e-06  4.03375e+07
       983.10000  1.05623e-06  4.03269e+07
       983.20000  1.05623e-06  4.03163e+07
       983.30000  1.05623e-06  4.03058e+07
       983.40000  1.05623e-06  4.02847e+07
       983.50000  1.07282e-06  4.09065e+07
       983.60000  1.07282e-06  4.08958e+07
       983.70000  1.07282e-06  4.08851e+07
       983.80000  1.05166e-06  4.00681e+07
       983.90000  1.05166e-06  4.00576e+07
       984.00000  1.05166e-06  4.00471e+07
       984.10000  1.05166e-06  4.00471e+07
       984.20000  1.05166e-06  4.00366e+07
       984.30000  1.05166e-06  4.00261e+07
       984.40000  1.05166e-06  4.00156e+07
       984.50000  1.28523e-06  4.89029e+07
       984.60000  1.28523e-06  4.88901e+07
       984.70000  1.28523e-06  4.88772e+07
       984.80000  1.28523e-06  4.88772e+07
       984.90000  1.28523e-06  4.88643e+07
       985.00000  1.28523e-06  4.88515e+07
       985.10000  1.28523e-06  4.88515e+07
       985.20000  1.28523e-06  4.88386e+07
       985.30000  1.28523e-06  4.88386e+07
       985.40000  1.28523e-06  4.88386e+07
       985.50000  1.11549e-06  4.23773e+07
       985.60000  1.11549e-06  4.23773e+07
       985.70000  1.11549e-06  4.23773e+07
       985.80000  1.11549e-06  4.23662e+07
       985.90000  1.11549e-06  4.23662e+07
       986.00000  1.11549e-06  4.23662e+07
       986.10000  1.11549e-06  4.23550e+07
       986.20000  1.11549e-06  4.23550e+07
       986.30000  1.09350e-06  4.15202e+07
       986.40000  1.09350e-06  4.15093e+07
       986.50000  8.24695e-07  3.12972e+07
       986.60000  8.24695e-07  3.12972e+07
       986.70000  8.24695e-07  3.12889e+07
       986.80000  8.24695e-07  3.12889e+07
       986.90000  8.24695e-07  3.12807e+07
       987.00000  8.24695e-07  3.12724e+07
       987.10000  8.24695e-07  3.12642e+07
       987.20000  8.24695e-07  3.12642e+07
       987.30000  8.24695e-07  3.12559e+07
       987.40000  8.24695e-07  3.12477e+07
       987.50000  7.82353e-07  2.96355e+07
       987.60000  7.82353e-07  2.96277e+07
       987.70000  7.82353e-07  2.96199e+07
       987.80000  7.82353e-07  2.96120e+07
       987.90000  7.82353e-07  2.96042e+07
       988.00000  7.82353e-07  2.95964e+07
       988.10000  7.82353e-07  2.95729e+07
       988.20000  7.82353e-07  2.95573e+07
       988.30000  7.82353e-07  2.95338e+07
       988.40000  7.82353e-07  2.95182e+07
       988.50000  1.20703e-06  4.55173e+07
       988.60000  1.20703e-06  4.54931e+07
       988.70000  1.20703e-06  4.54690e+07
       988.80000  1.18352e-06  4.45594e+07
       988.90000  1.18352e-06  4.45357e+07
       989.00000  1.18352e-06  4.45239e+07
       989.10000  1.18352e-06  4.45120e+07
       989.20000  1.18352e-06  4.44884e+07
       989.30000  1.18352e-06  4.44765e+07
       989.40000  1.18352e-06  4.44647e+07
       989.50000  1.08133e-06  4.06146e+07
       989.60000  1.08133e-06  4.06038e+07
       989.70000  1.08133e-06  4.06038e+07
       989.80000  1.08133e-06  4.05930e+07
       989.90000  1.08133e-06  4.05930e+07
       990.00000  1.08133e-06  4.05930e+07
       990.10000  1.08133e-06  4.05822e+07
       990.20000  1.08133e-06  4.05822e+07
       990.30000  1.08133e-06  4.05930e+07
       990.40000  1.08133e-06  4.05930e+07
       990.50000  8.63403e-07  3.24121e+07
       990.60000  8.63403e-07  3.24208e+07
       990.70000  8.63403e-07  3.24208e+07
       990.80000  8.63403e-07  3.24294e+07
       990.90000  8.63403e-07  3.24380e+07
       991.00000  8.63403e-07  3.24467e+07
       991.10000  8.63403e-07  3.24553e+07
       991.20000  8.63403e-07  3.24639e+07
       991.30000  8.47403e-07  3.18708e+07
       991.40000  8.47403e-07  3.18878e+07
       991.50000  1.01133e-06  3.80664e+07
       991.60000  1.01133e-06  3.80866e+07
       991.70000  1.01133e-06  3.81069e+07
       991.80000  1.01133e-06  3.81271e+07
       991.90000  1.01133e-06  3.81473e+07
       992.00000  1.01133e-06  3.81676e+07
       992.10000  1.01133e-06  3.81777e+07
       992.20000  1.01133e-06  3.81777e+07
       992.30000  1.01133e-06  3.81777e+07
       992.40000  1.01133e-06  3.81777e+07
       992.50000  4.30791e-07  1.62667e+07
       992.60000  4.30791e-07  1.62667e+07
       992.70000  4.30791e-07  1.62667e+07
       992.80000  4.30791e-07  1.62667e+07
       992.90000  4.30791e-07  1.62667e+07
       993.00000  4.30791e-07  1.62710e+07
       993.10000  4.30791e-07  1.62710e+07
       993.20000  4.30791e-07  1.62710e+07
       993.30000  4.30791e-07  1.62710e+07
       993.40000  4.30791e-07  1.62710e+07
       993.50000  7.70211e-07  2.90909e+07
       993.60000  7.70211e-07  2.90909e+07
       993.70000  7.70211e-07  2.90909e+07
       993.80000  7.56919e-07  2.85888e+07
       993.90000  7.56919e-07  2.85813e+07
       994.00000  7.56919e-07  2.85813e+07
       994.10000  7.56919e-07  2.85813e+07
       994.20000  7.56919e-07  2.85737e+07
       994.30000  7.56919e-07  2.85737e+07
       994.40000  7.56919e-07  2.85661e+07
       994.50000  9.03751e-07  3.41075e+07
       994.60000  9.03751e-07  3.40985e+07
       994.70000  9.03751e-07  3.40985e+07
       994.80000  9.03751e-07  3.40895e+07
       994.90000  9.03751e-07  3.40895e+07
       995.00000  9.03751e-07  3.40804e+07
       995.10000  9.03751e-07  3.40804e+07
       995.20000  9.03751e-07  3.40804e+07
       995.30000  9.03751e-07  3.40714e+07
       995.40000  9.03751e-07  3.40714e+07
       995.50000  7.25816e-07  2.73633e+07
       995.60000  7.25816e-07  2.73560e+07
       995.70000  7.25816e-07  2.73560e+07
       995.80000  7.25816e-07  2.73560e+07
       995.90000  7.25816e-07  2.73560e+07
       996.00000  7.25816e-07  2.73488e+07
       996.10000  7.25816e-07  2.73560e+07
       996.20000  7.25816e-07  2.73560e+07
       996.30000  7.13651e-07  2.68975e+07
       996.40000  7.13651e-07  2.68975e+07
       996.50000  8.08291e-07  3.04645e+07
       996.60000  8.08291e-07  3.04645e+07
       996.70000  8.08291e-07  3.04645e+07
       996.80000  8.08291e-07  3.04645e+07
       996.90000  8.08291e-07  3.04645e+07
       997.00000  8.08291e-07  3.04645e+07
       997.10000  8.08291e-07  3.04645e+07
       997.20000  8.08291e-07  3.04645e+07
       997.30000  8.08291e-07  3.04645e+07
       997.40000  8.08291e-07  3.04645e+07
       997.50000  6.86566e-07  2.58767e+07
       997.60000  6.86566e-07  2.58767e+07
       997.70000  6.86566e-07  2.58767e+07
       997.80000  6.86566e-07  2.58767e+07
       997.90000  6.86566e-07  2.58767e+07
       998.00000  6.86566e-07  2.58698e+07
       998.10000  6.86566e-07  2.58698e+07
       998.20000  6.86566e-07  2.58629e+07
       998.30000  6.86566e-07  2.58629e+07
       998.40000  6.86566e-07  2.58561e+07
       998.50000  5.19264e-07  1.95503e+07
       998.60000  5.19264e-07  1.95503e+07
       998.70000  5.19264e-07  1.95451e+07
       998.80000  5.11349e-07  1.92472e+07
       998.90000  5.11349e-07  1.92472e+07
       999.00000  5.11349e-07  1.92421e+07
       999.10000  5.11349e-07  1.92421e+07
       999.20000  5.11349e-07  1.92370e+07
       999.30000  5.11349e-07  1.92370e+07
       999.40000  5.11349e-07  1.92370e+07
       999.50000  5.94828e-07  2.23715e+07
       999.60000  5.94828e-07  2.23715e+07
       999.70000  5.94828e-07  2.23715e+07
       999.80000  5.94828e-07  2.23715e+07
       999.90000  5.94828e-07  2.23715e+07
       1000.0000  5.94828e-07  2.23655e+07
       1000.1000  5.94828e-07  2.23655e+07
       1000.2000  5.94828e-07  2.23655e+07
       1000.3000  5.94828e-07  2.23655e+07
       1000.4000  5.94828e-07  2.23655e+07
       1000.5000  4.88740e-07  1.83766e+07
       1000.6000  4.88740e-07  1.83766e+07
       1000.7000  4.88740e-07  1.83766e+07
       1000.8000  4.88740e-07  1.83766e+07
       1000.9000  4.88740e-07  1.83766e+07
       1001.0000  4.88740e-07  1.83766e+07
       1001.1000  4.88740e-07  1.83766e+07
       1001.2000  4.88740e-07  1.83815e+07
       1001.3000  4.81526e-07  1.81102e+07
       1001.4000  4.81526e-07  1.81102e+07
       1001.5000  5.80349e-07  2.18269e+07
       1001.6000  5.80349e-07  2.18269e+07
       1001.7000  5.80349e-07  2.18327e+07
       1001.8000  5.80349e-07  2.18327e+07
       1001.9000  5.80349e-07  2.18327e+07
       1002.0000  5.80349e-07  2.18385e+07
       1002.1000  5.80349e-07  2.18037e+07
       1002.2000  5.80349e-07  2.17689e+07
       1002.3000  5.80349e-07  2.17399e+07
       1002.4000  5.80349e-07  2.17051e+07
       1002.5000  6.40571e-07  2.39253e+07
       1002.6000  6.40571e-07  2.38869e+07
       1002.7000  6.40571e-07  2.38549e+07
       1002.8000  6.40571e-07  2.38228e+07
       1002.9000  6.40571e-07  2.37908e+07
       1003.0000  6.40571e-07  2.37588e+07
       1003.1000  6.40571e-07  2.37268e+07
       1003.2000  6.40571e-07  2.36947e+07
       1003.3000  6.40571e-07  2.36691e+07
       1003.4000  6.40571e-07  2.36371e+07
       1003.5000  6.75010e-07  2.48809e+07
       1003.6000  6.75010e-07  2.48539e+07
       1003.7000  6.75010e-07  2.48201e+07
       1003.8000  6.65816e-07  2.44554e+07
       1003.9000  6.65816e-07  2.44288e+07
       1004.0000  6.65816e-07  2.44022e+07
       1004.1000  6.65816e-07  2.43622e+07
       1004.2000  6.65816e-07  2.43156e+07
       1004.3000  6.65816e-07  2.42823e+07
       1004.4000  6.65816e-07  2.42424e+07
       1004.5000  4.74948e-07  1.72691e+07
       1004.6000  4.74948e-07  1.72454e+07
       1004.7000  4.74948e-07  1.72264e+07
       1004.8000  4.74948e-07  1.72074e+07
       1004.9000  4.74948e-07  1.71931e+07
       1005.0000  4.74948e-07  1.71789e+07
       1005.1000  4.74948e-07  1.71646e+07
       1005.2000  4.74948e-07  1.71551e+07
       1005.3000  4.74948e-07  1.71456e+07
       1005.4000  4.74948e-07  1.71409e+07
       1005.5000  5.27287e-07  1.90245e+07
       1005.6000  5.27287e-07  1.90192e+07
       1005.7000  5.27287e-07  1.90192e+07
       1005.8000  5.27287e-07  1.90245e+07
       1005.9000  5.27287e-07  1.90245e+07
       1006.0000  5.27287e-07  1.90298e+07
       1006.1000  5.27287e-07  1.90403e+07
       1006.2000  5.27287e-07  1.90509e+07
       1006.3000  5.20579e-07  1.88189e+07
       1006.4000  5.20579e-07  1.88346e+07
       1006.5000  3.97058e-07  1.43775e+07
       1006.6000  3.97058e-07  1.43933e+07
       1006.7000  3.97058e-07  1.44092e+07
       1006.8000  3.97058e-07  1.44251e+07
       1006.9000  3.97058e-07  1.44450e+07
       1007.0000  3.97058e-07  1.44648e+07
       1007.1000  3.97058e-07  1.44886e+07
       1007.2000  3.97058e-07  1.45125e+07
       1007.3000  3.97058e-07  1.45363e+07
       1007.4000  3.97058e-07  1.45641e+07
       1007.5000  4.06171e-07  1.49268e+07
       1007.6000  4.06171e-07  1.49593e+07
       1007.7000  4.06171e-07  1.49918e+07
       1007.8000  4.06171e-07  1.50243e+07
       1007.9000  4.06171e-07  1.50608e+07
       1008.0000  4.06171e-07  1.50974e+07
       1008.1000  4.06171e-07  1.51014e+07
       1008.2000  4.06171e-07  1.51014e+07
       1008.3000  4.06171e-07  1.51014e+07
       1008.4000  4.06171e-07  1.51014e+07
       1008.5000  4.19110e-07  1.55825e+07
       1008.6000  4.19110e-07  1.55825e+07
       1008.7000  4.19110e-07  1.55825e+07
       1008.8000  4.14205e-07  1.54001e+07
       1008.9000  4.14205e-07  1.54001e+07
       1009.0000  4.14205e-07  1.53960e+07
       1009.1000  4.14205e-07  1.53960e+07
       1009.2000  4.14205e-07  1.53960e+07
       1009.3000  4.14205e-07  1.53960e+07
       1009.4000  4.14205e-07  1.53918e+07
       1009.5000  5.17743e-07  1.92393e+07
       1009.6000  5.17743e-07  1.92393e+07
       1009.7000  5.17743e-07  1.92342e+07
       1009.8000  5.17743e-07  1.92342e+07
       1009.9000  5.17743e-07  1.92290e+07
       1010.0000  5.17743e-07  1.92290e+07
       1010.1000  5.17743e-07  1.92238e+07
       1010.2000  5.17743e-07  1.92186e+07
       1010.3000  5.17743e-07  1.92135e+07
       1010.4000  5.17743e-07  1.92083e+07
       1010.5000  5.35537e-07  1.98631e+07
       1010.6000  5.35537e-07  1.98577e+07
       1010.7000  5.35537e-07  1.98524e+07
       1010.8000  5.35537e-07  1.98470e+07
       1010.9000  5.35537e-07  1.98417e+07
       1011.0000  5.35537e-07  1.98363e+07
       1011.1000  5.35537e-07  1.98363e+07
       1011.2000  5.35537e-07  1.98310e+07
       1011.3000  5.29630e-07  1.96069e+07
       1011.4000  5.29630e-07  1.96016e+07
       1011.5000  4.71652e-07  1.74511e+07
       1011.6000  4.71652e-07  1.74464e+07
       1011.7000  4.71652e-07  1.74417e+07
       1011.8000  4.71652e-07  1.74370e+07
       1011.9000  4.71652e-07  1.74322e+07
       1012.0000  4.71652e-07  1.74275e+07
       1012.1000  4.71652e-07  1.74228e+07
       1012.2000  4.71652e-07  1.74181e+07
       1012.3000  4.71652e-07  1.74134e+07
       1012.4000  4.71652e-07  1.74087e+07
       1012.5000  6.62270e-07  2.44378e+07
       1012.6000  6.62270e-07  2.44312e+07
       1012.7000  6.62270e-07  2.44245e+07
       1012.8000  6.62270e-07  2.44179e+07
       1012.9000  6.62270e-07  2.44179e+07
       1013.0000  6.62270e-07  2.44113e+07
       1013.1000  6.62270e-07  2.44047e+07
       1013.2000  6.62270e-07  2.43980e+07
       1013.3000  6.62270e-07  2.43914e+07
       1013.4000  6.62270e-07  2.43848e+07
       1013.5000  3.62120e-07  1.33296e+07
       1013.6000  3.62120e-07  1.33260e+07
       1013.7000  3.62120e-07  1.33224e+07
       1013.8000  3.58396e-07  1.31818e+07
       1013.9000  3.58396e-07  1.31782e+07
       1014.0000  3.58396e-07  1.31746e+07
       1014.1000  3.58396e-07  1.31675e+07
       1014.2000  3.58396e-07  1.31603e+07
       1014.3000  3.58396e-07  1.31531e+07
       1014.4000  3.58396e-07  1.31460e+07
       1014.5000  2.82799e-07  1.03703e+07
       1014.6000  2.82799e-07  1.03646e+07
       1014.7000  2.82799e-07  1.03589e+07
       1014.8000  2.82799e-07  1.03561e+07
       1014.9000  2.82799e-07  1.03505e+07
       1015.0000  2.82799e-07  1.03476e+07
       1015.1000  2.82799e-07  1.03420e+07
       1015.2000  2.82799e-07  1.03391e+07
       1015.3000  2.82799e-07  1.03363e+07
       1015.4000  2.82799e-07  1.03307e+07
       1015.5000  3.42377e-07  1.25036e+07
       1015.6000  3.42377e-07  1.25002e+07
       1015.7000  3.42377e-07  1.24968e+07
       1015.8000  3.42377e-07  1.24933e+07
       1015.9000  3.42377e-07  1.24899e+07
       1016.0000  3.42377e-07  1.24865e+07
       1016.1000  3.42377e-07  1.24865e+07
       1016.2000  3.42377e-07  1.24865e+07
       1016.3000  3.39123e-07  1.23678e+07
       1016.4000  3.39123e-07  1.23644e+07
       1016.5000  3.46812e-07  1.26448e+07
       1016.6000  3.46812e-07  1.26448e+07
       1016.7000  3.46812e-07  1.26448e+07
       1016.8000  3.46812e-07  1.26413e+07
       1016.9000  3.46812e-07  1.26413e+07
       1017.0000  3.46812e-07  1.26378e+07
       1017.1000  3.46812e-07  1.26378e+07
       1017.2000  3.46812e-07  1.26344e+07
       1017.3000  3.46812e-07  1.26344e+07
       1017.4000  3.46812e-07  1.26309e+07
       1017.5000  3.98627e-07  1.45180e+07
       1017.6000  3.98627e-07  1.45140e+07
       1017.7000  3.98627e-07  1.45100e+07
       1017.8000  3.98627e-07  1.45060e+07
       1017.9000  3.98627e-07  1.45021e+07
       1018.0000  3.98627e-07  1.45021e+07
       1018.1000  3.98627e-07  1.44941e+07
       1018.2000  3.98627e-07  1.44861e+07
       1018.3000  3.98627e-07  1.44781e+07
       1018.4000  3.98627e-07  1.44702e+07
       1018.5000  3.33679e-07  1.21092e+07
       1018.6000  3.33679e-07  1.21025e+07
       1018.7000  3.33679e-07  1.20992e+07
       1018.8000  3.30623e-07  1.19818e+07
       1018.9000  3.30623e-07  1.19785e+07
       1019.0000  3.30623e-07  1.19719e+07
       1019.1000  3.30623e-07  1.19686e+07
       1019.2000  3.30623e-07  1.19653e+07
       1019.3000  3.30623e-07  1.19619e+07
       1019.4000  3.30623e-07  1.19553e+07
       1019.5000  3.09045e-07  1.11720e+07
       1019.6000  3.09045e-07  1.11689e+07
       1019.7000  3.09045e-07  1.11658e+07
       1019.8000  3.09045e-07  1.11658e+07
       1019.9000  3.09045e-07  1.11627e+07
       1020.0000  3.09045e-07  1.11596e+07
       1020.1000  3.09045e-07  1.11565e+07
       1020.2000  3.09045e-07  1.11534e+07
       1020.3000  3.09045e-07  1.11534e+07
       1020.4000  3.09045e-07  1.11503e+07
       1020.5000  2.86047e-07  1.03206e+07
       1020.6000  2.86047e-07  1.03177e+07
       1020.7000  2.86047e-07  1.03177e+07
       1020.8000  2.86047e-07  1.03148e+07
       1020.9000  2.86047e-07  1.03148e+07
       1021.0000  2.86047e-07  1.03148e+07
       1021.1000  2.86047e-07  1.03148e+07
       1021.2000  2.86047e-07  1.03148e+07
       1021.3000  2.83921e-07  1.02382e+07
       1021.4000  2.83921e-07  1.02382e+07
       1021.5000  2.51360e-07  9.06403e+06
       1021.6000  2.51360e-07  9.06403e+06
       1021.7000  2.51360e-07  9.06403e+06
       1021.8000  2.51360e-07  9.06655e+06
       1021.9000  2.51360e-07  9.06655e+06
       1022.0000  2.51360e-07  9.06906e+06
       1022.1000  2.51360e-07  9.06906e+06
       1022.2000  2.51360e-07  9.07158e+06
       1022.3000  2.51360e-07  9.07409e+06
       1022.4000  2.51360e-07  9.07409e+06
       1022.5000  2.51598e-07  9.08522e+06
       1022.6000  2.51598e-07  9.08774e+06
       1022.7000  2.51598e-07  9.09025e+06
       1022.8000  2.51598e-07  9.09277e+06
       1022.9000  2.51598e-07  9.09529e+06
       1023.0000  2.51598e-07  9.09780e+06
       1023.1000  2.51598e-07  9.10283e+06
       1023.2000  2.51598e-07  9.10535e+06
       1023.3000  2.51598e-07  9.10787e+06
       1023.4000  2.51598e-07  9.11290e+06
       1023.5000  3.19625e-07  1.15800e+07
       1023.6000  3.19625e-07  1.15864e+07
       1023.7000  3.19625e-07  1.15896e+07
       1023.8000  3.17620e-07  1.15233e+07
       1023.9000  3.17620e-07  1.15296e+07
       1024.0000  3.17620e-07  1.15360e+07
       1024.1000  3.17620e-07  1.15360e+07
       1024.2000  3.17620e-07  1.15328e+07
       1024.3000  3.17620e-07  1.15328e+07
       1024.4000  3.17620e-07  1.15328e+07
       1024.5000  3.06690e-07  1.11359e+07
       1024.6000  3.06690e-07  1.11328e+07
       1024.7000  3.06690e-07  1.11328e+07
       1024.8000  3.06690e-07  1.11328e+07
       1024.9000  3.06690e-07  1.11298e+07
       1025.0000  3.06690e-07  1.11298e+07
       1025.1000  3.06690e-07  1.11298e+07
       1025.2000  3.06690e-07  1.11267e+07
       1025.3000  3.06690e-07  1.11267e+07
       1025.4000  3.06690e-07  1.11267e+07
       1025.5000  2.72694e-07  9.89061e+06
       1025.6000  2.72694e-07  9.89061e+06
       1025.7000  2.72694e-07  9.88789e+06
       1025.8000  2.72694e-07  9.88789e+06
       1025.9000  2.72694e-07  9.88516e+06
       1026.0000  2.72694e-07  9.88516e+06
       1026.1000  2.72694e-07  9.88516e+06
       1026.2000  2.72694e-07  9.88243e+06
       1026.3000  2.70993e-07  9.82080e+06
       1026.4000  2.70993e-07  9.81809e+06
       1026.5000  2.14577e-07  7.77414e+06
       1026.6000  2.14577e-07  7.77199e+06
       1026.7000  2.14577e-07  7.76985e+06
       1026.8000  2.14577e-07  7.76985e+06
       1026.9000  2.14577e-07  7.76770e+06
       1027.0000  2.14577e-07  7.76770e+06
       1027.1000  2.14577e-07  7.76556e+06
       1027.2000  2.14577e-07  7.76341e+06
       1027.3000  2.14577e-07  7.76341e+06
       1027.4000  2.14577e-07  7.76126e+06
       1027.5000  2.34560e-07  8.48168e+06
       1027.6000  2.34560e-07  8.48168e+06
       1027.7000  2.34560e-07  8.47933e+06
       1027.8000  2.34560e-07  8.47698e+06
       1027.9000  2.34560e-07  8.47464e+06
       1028.0000  2.34560e-07  8.47229e+06
       1028.1000  2.34560e-07  8.47229e+06
       1028.2000  2.34560e-07  8.46995e+06
       1028.3000  2.34560e-07  8.46760e+06
       1028.4000  2.34560e-07  8.46526e+06
       1028.5000  2.45336e-07  8.85171e+06
       1028.6000  2.45336e-07  8.84926e+06
       1028.7000  2.45336e-07  8.84680e+06
       1028.8000  2.43232e-07  8.76850e+06
       1028.9000  2.43232e-07  8.76607e+06
       1029.0000  2.43232e-07  8.76364e+06
       1029.1000  2.43232e-07  8.76120e+06
       1029.2000  2.43232e-07  8.75877e+06
       1029.3000  2.43232e-07  8.75634e+06
       1029.4000  2.43232e-07  8.75391e+06
       1029.5000  2.37464e-07  8.54396e+06
       1029.6000  2.37464e-07  8.54158e+06
       1029.7000  2.37464e-07  8.53921e+06
       1029.8000  2.37464e-07  8.53683e+06
       1029.9000  2.37464e-07  8.53446e+06
       1030.0000  2.37464e-07  8.52971e+06
       1030.1000  2.37464e-07  8.53208e+06
       1030.2000  2.37464e-07  8.53208e+06
       1030.3000  2.37464e-07  8.53208e+06
       1030.4000  2.37464e-07  8.53208e+06
       1030.5000  2.50900e-07  9.01485e+06
       1030.6000  2.50900e-07  9.01485e+06
       1030.7000  2.50900e-07  9.01234e+06
       1030.8000  2.50900e-07  9.01234e+06
       1030.9000  2.50900e-07  9.01234e+06
       1031.0000  2.50900e-07  9.00983e+06
       1031.1000  2.50900e-07  9.00983e+06
       1031.2000  2.50900e-07  9.00732e+06
       1031.3000  2.47487e-07  8.88477e+06
       1031.4000  2.47487e-07  8.88230e+06
       1031.5000  1.97452e-07  7.08458e+06
       1031.6000  1.97452e-07  7.08261e+06
       1031.7000  1.97452e-07  7.08064e+06
       1031.8000  1.97452e-07  7.07866e+06
       1031.9000  1.97452e-07  7.07669e+06
       1032.0000  1.97452e-07  7.07471e+06
       1032.1000  1.97452e-07  7.06879e+06
       1032.2000  1.97452e-07  7.06089e+06
       1032.3000  1.97452e-07  7.05497e+06
       1032.4000  1.97452e-07  7.05102e+06
       1032.5000  2.48067e-07  8.85102e+06
       1032.6000  2.48067e-07  8.84357e+06
       1032.7000  2.48067e-07  8.83861e+06
       1032.8000  2.48067e-07  8.83117e+06
       1032.9000  2.48067e-07  8.82621e+06
       1033.0000  2.48067e-07  8.82125e+06
       1033.1000  2.48067e-07  8.81629e+06
       1033.2000  2.48067e-07  8.81381e+06
       1033.3000  2.48067e-07  8.80884e+06
       1033.4000  2.48067e-07  8.80636e+06
       1033.5000  2.36389e-07  8.38709e+06
       1033.6000  2.36389e-07  8.38473e+06
       1033.7000  2.36389e-07  8.38236e+06
       1033.8000  2.31890e-07  8.22049e+06
       1033.9000  2.31890e-07  8.22049e+06
       1034.0000  2.31890e-07  8.21817e+06
       1034.1000  2.31890e-07  8.21817e+06
       1034.2000  2.31890e-07  8.21585e+06
       1034.3000  2.31890e-07  8.21585e+06
       1034.4000  2.31890e-07  8.21585e+06
       1034.5000  2.05871e-07  7.29401e+06
       1034.6000  2.05871e-07  7.29607e+06
       1034.7000  2.05871e-07  7.29607e+06
       1034.8000  2.05871e-07  7.29813e+06
       1034.9000  2.05871e-07  7.29813e+06
       1035.0000  2.05871e-07  7.30019e+06
       1035.1000  2.05871e-07  7.30224e+06
       1035.2000  2.05871e-07  7.30430e+06
       1035.3000  2.05871e-07  7.30842e+06
       1035.4000  2.05871e-07  7.31048e+06
       1035.5000  1.68420e-07  5.98398e+06
       1035.6000  1.68420e-07  5.98734e+06
       1035.7000  1.68420e-07  5.98903e+06
       1035.8000  1.68420e-07  5.99240e+06
       1035.9000  1.68420e-07  5.99745e+06
       1036.0000  1.68420e-07  6.00082e+06
       1036.1000  1.68420e-07  5.99745e+06
       1036.2000  1.68420e-07  5.99408e+06
       1036.3000  1.64488e-07  5.85083e+06
       1036.4000  1.64488e-07  5.84754e+06
       1036.5000  1.46979e-07  5.22217e+06
       1036.6000  1.46979e-07  5.21923e+06
       1036.7000  1.46979e-07  5.21776e+06
       1036.8000  1.46979e-07  5.21482e+06
       1036.9000  1.46979e-07  5.21188e+06
       1037.0000  1.46979e-07  5.21041e+06
       1037.1000  1.46979e-07  5.20894e+06
       1037.2000  1.46979e-07  5.20600e+06
       1037.3000  1.46979e-07  5.20453e+06
       1037.4000  1.46979e-07  5.20306e+06
       1037.5000  1.67005e-07  5.91032e+06
       1037.6000  1.67005e-07  5.90865e+06
       1037.7000  1.67005e-07  5.90698e+06
       1037.8000  1.67005e-07  5.90531e+06
       1037.9000  1.67005e-07  5.90364e+06
       1038.0000  1.67005e-07  5.90197e+06
       1038.1000  1.67005e-07  5.90197e+06
       1038.2000  1.67005e-07  5.90197e+06
       1038.3000  1.67005e-07  5.90364e+06
       1038.4000  1.67005e-07  5.90364e+06
       1038.5000  2.04213e-07  7.21893e+06
       1038.6000  2.04213e-07  7.21893e+06
       1038.7000  2.04213e-07  7.21893e+06
       1038.8000  1.98900e-07  7.03110e+06
       1038.9000  1.98900e-07  7.03110e+06
       1039.0000  1.98900e-07  7.03110e+06
       1039.1000  1.98900e-07  7.03110e+06
       1039.2000  1.98900e-07  7.03110e+06
       1039.3000  1.98900e-07  7.03110e+06
       1039.4000  1.98900e-07  7.03110e+06
       1039.5000  1.57627e-07  5.57211e+06
       1039.6000  1.57627e-07  5.57211e+06
       1039.7000  1.57627e-07  5.57211e+06
       1039.8000  1.57627e-07  5.57211e+06
       1039.9000  1.57627e-07  5.57211e+06
       1040.0000  1.57627e-07  5.57211e+06
       1040.1000  1.57627e-07  5.57211e+06
       1040.2000  1.57627e-07  5.57211e+06
       1040.3000  1.57627e-07  5.57211e+06
       1040.4000  1.57627e-07  5.57211e+06
       1040.5000  1.41475e-07  5.00113e+06
       1040.6000  1.41475e-07  5.00113e+06
       1040.7000  1.41475e-07  5.00113e+06
       1040.8000  1.41475e-07  5.00113e+06
       1040.9000  1.41475e-07  5.00113e+06
       1041.0000  1.41475e-07  5.00113e+06
       1041.1000  1.41475e-07  5.00113e+06
       1041.2000  1.41475e-07  5.00113e+06
       1041.3000  1.37423e-07  4.85789e+06
       1041.4000  1.37423e-07  4.85789e+06
       1041.5000  1.20522e-07  4.26044e+06
       1041.6000  1.20522e-07  4.26044e+06
       1041.7000  1.20522e-07  4.26044e+06
       1041.8000  1.20522e-07  4.25924e+06
       1041.9000  1.20522e-07  4.25924e+06
       1042.0000  1.20522e-07  4.25924e+06
       1042.1000  1.20522e-07  4.26044e+06
       1042.2000  1.20522e-07  4.26044e+06
       1042.3000  1.20522e-07  4.26165e+06
       1042.4000  1.20522e-07  4.26165e+06
       1042.5000  7.84157e-08  2.77278e+06
       1042.6000  7.84157e-08  2.77278e+06
       1042.7000  7.84157e-08  2.77278e+06
       1042.8000  7.84157e-08  2.77199e+06
       1042.9000  7.84157e-08  2.77199e+06
       1043.0000  7.84157e-08  2.77199e+06
       1043.1000  7.84157e-08  2.77121e+06
       1043.2000  7.84157e-08  2.77043e+06
       1043.3000  7.84157e-08  2.77043e+06
       1043.4000  7.84157e-08  2.76964e+06
       1043.5000  1.50663e-07  5.31989e+06
       1043.6000  1.50663e-07  5.31839e+06
       1043.7000  1.50663e-07  5.31688e+06
       1043.8000  1.46353e-07  5.16186e+06
       1043.9000  1.46353e-07  5.16040e+06
       1044.0000  1.46353e-07  5.15747e+06
       1044.1000  1.46353e-07  5.15162e+06
       1044.2000  1.46353e-07  5.14430e+06
       1044.3000  1.46353e-07  5.13844e+06
       1044.4000  1.46353e-07  5.13259e+06
       1044.5000  1.11145e-07  3.89342e+06
       1044.6000  1.11145e-07  3.89009e+06
       1044.7000  1.11145e-07  3.88564e+06
       1044.8000  1.11145e-07  3.88231e+06
       1044.9000  1.11145e-07  3.87897e+06
       1045.0000  1.11145e-07  3.87564e+06
       1045.1000  1.11145e-07  3.87341e+06
       1045.2000  1.11145e-07  3.87008e+06
       1045.3000  1.11145e-07  3.86786e+06
       1045.4000  1.11145e-07  3.86563e+06
       1045.5000  8.67494e-08  3.01628e+06
       1045.6000  8.67494e-08  3.01454e+06
       1045.7000  8.67494e-08  3.01368e+06
       1045.8000  8.67494e-08  3.01281e+06
       1045.9000  8.67494e-08  3.01194e+06
       1046.0000  8.67494e-08  3.01107e+06
       1046.1000  8.67494e-08  3.01107e+06
       1046.2000  8.67494e-08  3.01021e+06
       1046.3000  8.42869e-08  2.92475e+06
       1046.4000  8.42869e-08  2.92475e+06
       1046.5000  7.49641e-08  2.60200e+06
       1046.6000  7.49641e-08  2.60200e+06
       1046.7000  7.49641e-08  2.60275e+06
       1046.8000  7.49641e-08  2.60350e+06
       1046.9000  7.49641e-08  2.60425e+06
       1047.0000  7.49641e-08  2.60575e+06
       1047.1000  7.49641e-08  2.60650e+06
       1047.2000  7.49641e-08  2.60800e+06
       1047.3000  7.49641e-08  2.60950e+06
       1047.4000  7.49641e-08  2.61100e+06
       1047.5000  7.23962e-08  2.52373e+06
       1047.6000  7.23962e-08  2.52518e+06
       1047.7000  7.23962e-08  2.52735e+06
       1047.8000  7.23962e-08  2.52952e+06
       1047.9000  7.23962e-08  2.53170e+06
       1048.0000  7.23962e-08  2.53459e+06
       1048.1000  7.23962e-08  2.53459e+06
       1048.2000  7.23962e-08  2.53459e+06
       1048.3000  7.23962e-08  2.53459e+06
       1048.4000  7.23962e-08  2.53387e+06
       1048.5000  8.95804e-08  3.13531e+06
       1048.6000  8.95804e-08  3.13531e+06
       1048.7000  8.95804e-08  3.13531e+06
       1048.8000  8.72376e-08  3.05332e+06
       1048.9000  8.72376e-08  3.05332e+06
       1049.0000  8.72376e-08  3.05244e+06
       1049.1000  8.72376e-08  3.05244e+06
       1049.2000  8.72376e-08  3.05244e+06
       1049.3000  8.72376e-08  3.05157e+06
       1049.4000  8.72376e-08  3.05157e+06
       1049.5000  8.11801e-08  2.83968e+06
       1049.6000  8.11801e-08  2.83887e+06
       1049.7000  8.11801e-08  2.83887e+06
       1049.8000  8.11801e-08  2.83887e+06
       1049.9000  8.11801e-08  2.83806e+06
       1050.0000  8.11801e-08  2.83806e+06
       1050.1000  8.11801e-08  2.83725e+06
       1050.2000  8.11801e-08  2.83725e+06
       1050.3000  8.11801e-08  2.83643e+06
       1050.4000  8.11801e-08  2.83562e+06
       1050.5000  4.72087e-08  1.64900e+06
       1050.6000  4.72087e-08  1.64853e+06
       1050.7000  4.72087e-08  1.64853e+06
       1050.8000  4.72087e-08  1.64806e+06
       1050.9000  4.72087e-08  1.64758e+06
       1051.0000  4.72087e-08  1.64758e+06
       1051.1000  4.72087e-08  1.64711e+06
       1051.2000  4.72087e-08  1.64711e+06
       1051.3000  4.61523e-08  1.60979e+06
       1051.4000  4.61523e-08  1.60933e+06
       1051.5000  4.22245e-08  1.47237e+06
       1051.6000  4.22245e-08  1.47195e+06
       1051.7000  4.22245e-08  1.47152e+06
       1051.8000  4.22245e-08  1.47152e+06
       1051.9000  4.22245e-08  1.47110e+06
       1052.0000  4.22245e-08  1.47110e+06
       1052.1000  4.22245e-08  1.47068e+06
       1052.2000  4.22245e-08  1.47026e+06
       1052.3000  4.22245e-08  1.47026e+06
       1052.4000  4.22245e-08  1.46983e+06
       1052.5000  3.93994e-08  1.37110e+06
       1052.6000  3.93994e-08  1.37110e+06
       1052.7000  3.93994e-08  1.37070e+06
       1052.8000  3.93994e-08  1.37031e+06
       1052.9000  3.93994e-08  1.37031e+06
       1053.0000  3.93994e-08  1.36992e+06
       1053.1000  3.93994e-08  1.36992e+06
       1053.2000  3.93994e-08  1.36952e+06
       1053.3000  3.93994e-08  1.36913e+06
       1053.4000  3.93994e-08  1.36913e+06
       1053.5000  3.57472e-08  1.24186e+06
       1053.6000  3.57472e-08  1.24150e+06
       1053.7000  3.57472e-08  1.24150e+06
       1053.8000  3.50794e-08  1.21796e+06
       1053.9000  3.50794e-08  1.21761e+06
       1054.0000  3.50794e-08  1.21761e+06
       1054.1000  3.50794e-08  1.21831e+06
       1054.2000  3.50794e-08  1.21866e+06
       1054.3000  3.50794e-08  1.21936e+06
       1054.4000  3.50794e-08  1.22006e+06
       1054.5000  2.09498e-08      728845.
       1054.6000  2.09498e-08      729055.
       1054.7000  2.09498e-08      729264.
       1054.8000  2.09498e-08      729474.
       1054.9000  2.09498e-08      729683.
       1055.0000  2.09498e-08      729893.
       1055.1000  2.09498e-08      729893.
       1055.2000  2.09498e-08      729893.
       1055.3000  2.09498e-08      730102.
       1055.4000  2.09498e-08      730102.
       1055.5000  2.28134e-08      794818.
       1055.6000  2.28134e-08      794818.
       1055.7000  2.28134e-08      794818.
       1055.8000  2.28134e-08      794590.
       1055.9000  2.28134e-08      794362.
       1056.0000  2.28134e-08      794134.
       1056.1000  2.28134e-08      793449.
       1056.2000  2.28134e-08      792765.
       1056.3000  2.23973e-08      777635.
       1056.4000  2.23973e-08      776739.
       1056.5000  9.85074e-09      341328.
       1056.6000  9.85074e-09      341131.
       1056.7000  9.85074e-09      340836.
       1056.8000  9.85074e-09      340540.
       1056.9000  9.85074e-09      340245.
       1057.0000  9.85074e-09      340048.
