PDS_VERSION_ID         = PDS3
RECORD_TYPE            = STREAM
OBJECT                 = TEXT
  PUBLICATION_DATE     = 2014-04-25
  INTERCHANGE_FORMAT   = ASCII
  NOTE                 = "System transmission vs. wavelength."
END_OBJECT             = TEXT
END
    
The systrans directory contains the non-wavelength-integrated system 
transmission values (QE*optics*filter1*filter2) for each filter combination. 
The naming convention for these files is as follows:

<camera><filter 1><filter 2>_systrans.tab

where <camera> is "issna" or "isswa," and <filter 1> and <filter 2> represent
the filter names. For polarized filter combinations, values are given for the
parallel orientation of the filter (full transmission), with values for the 
perpendicular (blocking) orientation provided in files with subscript 
"_b_systrans.tab". 

Columns in systrans files are as follows:

 1st column: Wavelength (nm)  
 2nd column: Transmitted Flux
 3rd column: Transmitted Flux * Solar Flux (phot per cm^2-s-angstrom at 1 AU)

The solar spectrum used for this calculation is provided in solarflux.tab.

\begindata
       659.00000  1.95171e-08  1.00162e+06
       659.10000  1.95171e-08  1.00474e+06
       659.20000  1.95171e-08  1.00767e+06
       659.30000  1.95171e-08  1.01020e+06
       659.40000  1.95171e-08  1.01255e+06
       659.50000  2.41171e-08  1.25385e+06
       659.60000  2.41171e-08  1.25626e+06
       659.70000  2.41171e-08  1.25819e+06
       659.80000  2.41171e-08  1.26012e+06
       659.90000  2.41171e-08  1.26157e+06
       660.00000  2.41171e-08  1.26277e+06
       660.10000  2.41171e-08  1.26374e+06
       660.20000  2.41171e-08  1.26422e+06
       660.30000  2.41171e-08  1.26470e+06
       660.40000  2.41171e-08  1.26470e+06
       660.50000  2.46732e-08  1.29362e+06
       660.60000  2.46732e-08  1.29312e+06
       660.70000  2.46732e-08  1.29238e+06
       660.80000  2.46732e-08  1.29115e+06
       660.90000  2.46732e-08  1.28992e+06
       661.00000  2.46732e-08  1.28819e+06
       661.10000  2.46732e-08  1.28745e+06
       661.20000  2.46732e-08  1.28646e+06
       661.30000  2.44926e-08  1.27631e+06
       661.40000  2.44926e-08  1.27557e+06
       661.50000  2.34317e-08  1.21962e+06
       661.60000  2.34317e-08  1.21915e+06
       661.70000  2.34317e-08  1.21845e+06
       661.80000  2.34317e-08  1.21798e+06
       661.90000  2.34317e-08  1.21751e+06
       662.00000  2.34317e-08  1.21704e+06
       662.10000  2.34317e-08  1.21657e+06
       662.20000  2.34317e-08  1.21611e+06
       662.30000  2.34317e-08  1.21587e+06
       662.40000  2.34317e-08  1.21564e+06
       662.50000  3.95901e-08  2.05314e+06
       662.60000  3.95901e-08  2.05314e+06
       662.70000  3.95901e-08  2.05275e+06
       662.80000  3.95901e-08  2.05235e+06
       662.90000  3.95901e-08  2.05235e+06
       663.00000  3.95901e-08  2.05235e+06
       663.10000  3.95901e-08  2.05394e+06
       663.20000  3.95901e-08  2.05512e+06
       663.30000  3.95901e-08  2.05671e+06
       663.40000  3.95901e-08  2.05789e+06
       663.50000  6.30970e-08  3.28168e+06
       663.60000  6.30970e-08  3.28357e+06
       663.70000  6.30970e-08  3.28483e+06
       663.80000  6.25782e-08  3.25970e+06
       663.90000  6.25782e-08  3.26095e+06
       664.00000  6.25782e-08  3.26157e+06
       664.10000  6.25782e-08  3.26283e+06
       664.20000  6.25782e-08  3.26345e+06
       664.30000  6.25782e-08  3.26408e+06
       664.40000  6.25782e-08  3.26470e+06
       664.50000  3.23419e-08  1.68728e+06
       664.60000  3.23419e-08  1.68728e+06
       664.70000  3.23419e-08  1.68728e+06
       664.80000  3.23419e-08  1.68728e+06
       664.90000  3.23419e-08  1.68728e+06
       665.00000  3.23419e-08  1.68695e+06
       665.10000  3.23419e-08  1.68663e+06
       665.20000  3.23419e-08  1.68631e+06
       665.30000  3.23419e-08  1.68566e+06
       665.40000  3.23419e-08  1.68501e+06
       665.50000  1.86956e-08      973666.
       665.60000  1.86956e-08      973292.
       665.70000  1.86956e-08      972731.
       665.80000  1.86956e-08      972357.
       665.90000  1.86956e-08      971797.
       666.00000  1.86956e-08      971049.
       666.10000  1.86956e-08      970488.
       666.20000  1.86956e-08      969740.
       666.30000  1.85747e-08      962729.
       666.40000  1.85747e-08      961986.
       666.50000  8.16054e-08  4.22226e+06
       666.60000  8.16054e-08  4.21818e+06
       666.70000  8.16054e-08  4.21410e+06
       666.80000  8.16054e-08  4.21002e+06
       666.90000  8.16054e-08  4.20594e+06
       667.00000  8.16054e-08  4.20104e+06
       667.10000  8.16054e-08  4.20594e+06
       667.20000  8.16054e-08  4.21002e+06
       667.30000  8.16054e-08  4.21410e+06
       667.40000  8.16054e-08  4.21818e+06
       667.50000  1.78526e-07  9.23694e+06
       667.60000  1.78526e-07  9.24408e+06
       667.70000  1.78526e-07  9.25122e+06
       667.80000  1.78526e-07  9.25657e+06
       667.90000  1.78526e-07  9.26193e+06
       668.00000  1.78526e-07  9.26728e+06
       668.10000  1.78526e-07  9.27264e+06
       668.20000  1.78526e-07  9.27621e+06
       668.30000  1.78526e-07  9.27978e+06
       668.40000  1.78526e-07  9.28157e+06
       668.50000  1.42444e-07  7.40710e+06
       668.60000  1.42444e-07  7.40852e+06
       668.70000  1.42444e-07  7.40852e+06
       668.80000  1.41627e-07  7.36602e+06
       668.90000  1.41627e-07  7.36602e+06
       669.00000  1.41627e-07  7.36460e+06
       669.10000  1.41627e-07  7.35469e+06
       669.20000  1.41627e-07  7.34477e+06
       669.30000  1.41627e-07  7.33627e+06
       669.40000  1.41627e-07  7.32778e+06
       669.50000  1.89779e-07  9.80777e+06
       669.60000  1.89779e-07  9.79639e+06
       669.70000  1.89779e-07  9.78690e+06
       669.80000  1.89779e-07  9.77741e+06
       669.90000  1.89779e-07  9.76792e+06
       670.00000  1.89779e-07  9.76033e+06
       670.10000  1.89779e-07  9.75274e+06
       670.20000  1.89779e-07  9.74515e+06
       670.30000  1.89779e-07  9.73756e+06
       670.40000  1.89779e-07  9.73186e+06
       670.50000  1.69848e-07  8.70473e+06
       670.60000  1.69848e-07  8.69964e+06
       670.70000  1.69848e-07  8.69624e+06
       670.80000  1.69848e-07  8.69284e+06
       670.90000  1.69848e-07  8.68945e+06
       671.00000  1.69848e-07  8.68775e+06
       671.10000  1.69848e-07  8.68435e+06
       671.20000  1.69848e-07  8.68435e+06
       671.30000  1.68886e-07  8.63346e+06
       671.40000  1.68886e-07  8.63346e+06
       671.50000  2.28480e-07  1.16799e+07
       671.60000  2.28480e-07  1.16799e+07
       671.70000  2.28480e-07  1.16799e+07
       671.80000  2.28480e-07  1.16822e+07
       671.90000  2.28480e-07  1.16845e+07
       672.00000  2.28480e-07  1.16890e+07
       672.10000  2.28480e-07  1.16936e+07
       672.20000  2.28480e-07  1.16982e+07
       672.30000  2.28480e-07  1.17027e+07
       672.40000  2.28480e-07  1.17096e+07
       672.50000  3.11534e-07  1.59755e+07
       672.60000  3.11534e-07  1.59848e+07
       672.70000  3.11534e-07  1.59942e+07
       672.80000  3.11534e-07  1.60066e+07
       672.90000  3.11534e-07  1.60191e+07
       673.00000  3.11534e-07  1.60347e+07
       673.10000  3.11534e-07  1.60284e+07
       673.20000  3.11534e-07  1.60222e+07
       673.30000  3.11534e-07  1.60160e+07
       673.40000  3.11534e-07  1.60128e+07
       673.50000  8.51418e-07  4.37459e+07
       673.60000  8.51418e-07  4.37373e+07
       673.70000  8.51418e-07  4.37288e+07
       673.80000  8.46121e-07  4.34399e+07
       673.90000  8.46121e-07  4.34314e+07
       674.00000  8.46121e-07  4.34229e+07
       674.10000  8.46121e-07  4.34145e+07
       674.20000  8.46121e-07  4.34060e+07
       674.30000  8.46121e-07  4.33976e+07
       674.40000  8.46121e-07  4.33891e+07
       674.50000  8.65473e-07  4.43728e+07
       674.60000  8.65473e-07  4.43728e+07
       674.70000  8.65473e-07  4.43641e+07
       674.80000  8.65473e-07  4.43641e+07
       674.90000  8.65473e-07  4.43555e+07
       675.00000  8.65473e-07  4.43555e+07
       675.10000  8.65473e-07  4.43641e+07
       675.20000  8.65473e-07  4.43728e+07
       675.30000  8.65473e-07  4.43815e+07
       675.40000  8.65473e-07  4.43901e+07
       675.50000  1.96642e-07  1.00857e+07
       675.60000  1.96642e-07  1.00877e+07
       675.70000  1.96642e-07  1.00897e+07
       675.80000  1.96642e-07  1.00897e+07
       675.90000  1.96642e-07  1.00916e+07
       676.00000  1.96642e-07  1.00916e+07
       676.10000  1.96642e-07  1.00936e+07
       676.20000  1.96642e-07  1.00936e+07
       676.30000  1.95155e-07  1.00173e+07
       676.40000  1.95155e-07  1.00173e+07
       676.50000  1.56099e-06  8.01411e+07
       676.60000  1.56099e-06  8.01411e+07
       676.70000  1.56099e-06  8.01411e+07
       676.80000  1.56099e-06  8.01255e+07
       676.90000  1.56099e-06  8.01255e+07
       677.00000  1.56099e-06  8.01255e+07
       677.10000  1.56099e-06  8.01255e+07
       677.20000  1.56099e-06  8.01099e+07
       677.30000  1.56099e-06  8.01099e+07
       677.40000  1.56099e-06  8.00943e+07
       677.50000  2.07514e-06  1.06475e+08
       677.60000  2.07514e-06  1.06455e+08
       677.70000  2.07514e-06  1.06455e+08
       677.80000  2.07514e-06  1.06434e+08
       677.90000  2.07514e-06  1.06413e+08
       678.00000  2.07514e-06  1.06392e+08
       678.10000  2.07514e-06  1.06372e+08
       678.20000  2.07514e-06  1.06351e+08
       678.30000  2.07514e-06  1.06330e+08
       678.40000  2.07514e-06  1.06309e+08
       678.50000  8.96322e-07  4.59006e+07
       678.60000  8.96322e-07  4.58917e+07
       678.70000  8.96322e-07  4.58827e+07
       678.80000  8.89566e-07  4.55191e+07
       678.90000  8.89566e-07  4.55102e+07
       679.00000  8.89566e-07  4.54924e+07
       679.10000  8.89566e-07  4.54924e+07
       679.20000  8.89566e-07  4.55013e+07
       679.30000  8.89566e-07  4.55013e+07
       679.40000  8.89566e-07  4.55013e+07
       679.50000  2.23723e-06  1.14434e+08
       679.60000  2.23723e-06  1.14434e+08
       679.70000  2.23723e-06  1.14434e+08
       679.80000  2.23723e-06  1.14434e+08
       679.90000  2.23723e-06  1.14434e+08
       680.00000  2.23723e-06  1.14412e+08
       680.10000  2.23723e-06  1.14412e+08
       680.20000  2.23723e-06  1.14412e+08
       680.30000  2.23723e-06  1.14389e+08
       680.40000  2.23723e-06  1.14389e+08
       680.50000  4.09286e-06  2.09227e+08
       680.60000  4.09286e-06  2.09227e+08
       680.70000  4.09286e-06  2.09186e+08
       680.80000  4.09286e-06  2.09145e+08
       680.90000  4.09286e-06  2.09104e+08
       681.00000  4.09286e-06  2.09104e+08
       681.10000  4.09286e-06  2.09063e+08
       681.20000  4.09286e-06  2.09022e+08
       681.30000  4.05830e-06  2.07258e+08
       681.40000  4.05830e-06  2.07217e+08
       681.50000  6.34460e-06  3.23892e+08
       681.60000  6.34460e-06  3.23829e+08
       681.70000  6.34460e-06  3.23765e+08
       681.80000  6.34460e-06  3.23638e+08
       681.90000  6.34460e-06  3.23575e+08
       682.00000  6.34460e-06  3.23511e+08
       682.10000  6.34460e-06  3.23384e+08
       682.20000  6.34460e-06  3.23258e+08
       682.30000  6.34460e-06  3.23194e+08
       682.40000  6.34460e-06  3.23067e+08
       682.50000  8.43836e-07  4.29512e+07
       682.60000  8.43836e-07  4.29344e+07
       682.70000  8.43836e-07  4.29175e+07
       682.80000  8.43836e-07  4.29006e+07
       682.90000  8.43836e-07  4.28753e+07
       683.00000  8.43836e-07  4.28584e+07
       683.10000  8.43836e-07  4.28415e+07
       683.20000  8.43836e-07  4.28162e+07
       683.30000  8.43836e-07  4.27909e+07
       683.40000  8.43836e-07  4.27656e+07
       683.50000  5.79269e-06  2.93458e+08
       683.60000  5.79269e-06  2.93284e+08
       683.70000  5.79269e-06  2.93110e+08
       683.80000  5.73769e-06  2.90098e+08
       683.90000  5.73769e-06  2.89925e+08
       684.00000  5.73769e-06  2.89753e+08
       684.10000  5.73769e-06  2.89524e+08
       684.20000  5.73769e-06  2.89352e+08
       684.30000  5.73769e-06  2.89122e+08
       684.40000  5.73769e-06  2.88950e+08
       684.50000  8.05839e-06  4.05498e+08
       684.60000  8.05839e-06  4.05176e+08
       684.70000  8.05839e-06  4.04853e+08
       684.80000  8.05839e-06  4.04531e+08
       684.90000  8.05839e-06  4.04128e+08
       685.00000  8.05839e-06  4.03806e+08
       685.10000  8.05839e-06  4.04128e+08
       685.20000  8.05839e-06  4.04531e+08
       685.30000  8.05839e-06  4.04853e+08
       685.40000  8.05839e-06  4.05095e+08
       685.50000  8.29221e-06  4.17181e+08
       685.60000  8.29221e-06  4.17513e+08
       685.70000  8.29221e-06  4.17762e+08
       685.80000  8.29221e-06  4.18010e+08
       685.90000  8.29221e-06  4.18259e+08
       686.00000  8.29221e-06  4.18508e+08
       686.10000  8.29221e-06  4.18757e+08
       686.20000  8.29221e-06  4.18923e+08
       686.30000  8.21390e-06  4.15213e+08
       686.40000  8.21390e-06  4.15377e+08
       686.50000  1.45825e-05  7.37728e+08
       686.60000  1.45825e-05  7.38019e+08
       686.70000  1.45825e-05  7.38311e+08
       686.80000  1.45825e-05  7.38457e+08
       686.90000  1.45825e-05  7.38748e+08
       687.00000  1.45825e-05  7.38894e+08
       687.10000  1.45825e-05  7.39040e+08
       687.20000  1.45825e-05  7.39040e+08
       687.30000  1.45825e-05  7.39040e+08
       687.40000  1.45825e-05  7.39040e+08
       687.50000  6.29283e-06  3.18921e+08
       687.60000  6.29283e-06  3.18921e+08
       687.70000  6.29283e-06  3.18921e+08
       687.80000  6.29283e-06  3.18921e+08
       687.90000  6.29283e-06  3.18921e+08
       688.00000  6.29283e-06  3.18858e+08
       688.10000  6.29283e-06  3.18858e+08
       688.20000  6.29283e-06  3.18858e+08
       688.30000  6.29283e-06  3.18795e+08
       688.40000  6.29283e-06  3.18795e+08
       688.50000  1.49780e-06  7.58634e+07
       688.60000  1.49780e-06  7.58484e+07
       688.70000  1.49780e-06  7.58484e+07
       688.80000  1.48550e-06  7.52108e+07
       688.90000  1.48550e-06  7.51960e+07
       689.00000  1.48550e-06  7.51811e+07
       689.10000  1.48550e-06  7.51663e+07
       689.20000  1.48550e-06  7.51514e+07
       689.30000  1.48550e-06  7.51366e+07
       689.40000  1.48550e-06  7.51217e+07
       689.50000  6.27854e-06  3.17443e+08
       689.60000  6.27854e-06  3.17380e+08
       689.70000  6.27854e-06  3.17254e+08
       689.80000  6.27854e-06  3.17192e+08
       689.90000  6.27854e-06  3.17129e+08
       690.00000  6.27854e-06  3.17003e+08
       690.10000  6.27854e-06  3.16878e+08
       690.20000  6.27854e-06  3.16815e+08
       690.30000  6.27854e-06  3.16689e+08
       690.40000  6.27854e-06  3.16564e+08
       690.50000  6.28684e-06  3.16920e+08
       690.60000  6.28684e-06  3.16794e+08
       690.70000  6.28684e-06  3.16668e+08
       690.80000  6.28684e-06  3.16542e+08
       690.90000  6.28684e-06  3.16417e+08
       691.00000  6.28684e-06  3.16291e+08
       691.10000  6.28684e-06  3.16417e+08
       691.20000  6.28684e-06  3.16480e+08
       691.30000  6.23922e-06  3.14207e+08
       691.40000  6.23922e-06  3.14270e+08
       691.50000  6.23153e-06  3.13944e+08
       691.60000  6.23153e-06  3.14069e+08
       691.70000  6.23153e-06  3.14131e+08
       691.80000  6.23153e-06  3.14194e+08
       691.90000  6.23153e-06  3.14256e+08
       692.00000  6.23153e-06  3.14256e+08
       692.10000  6.23153e-06  3.14318e+08
       692.20000  6.23153e-06  3.14381e+08
       692.30000  6.23153e-06  3.14381e+08
       692.40000  6.23153e-06  3.14381e+08
       692.50000  6.20114e-06  3.12909e+08
       692.60000  6.20114e-06  3.12909e+08
       692.70000  6.20114e-06  3.12909e+08
       692.80000  6.20114e-06  3.12909e+08
       692.90000  6.20114e-06  3.12909e+08
       693.00000  6.20114e-06  3.12847e+08
       693.10000  6.20114e-06  3.12847e+08
       693.20000  6.20114e-06  3.12785e+08
       693.30000  6.20114e-06  3.12723e+08
       693.40000  6.20114e-06  3.12661e+08
       693.50000  8.19087e-06  4.12902e+08
       693.60000  8.19087e-06  4.12820e+08
       693.70000  8.19087e-06  4.12738e+08
       693.80000  8.13438e-06  4.09810e+08
       693.90000  8.13438e-06  4.09647e+08
       694.00000  8.13438e-06  4.09566e+08
       694.10000  8.13438e-06  4.09485e+08
       694.20000  8.13438e-06  4.09322e+08
       694.30000  8.13438e-06  4.09241e+08
       694.40000  8.13438e-06  4.09078e+08
       694.50000  6.02302e-06  3.02777e+08
       694.60000  6.02302e-06  3.02717e+08
       694.70000  6.02302e-06  3.02596e+08
       694.80000  6.02302e-06  3.02476e+08
       694.90000  6.02302e-06  3.02356e+08
       695.00000  6.02302e-06  3.02235e+08
       695.10000  6.02302e-06  3.02115e+08
       695.20000  6.02302e-06  3.01994e+08
       695.30000  6.02302e-06  3.01813e+08
       695.40000  6.02302e-06  3.01693e+08
       695.50000  3.95325e-06  1.97939e+08
       695.60000  3.95325e-06  1.97821e+08
       695.70000  3.95325e-06  1.97742e+08
       695.80000  3.95325e-06  1.97623e+08
       695.90000  3.95325e-06  1.97504e+08
       696.00000  3.95325e-06  1.97425e+08
       696.10000  3.95325e-06  1.97307e+08
       696.20000  3.95325e-06  1.97188e+08
       696.30000  3.93012e-06  1.95916e+08
       696.40000  3.93012e-06  1.95799e+08
       696.50000  1.93501e-06  9.63440e+07
       696.60000  1.93501e-06  9.62860e+07
       696.70000  1.93501e-06  9.62086e+07
       696.80000  1.93501e-06  9.61505e+07
       696.90000  1.93501e-06  9.60925e+07
       697.00000  1.93501e-06  9.60151e+07
       697.10000  1.93501e-06  9.61505e+07
       697.20000  1.93501e-06  9.62473e+07
       697.30000  1.93501e-06  9.63634e+07
       697.40000  1.93501e-06  9.64601e+07
       697.50000  9.54868e-06  4.76479e+08
       697.60000  9.54868e-06  4.76861e+08
       697.70000  9.54868e-06  4.77243e+08
       697.80000  9.54868e-06  4.77530e+08
       697.90000  9.54868e-06  4.77816e+08
       698.00000  9.54868e-06  4.78007e+08
       698.10000  9.54868e-06  4.78198e+08
       698.20000  9.54868e-06  4.78389e+08
       698.30000  9.54868e-06  4.78484e+08
       698.40000  9.54868e-06  4.78580e+08
       698.50000  5.68614e-06  2.85046e+08
       698.60000  5.68614e-06  2.85046e+08
       698.70000  5.68614e-06  2.84989e+08
       698.80000  5.65128e-06  2.83186e+08
       698.90000  5.65128e-06  2.83129e+08
       699.00000  5.65128e-06  2.83016e+08
       699.10000  5.65128e-06  2.82508e+08
       699.20000  5.65128e-06  2.81942e+08
       699.30000  5.65128e-06  2.81490e+08
       699.40000  5.65128e-06  2.80982e+08
       699.50000  1.87881e-06  9.32639e+07
       699.60000  1.87881e-06  9.31136e+07
       699.70000  1.87881e-06  9.29821e+07
       699.80000  1.87881e-06  9.28506e+07
       699.90000  1.87881e-06  9.27191e+07
       700.00000  1.87881e-06  9.26064e+07
       700.10000  1.87881e-06  9.24936e+07
       700.20000  1.87881e-06  9.23809e+07
       700.30000  1.87881e-06  9.22870e+07
       700.40000  1.87881e-06  9.21930e+07
       700.50000  9.42854e-06  4.62187e+08
       700.60000  9.42854e-06  4.61810e+08
       700.70000  9.42854e-06  4.61433e+08
       700.80000  9.42854e-06  4.61150e+08
       700.90000  9.42854e-06  4.60867e+08
       701.00000  9.42854e-06  4.60584e+08
       701.10000  9.42854e-06  4.60490e+08
       701.20000  9.42854e-06  4.60395e+08
       701.30000  9.35868e-06  4.56891e+08
       701.40000  9.35868e-06  4.56891e+08
       701.50000  7.55952e-06  3.69056e+08
       701.60000  7.55952e-06  3.69056e+08
       701.70000  7.55952e-06  3.69056e+08
       701.80000  7.55952e-06  3.69131e+08
       701.90000  7.55952e-06  3.69131e+08
       702.00000  7.55952e-06  3.69207e+08
       702.10000  7.55952e-06  3.69358e+08
       702.20000  7.55952e-06  3.69434e+08
       702.30000  7.55952e-06  3.69585e+08
       702.40000  7.55952e-06  3.69660e+08
       702.50000  1.86318e-06  9.11466e+07
       702.60000  1.86318e-06  9.12025e+07
       702.70000  1.86318e-06  9.12398e+07
       702.80000  1.86318e-06  9.12957e+07
       702.90000  1.86318e-06  9.13516e+07
       703.00000  1.86318e-06  9.14075e+07
       703.10000  1.86318e-06  9.15752e+07
       703.20000  1.86318e-06  9.17428e+07
       703.30000  1.86318e-06  9.18919e+07
       703.40000  1.86318e-06  9.20410e+07
       703.50000  7.77807e-06  3.84781e+08
       703.60000  7.77807e-06  3.85403e+08
       703.70000  7.77807e-06  3.85870e+08
       703.80000  7.70587e-06  3.82828e+08
       703.90000  7.70587e-06  3.83290e+08
       704.00000  7.70587e-06  3.83675e+08
       704.10000  7.70587e-06  3.84138e+08
       704.20000  7.70587e-06  3.84523e+08
       704.30000  7.70587e-06  3.84831e+08
       704.40000  7.70587e-06  3.85140e+08
       704.50000  3.91124e-06  1.95640e+08
       704.60000  3.91124e-06  1.95797e+08
       704.70000  3.91124e-06  1.95914e+08
       704.80000  3.91124e-06  1.95992e+08
       704.90000  3.91124e-06  1.96110e+08
       705.00000  3.91124e-06  1.96188e+08
       705.10000  3.91124e-06  1.96227e+08
       705.20000  3.91124e-06  1.96266e+08
       705.30000  3.91124e-06  1.96305e+08
       705.40000  3.91124e-06  1.96344e+08
       705.50000  3.96415e-06  1.99000e+08
       705.60000  3.96415e-06  1.99000e+08
       705.70000  3.96415e-06  1.98961e+08
       705.80000  3.96415e-06  1.98921e+08
       705.90000  3.96415e-06  1.98881e+08
       706.00000  3.96415e-06  1.98802e+08
       706.10000  3.96415e-06  1.98723e+08
       706.20000  3.96415e-06  1.98604e+08
       706.30000  3.92504e-06  1.96527e+08
       706.40000  3.92504e-06  1.96409e+08
       706.50000  3.96428e-06  1.98214e+08
       706.60000  3.96428e-06  1.98056e+08
       706.70000  3.96428e-06  1.97897e+08
       706.80000  3.96428e-06  1.97699e+08
       706.90000  3.96428e-06  1.97501e+08
       707.00000  3.96428e-06  1.97302e+08
       707.10000  3.96428e-06  1.97144e+08
       707.20000  3.96428e-06  1.97025e+08
       707.30000  3.96428e-06  1.96866e+08
       707.40000  3.96428e-06  1.96747e+08
       707.50000  3.98889e-06  1.97849e+08
       707.60000  3.98889e-06  1.97729e+08
       707.70000  3.98889e-06  1.97649e+08
       707.80000  3.98889e-06  1.97530e+08
       707.90000  3.98889e-06  1.97450e+08
       708.00000  3.98889e-06  1.97370e+08
       708.10000  3.98889e-06  1.97290e+08
       708.20000  3.98889e-06  1.97211e+08
       708.30000  3.98889e-06  1.97131e+08
       708.40000  3.98889e-06  1.97051e+08
       708.50000  6.00052e-06  2.96366e+08
       708.60000  6.00052e-06  2.96246e+08
       708.70000  6.00052e-06  2.96186e+08
       708.80000  5.93178e-06  2.92733e+08
       708.90000  5.93178e-06  2.92674e+08
       709.00000  5.93178e-06  2.92674e+08
       709.10000  5.93178e-06  2.92793e+08
       709.20000  5.93178e-06  2.92911e+08
       709.30000  5.93178e-06  2.92971e+08
       709.40000  5.93178e-06  2.93089e+08
       709.50000  7.91197e-06  3.91010e+08
       709.60000  7.91197e-06  3.91168e+08
       709.70000  7.91197e-06  3.91247e+08
       709.80000  7.91197e-06  3.91326e+08
       709.90000  7.91197e-06  3.91405e+08
       710.00000  7.91197e-06  3.91484e+08
       710.10000  7.91197e-06  3.91563e+08
       710.20000  7.91197e-06  3.91643e+08
       710.30000  7.91197e-06  3.91643e+08
       710.40000  7.91197e-06  3.91722e+08
       710.50000  5.92512e-06  2.93353e+08
       710.60000  5.92512e-06  2.93353e+08
       710.70000  5.92512e-06  2.93353e+08
       710.80000  5.92512e-06  2.93353e+08
       710.90000  5.92512e-06  2.93353e+08
       711.00000  5.92512e-06  2.93353e+08
       711.10000  5.92512e-06  2.93353e+08
       711.20000  5.92512e-06  2.93293e+08
       711.30000  5.83856e-06  2.89009e+08
       711.40000  5.83856e-06  2.88950e+08
       711.50000  7.78036e-06  3.84972e+08
       711.60000  7.78036e-06  3.84895e+08
       711.70000  7.78036e-06  3.84817e+08
       711.80000  7.78036e-06  3.84739e+08
       711.90000  7.78036e-06  3.84661e+08
       712.00000  7.78036e-06  3.84506e+08
       712.10000  7.78036e-06  3.84428e+08
       712.20000  7.78036e-06  3.84272e+08
       712.30000  7.78036e-06  3.84194e+08
       712.40000  7.78036e-06  3.84039e+08
       712.50000  3.88623e-06  1.91746e+08
       712.60000  3.88623e-06  1.91669e+08
       712.70000  3.88623e-06  1.91552e+08
       712.80000  3.88623e-06  1.91474e+08
       712.90000  3.88623e-06  1.91397e+08
       713.00000  3.88623e-06  1.91280e+08
       713.10000  3.88623e-06  1.91280e+08
       713.20000  3.88623e-06  1.91280e+08
       713.30000  3.88623e-06  1.91280e+08
       713.40000  3.88623e-06  1.91241e+08
       713.50000  7.76837e-06  3.82281e+08
       713.60000  7.76837e-06  3.82281e+08
       713.70000  7.76837e-06  3.82204e+08
       713.80000  7.66248e-06  3.76994e+08
       713.90000  7.66248e-06  3.76917e+08
       714.00000  7.66248e-06  3.76917e+08
       714.10000  7.66248e-06  3.76841e+08
       714.20000  7.66248e-06  3.76764e+08
       714.30000  7.66248e-06  3.76764e+08
       714.40000  7.66248e-06  3.76688e+08
       714.50000  1.35592e-06  6.66436e+07
       714.60000  1.35592e-06  6.66301e+07
       714.70000  1.35592e-06  6.66301e+07
       714.80000  1.35592e-06  6.66165e+07
       714.90000  1.35592e-06  6.66030e+07
       715.00000  1.35592e-06  6.65894e+07
       715.10000  1.35592e-06  6.65758e+07
       715.20000  1.35592e-06  6.65758e+07
       715.30000  1.35592e-06  6.65758e+07
       715.40000  1.35592e-06  6.65623e+07
       715.50000  2.71617e-07  1.33310e+07
       715.60000  2.71617e-07  1.33283e+07
       715.70000  2.71617e-07  1.33256e+07
       715.80000  2.71617e-07  1.33228e+07
       715.90000  2.71617e-07  1.33201e+07
       716.00000  2.71617e-07  1.33147e+07
       716.10000  2.71617e-07  1.33120e+07
       716.20000  2.71617e-07  1.33065e+07
       716.30000  2.67988e-07  1.31234e+07
       716.40000  2.67988e-07  1.31180e+07
       716.50000  3.76631e-06  1.84286e+08
       716.60000  3.76631e-06  1.84210e+08
       716.70000  3.76631e-06  1.84135e+08
       716.80000  3.76631e-06  1.84022e+08
       716.90000  3.76631e-06  1.83947e+08
       717.00000  3.76631e-06  1.83834e+08
       717.10000  3.76631e-06  1.83721e+08
       717.20000  3.76631e-06  1.83608e+08
       717.30000  3.76631e-06  1.83495e+08
       717.40000  3.76631e-06  1.83382e+08
       717.50000  9.37697e-06  4.56283e+08
       717.60000  9.37697e-06  4.55908e+08
       717.70000  9.37697e-06  4.55627e+08
       717.80000  9.37697e-06  4.55252e+08
       717.90000  9.37697e-06  4.54877e+08
       718.00000  9.37697e-06  4.54502e+08
       718.10000  9.37697e-06  4.54127e+08
       718.20000  9.37697e-06  4.53752e+08
       718.30000  9.37697e-06  4.53376e+08
       718.40000  9.37697e-06  4.52908e+08
       718.50000  1.81549e-06  8.76156e+07
       718.60000  1.81549e-06  8.75248e+07
       718.70000  1.81549e-06  8.74341e+07
       718.80000  1.79369e-06  8.62944e+07
       718.90000  1.79369e-06  8.62047e+07
       719.00000  1.79369e-06  8.61150e+07
       719.10000  1.79369e-06  8.61150e+07
       719.20000  1.79369e-06  8.61150e+07
       719.30000  1.79369e-06  8.61150e+07
       719.40000  1.79369e-06  8.61330e+07
       719.50000  5.47562e-06  2.62939e+08
       719.60000  5.47562e-06  2.62994e+08
       719.70000  5.47562e-06  2.62994e+08
       719.80000  5.47562e-06  2.63049e+08
       719.90000  5.47562e-06  2.63104e+08
       720.00000  5.47562e-06  2.63213e+08
       720.10000  5.47562e-06  2.63268e+08
       720.20000  5.47562e-06  2.63323e+08
       720.30000  5.47562e-06  2.63432e+08
       720.40000  5.47562e-06  2.63487e+08
       720.50000  5.41814e-06  2.60829e+08
       720.60000  5.41814e-06  2.60938e+08
       720.70000  5.41814e-06  2.61046e+08
       720.80000  5.41814e-06  2.61155e+08
       720.90000  5.41814e-06  2.61317e+08
       721.00000  5.41814e-06  2.61425e+08
       721.10000  5.41814e-06  2.61696e+08
       721.20000  5.41814e-06  2.61967e+08
       721.30000  5.35704e-06  2.59281e+08
       721.40000  5.35704e-06  2.59495e+08
       721.50000  3.53231e-06  1.71281e+08
       721.60000  3.53231e-06  1.71423e+08
       721.70000  3.53231e-06  1.71564e+08
       721.80000  3.53231e-06  1.71741e+08
       721.90000  3.53231e-06  1.71882e+08
       722.00000  3.53231e-06  1.71988e+08
       722.10000  3.53231e-06  1.72129e+08
       722.20000  3.53231e-06  1.72271e+08
       722.30000  3.53231e-06  1.72376e+08
       722.40000  3.53231e-06  1.72482e+08
       722.50000  6.98147e-06  3.41115e+08
       722.60000  6.98147e-06  3.41394e+08
       722.70000  6.98147e-06  3.41533e+08
       722.80000  6.98147e-06  3.41743e+08
       722.90000  6.98147e-06  3.41952e+08
       723.00000  6.98147e-06  3.42092e+08
       723.10000  6.98147e-06  3.42301e+08
       723.20000  6.98147e-06  3.42441e+08
       723.30000  6.98147e-06  3.42581e+08
       723.40000  6.98147e-06  3.42720e+08
       723.50000  5.18402e-06  2.54587e+08
       723.60000  5.18402e-06  2.54639e+08
       723.70000  5.18402e-06  2.54743e+08
       723.80000  5.12550e-06  2.51918e+08
       723.90000  5.12550e-06  2.51970e+08
       724.00000  5.12550e-06  2.52021e+08
       724.10000  5.12550e-06  2.52072e+08
       724.20000  5.12550e-06  2.52124e+08
       724.30000  5.12550e-06  2.52175e+08
       724.40000  5.12550e-06  2.52226e+08
       724.50000  1.69451e-06  8.33867e+07
       724.60000  1.69451e-06  8.33867e+07
       724.70000  1.69451e-06  8.33867e+07
       724.80000  1.69451e-06  8.33867e+07
       724.90000  1.69451e-06  8.33867e+07
       725.00000  1.69451e-06  8.33867e+07
       727.00000  1.62629e-06  8.00136e+07
       727.10000  1.62629e-06  7.98998e+07
       727.20000  1.62629e-06  7.97860e+07
       727.30000  1.62629e-06  7.96721e+07
       727.40000  1.62629e-06  7.95745e+07
       727.50000  3.32751e-06  1.62616e+08
       727.60000  3.32751e-06  1.62416e+08
       727.70000  3.32751e-06  1.62250e+08
       727.80000  3.32751e-06  1.62083e+08
       727.90000  3.32751e-06  1.61917e+08
       728.00000  3.32751e-06  1.61784e+08
       728.10000  3.32751e-06  1.61651e+08
       728.20000  3.32751e-06  1.61517e+08
       728.30000  3.32751e-06  1.61384e+08
       728.40000  3.32751e-06  1.61285e+08
       728.50000  1.51461e-06  7.33678e+07
       728.60000  1.51461e-06  7.33375e+07
       728.70000  1.51461e-06  7.32920e+07
       728.80000  1.49772e-06  7.24597e+07
       728.90000  1.49772e-06  7.24298e+07
       729.00000  1.49772e-06  7.24148e+07
       729.10000  1.49772e-06  7.23998e+07
       729.20000  1.49772e-06  7.23848e+07
       729.30000  1.49772e-06  7.23848e+07
       729.40000  1.49772e-06  7.23699e+07
       729.50000  4.99133e-06  2.41231e+08
       729.60000  4.99133e-06  2.41231e+08
       729.70000  4.99133e-06  2.41281e+08
       729.80000  4.99133e-06  2.41331e+08
       729.90000  4.99133e-06  2.41430e+08
       730.00000  4.99133e-06  2.41530e+08
       730.10000  4.99133e-06  2.41630e+08
       730.20000  4.99133e-06  2.41730e+08
       730.30000  4.99133e-06  2.41880e+08
       730.40000  4.99133e-06  2.42029e+08
       730.50000  5.03217e-06  2.44161e+08
       730.60000  5.03217e-06  2.44362e+08
       730.70000  5.03217e-06  2.44563e+08
       730.80000  5.03217e-06  2.44765e+08
       730.90000  5.03217e-06  2.45016e+08
       731.00000  5.03217e-06  2.45268e+08
       731.10000  5.03217e-06  2.45218e+08
       731.20000  5.03217e-06  2.45167e+08
       731.30000  4.96979e-06  2.42079e+08
       731.40000  4.96979e-06  2.42079e+08
       731.50000  3.34810e-06  1.63053e+08
       731.60000  3.34810e-06  1.63019e+08
       731.70000  3.34810e-06  1.62986e+08
       731.80000  3.34810e-06  1.62986e+08
       731.90000  3.34810e-06  1.62952e+08
       732.00000  3.34810e-06  1.62919e+08
       732.10000  3.34810e-06  1.62885e+08
       732.20000  3.34810e-06  1.62852e+08
       732.30000  3.34810e-06  1.62852e+08
       732.40000  3.34810e-06  1.62818e+08
       732.50000  3.02253e-07  1.46955e+07
       732.60000  3.02253e-07  1.46925e+07
       732.70000  3.02253e-07  1.46895e+07
       732.80000  3.02253e-07  1.46865e+07
       732.90000  3.02253e-07  1.46835e+07
       733.00000  3.02253e-07  1.46804e+07
       733.10000  3.02253e-07  1.46774e+07
       733.20000  3.02253e-07  1.46714e+07
       733.30000  3.02253e-07  1.46683e+07
       733.40000  3.02253e-07  1.46623e+07
       733.50000  5.12495e-06  2.48560e+08
       733.60000  5.12495e-06  2.48509e+08
       733.70000  5.12495e-06  2.48406e+08
       733.80000  5.05463e-06  2.44947e+08
       733.90000  5.05463e-06  2.44897e+08
       734.00000  5.05463e-06  2.44846e+08
       734.10000  5.05463e-06  2.44796e+08
       734.20000  5.05463e-06  2.44745e+08
       734.30000  5.05463e-06  2.44695e+08
       734.40000  5.05463e-06  2.44695e+08
       734.50000  3.28900e-07  1.59187e+07
       734.60000  3.28900e-07  1.59155e+07
       734.70000  3.28900e-07  1.59155e+07
       734.80000  3.28900e-07  1.59122e+07
       734.90000  3.28900e-07  1.59122e+07
       735.00000  3.28900e-07  1.59089e+07
       735.10000  3.28900e-07  1.59089e+07
       735.20000  3.28900e-07  1.59089e+07
       735.30000  3.28900e-07  1.59089e+07
       735.40000  3.28900e-07  1.59056e+07
       735.50000  3.42871e-06  1.65813e+08
       735.60000  3.42871e-06  1.65813e+08
       735.70000  3.42871e-06  1.65813e+08
       735.80000  3.42871e-06  1.65847e+08
       735.90000  3.42871e-06  1.65847e+08
       736.00000  3.42871e-06  1.65847e+08
       736.10000  3.42871e-06  1.65847e+08
       736.20000  3.42871e-06  1.65881e+08
       736.30000  3.37473e-06  1.63270e+08
       736.40000  3.37473e-06  1.63303e+08
       736.50000  3.39764e-06  1.64412e+08
       736.60000  3.39764e-06  1.64446e+08
       736.70000  3.39764e-06  1.64480e+08
       736.80000  3.39764e-06  1.64480e+08
       736.90000  3.39764e-06  1.64514e+08
       737.00000  3.39764e-06  1.64548e+08
       737.10000  3.39764e-06  1.64378e+08
       737.20000  3.39764e-06  1.64174e+08
       737.30000  3.39764e-06  1.64004e+08
       737.40000  3.39764e-06  1.63834e+08
       737.50000  5.12285e-06  2.46717e+08
       737.60000  5.12285e-06  2.46460e+08
       737.70000  5.12285e-06  2.46204e+08
       737.80000  5.12285e-06  2.45948e+08
       737.90000  5.12285e-06  2.45743e+08
       738.00000  5.12285e-06  2.45487e+08
       738.10000  5.12285e-06  2.45231e+08
       738.20000  5.12285e-06  2.44975e+08
       738.30000  5.12285e-06  2.44770e+08
       738.40000  5.12285e-06  2.44565e+08
       738.50000  5.14008e-06  2.45131e+08
       738.60000  5.14008e-06  2.44925e+08
       738.70000  5.14008e-06  2.44719e+08
       738.80000  5.05164e-06  2.40307e+08
       738.90000  5.05164e-06  2.40104e+08
       739.00000  5.05164e-06  2.39902e+08
       739.10000  5.05164e-06  2.39498e+08
       739.20000  5.05164e-06  2.39145e+08
       739.30000  5.05164e-06  2.38842e+08
       739.40000  5.05164e-06  2.38538e+08
       739.50000  5.56207e-07  2.62307e+07
       739.60000  5.56207e-07  2.62029e+07
       739.70000  5.56207e-07  2.61807e+07
       739.80000  5.56207e-07  2.61529e+07
       739.90000  5.56207e-07  2.61362e+07
       740.00000  5.56207e-07  2.61139e+07
       740.10000  5.56207e-07  2.61028e+07
       740.20000  5.56207e-07  2.60861e+07
       740.30000  5.56207e-07  2.60750e+07
       740.40000  5.56207e-07  2.60694e+07
       740.50000  5.07531e-06  2.37829e+08
       740.60000  5.07531e-06  2.37778e+08
       740.70000  5.07531e-06  2.37778e+08
       740.80000  5.07531e-06  2.37778e+08
       740.90000  5.07531e-06  2.37829e+08
       741.00000  5.07531e-06  2.37880e+08
       741.10000  5.07531e-06  2.37981e+08
       741.20000  5.07531e-06  2.38083e+08
       741.30000  4.98758e-06  2.34067e+08
       741.40000  4.98758e-06  2.34217e+08
       741.50000  1.06605e-06  5.00938e+07
       741.60000  1.06605e-06  5.01364e+07
       741.70000  1.06605e-06  5.01897e+07
       741.80000  1.06605e-06  5.02324e+07
       741.90000  1.06605e-06  5.02963e+07
       742.00000  1.06605e-06  5.03496e+07
       742.10000  1.06605e-06  5.04136e+07
       742.20000  1.06605e-06  5.04882e+07
       742.30000  1.06605e-06  5.05629e+07
       742.40000  1.06605e-06  5.06375e+07
       742.50000  6.65160e-06  3.16483e+08
       742.60000  6.65160e-06  3.17015e+08
       742.70000  6.65160e-06  3.17614e+08
       742.80000  6.65160e-06  3.18212e+08
       742.90000  6.65160e-06  3.18878e+08
       743.00000  6.65160e-06  3.19543e+08
       743.10000  6.65160e-06  3.19410e+08
       743.20000  6.65160e-06  3.19343e+08
       743.30000  6.65160e-06  3.19277e+08
       743.40000  6.65160e-06  3.19144e+08
       743.50000  4.98643e-06  2.39199e+08
       743.60000  4.98643e-06  2.39149e+08
       743.70000  4.98643e-06  2.39099e+08
       743.80000  4.90946e-06  2.35360e+08
       743.90000  4.90946e-06  2.35311e+08
       744.00000  4.90946e-06  2.35262e+08
       744.10000  4.90946e-06  2.35262e+08
       744.20000  4.90946e-06  2.35212e+08
       744.30000  4.90946e-06  2.35212e+08
       744.40000  4.90946e-06  2.35212e+08
       744.50000  3.26289e-06  1.56292e+08
       744.60000  3.26289e-06  1.56292e+08
       744.70000  3.26289e-06  1.56292e+08
       744.80000  3.26289e-06  1.56292e+08
       744.90000  3.26289e-06  1.56325e+08
       745.00000  3.26289e-06  1.56325e+08
       745.10000  3.26289e-06  1.56423e+08
       745.20000  3.26289e-06  1.56521e+08
       745.30000  3.26289e-06  1.56586e+08
       745.40000  3.26289e-06  1.56684e+08
       745.50000  4.87584e-06  2.34236e+08
       745.60000  4.87584e-06  2.34333e+08
       745.70000  4.87584e-06  2.34431e+08
       745.80000  4.87584e-06  2.34528e+08
       745.90000  4.87584e-06  2.34577e+08
       746.00000  4.87584e-06  2.34674e+08
       746.10000  4.87584e-06  2.34723e+08
       746.20000  4.87584e-06  2.34772e+08
       746.30000  4.81986e-06  2.32124e+08
       746.40000  4.81986e-06  2.32173e+08
       746.50000  3.19672e-06  1.54018e+08
       746.60000  3.19672e-06  1.54018e+08
       746.70000  3.19672e-06  1.54050e+08
       746.80000  3.19672e-06  1.54050e+08
       746.90000  3.19672e-06  1.54050e+08
       747.00000  3.19672e-06  1.54050e+08
       747.10000  3.19672e-06  1.53954e+08
       747.20000  3.19672e-06  1.53890e+08
       747.30000  3.19672e-06  1.53826e+08
       747.40000  3.19672e-06  1.53762e+08
       747.50000  4.75910e-06  2.28818e+08
       747.60000  4.75910e-06  2.28723e+08
       747.70000  4.75910e-06  2.28627e+08
       747.80000  4.75910e-06  2.28532e+08
       747.90000  4.75910e-06  2.28437e+08
       748.00000  4.75910e-06  2.28342e+08
       748.10000  4.75910e-06  2.28294e+08
       748.20000  4.75910e-06  2.28199e+08
       748.30000  4.75910e-06  2.28104e+08
       748.40000  4.75910e-06  2.28056e+08
       748.50000  3.14563e-06  1.50676e+08
       748.60000  3.14563e-06  1.50613e+08
       748.70000  3.14563e-06  1.50581e+08
       748.80000  3.10971e-06  1.48800e+08
       748.90000  3.10971e-06  1.48769e+08
       749.00000  3.10971e-06  1.48738e+08
       749.10000  3.10971e-06  1.48675e+08
       749.20000  3.10971e-06  1.48644e+08
       749.30000  3.10971e-06  1.48613e+08
       749.40000  3.10971e-06  1.48582e+08
       749.50000  4.62217e-06  2.20801e+08
       749.60000  4.62217e-06  2.20755e+08
       749.70000  4.62217e-06  2.20662e+08
       749.80000  4.62217e-06  2.20616e+08
       749.90000  4.62217e-06  2.20616e+08
       750.00000  4.62217e-06  2.20570e+08
       750.10000  4.62217e-06  2.20524e+08
       750.20000  4.62217e-06  2.20478e+08
       750.30000  4.62217e-06  2.20431e+08
       750.40000  4.62217e-06  2.20431e+08
       750.50000  3.05345e-06  1.45588e+08
       750.60000  3.05345e-06  1.45558e+08
       750.70000  3.05345e-06  1.45558e+08
       750.80000  3.05345e-06  1.45527e+08
       750.90000  3.05345e-06  1.45527e+08
       751.00000  3.05345e-06  1.45497e+08
       751.10000  3.05345e-06  1.45497e+08
       751.20000  3.05345e-06  1.45497e+08
       751.30000  3.01429e-06  1.43601e+08
       751.40000  3.01429e-06  1.43601e+08
       751.50000  5.94971e-06  2.83444e+08
       751.60000  5.94971e-06  2.83444e+08
       751.70000  5.94971e-06  2.83444e+08
       751.80000  5.94971e-06  2.83444e+08
       751.90000  5.94971e-06  2.83444e+08
       752.00000  5.94971e-06  2.83444e+08
       752.10000  5.94971e-06  2.83444e+08
       752.20000  5.94971e-06  2.83444e+08
       752.30000  5.94971e-06  2.83444e+08
       752.40000  5.94971e-06  2.83444e+08
       752.50000  5.88304e-06  2.80327e+08
       752.60000  5.88304e-06  2.80327e+08
       752.70000  5.88304e-06  2.80327e+08
       752.80000  5.88304e-06  2.80386e+08
       752.90000  5.88304e-06  2.80386e+08
       753.00000  5.88304e-06  2.80445e+08
       753.10000  5.88304e-06  2.80445e+08
       753.20000  5.88304e-06  2.80445e+08
       753.30000  5.88304e-06  2.80445e+08
       753.40000  5.88304e-06  2.80445e+08
       753.50000  2.91739e-06  1.39072e+08
       753.60000  2.91739e-06  1.39072e+08
       753.70000  2.91739e-06  1.39072e+08
       753.80000  2.87633e-06  1.37114e+08
       753.90000  2.87633e-06  1.37114e+08
       754.00000  2.87633e-06  1.37114e+08
       754.10000  2.87633e-06  1.37114e+08
       754.20000  2.87633e-06  1.37086e+08
       754.30000  2.87633e-06  1.37086e+08
       754.40000  2.87633e-06  1.37086e+08
       754.50000  4.29080e-06  2.04500e+08
       754.60000  4.29080e-06  2.04500e+08
       754.70000  4.29080e-06  2.04457e+08
       754.80000  4.29080e-06  2.04457e+08
       754.90000  4.29080e-06  2.04414e+08
       755.00000  4.29080e-06  2.04414e+08
       755.10000  4.29080e-06  2.04371e+08
       755.20000  4.29080e-06  2.04371e+08
       755.30000  4.29080e-06  2.04328e+08
       755.40000  4.29080e-06  2.04328e+08
       755.50000  4.27848e-06  2.03698e+08
       755.60000  4.27848e-06  2.03655e+08
       755.70000  4.27848e-06  2.03655e+08
       755.80000  4.27848e-06  2.03613e+08
       755.90000  4.27848e-06  2.03570e+08
       756.00000  4.27848e-06  2.03570e+08
       756.10000  4.27848e-06  2.03527e+08
       756.20000  4.27848e-06  2.03484e+08
       756.30000  4.21693e-06  2.00515e+08
       756.40000  4.21693e-06  2.00515e+08
       756.50000  4.21928e-06  2.00585e+08
       756.60000  4.21928e-06  2.00542e+08
       756.70000  4.21928e-06  2.00500e+08
       756.80000  4.21928e-06  2.00500e+08
       756.90000  4.21928e-06  2.00458e+08
       757.00000  4.21928e-06  2.00416e+08
       757.10000  4.21928e-06  2.00374e+08
       757.20000  4.21928e-06  2.00331e+08
       757.30000  4.21928e-06  2.00331e+08
       757.40000  4.21928e-06  2.00289e+08
       757.50000  2.82113e-06  1.33891e+08
       757.60000  2.82113e-06  1.33862e+08
       757.70000  2.82113e-06  1.33834e+08
       757.80000  2.82113e-06  1.33806e+08
       757.90000  2.82113e-06  1.33778e+08
       758.00000  2.82113e-06  1.33778e+08
       758.10000  2.82113e-06  1.33750e+08
       758.20000  2.82113e-06  1.33721e+08
       758.30000  2.82113e-06  1.33693e+08
       758.40000  2.82113e-06  1.33665e+08
       758.50000  4.25420e-06  2.01521e+08
       758.60000  4.25420e-06  2.01479e+08
       758.70000  4.25420e-06  2.01436e+08
       758.80000  4.17892e-06  1.97830e+08
       758.90000  4.17892e-06  1.97788e+08
       759.00000  4.17892e-06  1.97746e+08
       759.10000  4.17892e-06  1.97746e+08
       759.20000  4.17892e-06  1.97705e+08
       759.30000  4.17892e-06  1.97705e+08
       759.40000  4.17892e-06  1.97663e+08
       759.50000  1.37608e-06  6.50885e+07
       759.60000  1.37608e-06  6.50885e+07
       759.70000  1.37608e-06  6.50747e+07
       759.80000  1.37608e-06  6.50747e+07
       759.90000  1.37608e-06  6.50747e+07
       760.00000  1.37608e-06  6.50747e+07
       760.10000  1.37608e-06  6.50747e+07
       760.20000  1.37608e-06  6.50747e+07
       760.30000  1.37608e-06  6.50885e+07
       760.40000  1.37608e-06  6.50885e+07
       760.50000  5.62887e-06  2.66245e+08
       760.60000  5.62887e-06  2.66302e+08
       760.70000  5.62887e-06  2.66302e+08
       760.80000  5.62887e-06  2.66358e+08
       760.90000  5.62887e-06  2.66358e+08
       761.00000  5.62887e-06  2.66414e+08
       761.10000  5.62887e-06  2.66639e+08
       761.20000  5.62887e-06  2.66808e+08
       761.30000  5.51286e-06  2.61475e+08
       761.40000  5.51286e-06  2.61640e+08
       761.50000  8.29646e-06  3.93999e+08
       761.60000  8.29646e-06  3.94165e+08
       761.70000  8.29646e-06  3.94331e+08
       761.80000  8.29646e-06  3.94497e+08
       761.90000  8.29646e-06  3.94663e+08
       762.00000  8.29646e-06  3.94746e+08
       762.10000  8.29646e-06  3.94911e+08
       762.20000  8.29646e-06  3.94994e+08
       762.30000  8.29646e-06  3.95077e+08
       762.40000  8.29646e-06  3.95077e+08
       762.50000  1.36891e-06  6.51874e+07
       762.60000  1.36891e-06  6.52011e+07
       762.70000  1.36891e-06  6.52011e+07
       762.80000  1.36891e-06  6.51874e+07
       762.90000  1.36891e-06  6.51874e+07
       763.00000  1.36891e-06  6.51737e+07
       763.10000  1.36891e-06  6.51600e+07
       763.20000  1.36891e-06  6.51463e+07
       763.30000  1.36891e-06  6.51189e+07
       763.40000  1.36891e-06  6.50915e+07
       763.50000  2.76510e-06  1.31425e+08
       763.60000  2.76510e-06  1.31370e+08
       763.70000  2.76510e-06  1.31315e+08
       763.80000  2.69597e-06  1.27951e+08
       763.90000  2.69597e-06  1.27870e+08
       764.00000  2.69597e-06  1.27789e+08
       764.10000  2.69597e-06  1.27708e+08
       764.20000  2.69597e-06  1.27600e+08
       764.30000  2.69597e-06  1.27492e+08
       764.40000  2.69597e-06  1.27384e+08
       764.50000  6.71783e-06  3.17149e+08
       764.60000  6.71783e-06  3.16880e+08
       764.70000  6.71783e-06  3.16544e+08
       764.80000  6.71783e-06  3.16208e+08
       764.90000  6.71783e-06  3.15872e+08
       765.00000  6.71783e-06  3.15469e+08
       765.10000  6.71783e-06  3.14730e+08
       765.20000  6.71783e-06  3.13991e+08
       765.30000  6.71783e-06  3.13320e+08
       765.40000  6.71783e-06  3.12648e+08
       765.50000  2.67387e-06  1.24201e+08
       765.60000  2.67387e-06  1.23987e+08
       765.70000  2.67387e-06  1.23747e+08
       765.80000  2.67387e-06  1.23559e+08
       765.90000  2.67387e-06  1.23372e+08
       766.00000  2.67387e-06  1.23185e+08
       766.10000  2.67387e-06  1.23025e+08
       766.20000  2.67387e-06  1.22864e+08
       766.30000  2.60786e-06  1.19701e+08
       766.40000  2.60786e-06  1.19596e+08
       766.50000  2.59194e-06  1.18763e+08
       766.60000  2.59194e-06  1.18659e+08
       766.70000  2.59194e-06  1.18607e+08
       766.80000  2.59194e-06  1.18530e+08
       766.90000  2.59194e-06  1.18478e+08
       767.00000  2.59194e-06  1.18452e+08
       767.10000  2.59194e-06  1.18581e+08
       767.20000  2.59194e-06  1.18737e+08
       767.30000  2.59194e-06  1.18866e+08
       767.40000  2.59194e-06  1.18996e+08
       767.50000  3.86202e-06  1.77498e+08
       767.60000  3.86202e-06  1.77691e+08
       767.70000  3.86202e-06  1.77885e+08
       767.80000  3.86202e-06  1.78039e+08
       767.90000  3.86202e-06  1.78232e+08
       768.00000  3.86202e-06  1.78387e+08
       768.10000  3.86202e-06  1.78541e+08
       768.20000  3.86202e-06  1.78696e+08
       768.30000  3.86202e-06  1.78811e+08
       768.40000  3.86202e-06  1.78966e+08
       768.50000  2.55940e-06  1.18680e+08
       768.60000  2.55940e-06  1.18756e+08
       768.70000  2.55940e-06  1.18833e+08
       768.80000  2.50120e-06  1.16206e+08
       768.90000  2.50120e-06  1.16281e+08
       769.00000  2.50120e-06  1.16331e+08
       769.10000  2.50120e-06  1.16406e+08
       769.20000  2.50120e-06  1.16456e+08
       769.30000  2.50120e-06  1.16506e+08
       769.40000  2.50120e-06  1.16556e+08
       769.50000  8.21916e-07  3.83095e+07
       769.60000  8.21916e-07  3.83259e+07
       769.70000  8.21916e-07  3.83342e+07
       769.80000  8.21916e-07  3.83506e+07
       769.90000  8.21916e-07  3.83588e+07
       770.00000  8.21916e-07  3.83588e+07
       770.10000  8.21916e-07  3.83670e+07
       770.20000  8.21916e-07  3.83753e+07
       770.30000  8.21916e-07  3.83753e+07
       770.40000  8.21916e-07  3.83753e+07
       770.50000  2.47759e-06  1.15679e+08
       770.60000  2.47759e-06  1.15679e+08
       770.70000  2.47759e-06  1.15679e+08
       770.80000  2.47759e-06  1.15679e+08
       770.90000  2.47759e-06  1.15654e+08
       771.00000  2.47759e-06  1.15629e+08
       771.10000  2.47759e-06  1.15728e+08
       771.20000  2.47759e-06  1.15803e+08
       771.30000  2.43088e-06  1.13692e+08
       771.40000  2.43088e-06  1.13765e+08
       771.50000  3.63571e-06  1.70260e+08
       771.60000  3.63571e-06  1.70333e+08
       771.70000  3.63571e-06  1.70442e+08
       771.80000  3.63571e-06  1.70515e+08
       771.90000  3.63571e-06  1.70551e+08
       772.00000  3.63571e-06  1.70624e+08
       774.00000  1.18168e-06  5.49246e+07
       774.10000  1.18168e-06  5.48892e+07
       774.20000  1.18168e-06  5.48537e+07
       774.30000  1.18168e-06  5.48301e+07
       774.40000  1.18168e-06  5.47946e+07
       774.50000  5.87223e-06  2.72178e+08
       774.60000  5.87223e-06  2.72119e+08
       774.70000  5.87223e-06  2.72002e+08
       774.80000  5.87223e-06  2.71943e+08
       774.90000  5.87223e-06  2.71884e+08
       775.00000  5.87223e-06  2.71826e+08
       775.10000  5.87223e-06  2.71826e+08
       775.20000  5.87223e-06  2.71826e+08
       775.30000  5.87223e-06  2.71826e+08
       775.40000  5.87223e-06  2.71826e+08
       775.50000  3.49067e-06  1.61618e+08
       775.60000  3.49067e-06  1.61653e+08
       775.70000  3.49067e-06  1.61688e+08
       775.80000  3.49067e-06  1.61723e+08
       775.90000  3.49067e-06  1.61792e+08
       776.00000  3.49067e-06  1.61862e+08
       778.00000  4.46971e-06  2.08110e+08
       778.10000  4.46971e-06  2.08065e+08
       778.20000  4.46971e-06  2.08020e+08
       778.30000  4.46971e-06  2.07976e+08
       778.40000  4.46971e-06  2.07931e+08
       778.50000  2.20053e-06  1.02369e+08
       778.60000  2.20053e-06  1.02347e+08
       778.70000  2.20053e-06  1.02325e+08
       778.80000  2.17572e-06  1.01171e+08
       778.90000  2.17572e-06  1.01171e+08
       779.00000  2.17572e-06  1.01149e+08
       779.10000  2.17572e-06  1.01193e+08
       779.20000  2.17572e-06  1.01214e+08
       779.30000  2.17572e-06  1.01258e+08
       779.40000  2.17572e-06  1.01280e+08
       779.50000  3.20981e-06  1.49449e+08
       779.60000  3.20981e-06  1.49481e+08
       779.70000  3.20981e-06  1.49513e+08
       779.80000  3.20981e-06  1.49545e+08
       779.90000  3.20981e-06  1.49577e+08
       780.00000  3.20981e-06  1.49609e+08
       780.10000  3.20981e-06  1.49609e+08
       780.20000  3.20981e-06  1.49642e+08
       780.30000  3.20981e-06  1.49642e+08
       780.40000  3.20981e-06  1.49642e+08
       780.50000  2.10690e-06  9.82235e+07
       780.60000  2.10690e-06  9.82235e+07
       780.70000  2.10690e-06  9.82235e+07
       780.80000  2.10690e-06  9.82235e+07
       780.90000  2.10690e-06  9.82235e+07
       781.00000  2.10690e-06  9.82025e+07
       781.10000  2.10690e-06  9.82025e+07
       781.20000  2.10690e-06  9.81814e+07
       781.30000  2.08789e-06  9.72749e+07
       781.40000  2.08789e-06  9.72540e+07
       781.50000  3.09201e-06  1.43995e+08
       781.60000  3.09201e-06  1.43964e+08
       781.70000  3.09201e-06  1.43933e+08
       781.80000  3.09201e-06  1.43902e+08
       781.90000  3.09201e-06  1.43840e+08
       782.00000  3.09201e-06  1.43809e+08
       782.10000  3.09201e-06  1.43748e+08
       782.20000  3.09201e-06  1.43686e+08
       782.30000  3.09201e-06  1.43655e+08
       782.40000  3.09201e-06  1.43593e+08
       782.50000  2.04282e-06  9.48279e+07
       782.60000  2.04282e-06  9.47666e+07
       782.70000  2.04282e-06  9.47257e+07
       782.80000  2.04282e-06  9.46849e+07
       782.90000  2.04282e-06  9.46236e+07
       783.00000  2.04282e-06  9.45827e+07
       783.10000  2.04282e-06  9.46236e+07
       783.20000  2.04282e-06  9.46644e+07
       783.30000  2.04282e-06  9.47053e+07
       783.40000  2.04282e-06  9.47257e+07
       783.50000  2.03060e-06  9.41994e+07
       783.60000  2.03060e-06  9.42400e+07
       783.70000  2.03060e-06  9.42604e+07
       783.80000  2.01208e-06  9.34409e+07
       783.90000  2.01208e-06  9.34812e+07
       784.00000  2.01208e-06  9.35013e+07
       784.10000  2.01208e-06  9.35214e+07
       784.20000  2.01208e-06  9.35617e+07
       784.30000  2.01208e-06  9.35818e+07
       784.40000  2.01208e-06  9.36019e+07
       784.50000  2.01063e-06  9.35546e+07
       784.60000  2.01063e-06  9.35747e+07
       784.70000  2.01063e-06  9.35948e+07
       784.80000  2.01063e-06  9.36149e+07
       784.90000  2.01063e-06  9.36350e+07
       785.00000  2.01063e-06  9.36350e+07
       785.10000  2.01063e-06  9.36350e+07
       785.20000  2.01063e-06  9.36350e+07
       785.30000  2.01063e-06  9.36350e+07
       785.40000  2.01063e-06  9.36350e+07
       785.50000  3.02075e-06  1.40676e+08
       785.60000  3.02075e-06  1.40676e+08
       785.70000  3.02075e-06  1.40676e+08
       785.80000  3.02075e-06  1.40676e+08
       785.90000  3.02075e-06  1.40676e+08
       786.00000  3.02075e-06  1.40676e+08
       786.10000  3.02075e-06  1.40676e+08
       786.20000  3.02075e-06  1.40676e+08
       786.30000  2.98517e-06  1.39019e+08
       786.40000  2.98517e-06  1.39019e+08
       786.50000  4.51006e-07  2.10033e+07
       786.60000  4.51006e-07  2.10033e+07
       786.70000  4.51006e-07  2.10033e+07
       786.80000  4.51006e-07  2.10033e+07
       786.90000  4.51006e-07  2.10033e+07
       787.00000  4.51006e-07  2.10033e+07
       787.10000  4.51006e-07  2.10033e+07
       787.20000  4.51006e-07  2.10033e+07
       787.30000  4.51006e-07  2.10033e+07
       787.40000  4.51006e-07  2.10033e+07
       787.50000  2.01329e-06  9.37589e+07
       787.60000  2.01329e-06  9.37589e+07
       787.70000  2.01329e-06  9.37589e+07
       787.80000  2.01329e-06  9.37589e+07
       787.90000  2.01329e-06  9.37589e+07
       788.00000  2.01329e-06  9.37589e+07
       790.00000  2.00962e-06  9.30653e+07
       790.10000  2.00962e-06  9.30050e+07
       790.20000  2.00962e-06  9.29648e+07
       790.30000  2.00962e-06  9.29046e+07
       790.40000  2.00962e-06  9.28644e+07
       790.50000  2.01455e-06  9.30318e+07
       790.60000  2.01455e-06  9.29713e+07
       790.70000  2.01455e-06  9.29311e+07
       790.80000  2.01455e-06  9.28706e+07
       790.90000  2.01455e-06  9.28303e+07
       791.00000  2.01455e-06  9.27699e+07
       791.10000  2.01455e-06  9.27095e+07
       791.20000  2.01455e-06  9.26692e+07
       791.30000  1.98405e-06  9.12070e+07
       791.40000  1.98405e-06  9.11474e+07
       791.50000  1.98109e-06  9.09520e+07
       791.60000  1.98109e-06  9.08925e+07
       791.70000  1.98109e-06  9.08529e+07
       791.80000  1.98109e-06  9.07935e+07
       791.90000  1.98109e-06  9.07539e+07
       792.00000  1.98109e-06  9.06944e+07
       792.10000  1.98109e-06  9.06548e+07
       792.20000  1.98109e-06  9.06152e+07
       792.30000  1.98109e-06  9.05558e+07
       792.40000  1.98109e-06  9.05161e+07
       792.50000  1.97288e-06  9.01016e+07
       792.60000  1.97288e-06  9.00621e+07
       792.70000  1.97288e-06  9.00227e+07
       792.80000  1.97288e-06  8.99832e+07
       792.90000  1.97288e-06  8.99438e+07
       793.00000  1.97288e-06  8.99043e+07
       793.10000  1.97288e-06  8.98451e+07
       793.20000  1.97288e-06  8.97662e+07
       793.30000  1.97288e-06  8.97070e+07
       793.40000  1.97288e-06  8.96478e+07
       793.50000  1.95972e-06  8.89907e+07
       793.60000  1.95972e-06  8.89515e+07
       793.70000  1.95972e-06  8.88927e+07
       793.80000  1.92582e-06  8.73358e+07
       793.90000  1.92582e-06  8.72973e+07
       794.00000  1.92582e-06  8.72780e+07
       794.10000  1.92582e-06  8.72395e+07
       794.20000  1.92582e-06  8.72395e+07
       794.30000  1.92582e-06  8.72202e+07
       794.40000  1.92582e-06  8.72202e+07
       794.50000  2.86525e-06  1.29767e+08
       794.60000  2.86525e-06  1.29767e+08
       794.70000  2.86525e-06  1.29796e+08
       794.80000  2.86525e-06  1.29796e+08
       794.90000  2.86525e-06  1.29824e+08
       795.00000  2.86525e-06  1.29882e+08
       795.10000  2.86525e-06  1.30082e+08
       795.20000  2.86525e-06  1.30283e+08
       795.30000  2.86525e-06  1.30483e+08
       795.40000  2.86525e-06  1.30684e+08
       795.50000  9.46399e-07  4.32221e+07
       795.60000  9.46399e-07  4.32788e+07
       795.70000  9.46399e-07  4.33262e+07
       795.80000  9.46399e-07  4.33735e+07
       795.90000  9.46399e-07  4.34208e+07
       796.00000  9.46399e-07  4.34587e+07
       796.10000  9.46399e-07  4.34965e+07
       796.20000  9.46399e-07  4.35344e+07
       796.30000  9.26594e-07  4.26511e+07
       796.40000  9.26594e-07  4.26789e+07
       796.50000  2.75582e-06  1.27016e+08
       796.60000  2.75582e-06  1.27071e+08
       796.70000  2.75582e-06  1.27126e+08
       796.80000  2.75582e-06  1.27154e+08
       796.90000  2.75582e-06  1.27181e+08
       797.00000  2.75582e-06  1.27209e+08
       797.10000  2.75582e-06  1.27236e+08
       797.20000  2.75582e-06  1.27236e+08
       797.30000  2.75582e-06  1.27236e+08
       797.40000  2.75582e-06  1.27209e+08
       797.50000  3.64978e-06  1.68437e+08
       797.60000  3.64978e-06  1.68401e+08
       797.70000  3.64978e-06  1.68328e+08
       797.80000  3.64978e-06  1.68255e+08
       797.90000  3.64978e-06  1.68182e+08
       798.00000  3.64978e-06  1.68072e+08
       800.00000  1.76430e-06  8.09636e+07
       800.10000  1.76430e-06  8.09989e+07
       800.20000  1.76430e-06  8.10341e+07
       800.30000  1.76430e-06  8.10694e+07
       800.40000  1.76430e-06  8.10871e+07
       800.50000  8.07857e-07  3.71372e+07
       800.60000  8.07857e-07  3.71452e+07
       800.70000  8.07857e-07  3.71452e+07
       800.80000  8.07857e-07  3.71533e+07
       800.90000  8.07857e-07  3.71533e+07
       801.00000  8.07857e-07  3.71533e+07
       801.10000  8.07857e-07  3.71372e+07
       801.20000  8.07857e-07  3.71210e+07
       801.30000  7.89234e-07  3.62495e+07
       801.40000  7.89234e-07  3.62337e+07
       801.50000  3.41277e-06  1.56612e+08
       801.60000  3.41277e-06  1.56544e+08
       801.70000  3.41277e-06  1.56475e+08
       801.80000  3.41277e-06  1.56407e+08
       801.90000  3.41277e-06  1.56339e+08
       802.00000  3.41277e-06  1.56271e+08
       802.10000  3.41277e-06  1.56202e+08
       802.20000  3.41277e-06  1.56134e+08
       802.30000  3.41277e-06  1.56066e+08
       802.40000  3.41277e-06  1.55998e+08
       802.50000  2.54081e-06  1.16089e+08
       802.60000  2.54081e-06  1.16039e+08
       802.70000  2.54081e-06  1.15988e+08
       802.80000  2.54081e-06  1.15912e+08
       802.90000  2.54081e-06  1.15861e+08
       803.00000  2.54081e-06  1.15810e+08
       803.10000  2.54081e-06  1.15759e+08
       803.20000  2.54081e-06  1.15708e+08
       803.30000  2.54081e-06  1.15657e+08
       803.40000  2.54081e-06  1.15581e+08
       803.50000  3.35604e-06  1.52599e+08
       803.60000  3.35604e-06  1.52532e+08
       803.70000  3.35604e-06  1.52465e+08
       803.80000  3.27739e-06  1.48826e+08
       803.90000  3.27739e-06  1.48728e+08
       804.00000  3.27739e-06  1.48662e+08
       804.10000  3.27739e-06  1.48597e+08
       804.20000  3.27739e-06  1.48531e+08
       804.30000  3.27739e-06  1.48433e+08
       804.40000  3.27739e-06  1.48368e+08
       804.50000  2.42434e-06  1.09701e+08
       804.60000  2.42434e-06  1.09629e+08
       804.70000  2.42434e-06  1.09580e+08
       804.80000  2.42434e-06  1.09532e+08
       804.90000  2.42434e-06  1.09459e+08
       805.00000  2.42434e-06  1.09410e+08
       805.10000  2.42434e-06  1.09507e+08
       805.20000  2.42434e-06  1.09629e+08
       805.30000  2.42434e-06  1.09701e+08
       805.40000  2.42434e-06  1.09798e+08
       805.50000  2.38372e-06  1.08030e+08
       805.60000  2.38372e-06  1.08102e+08
       805.70000  2.38372e-06  1.08173e+08
       805.80000  2.38372e-06  1.08221e+08
       805.90000  2.38372e-06  1.08268e+08
       806.00000  2.38372e-06  1.08316e+08
       806.10000  2.38372e-06  1.08340e+08
       806.20000  2.38372e-06  1.08364e+08
       806.30000  2.32405e-06  1.05674e+08
       806.40000  2.32405e-06  1.05698e+08
       806.50000  2.28400e-06  1.03876e+08
       806.60000  2.28400e-06  1.03876e+08
       806.70000  2.28400e-06  1.03854e+08
       806.80000  2.28400e-06  1.03854e+08
       806.90000  2.28400e-06  1.03831e+08
       807.00000  2.28400e-06  1.03785e+08
       807.10000  2.28400e-06  1.03602e+08
       807.20000  2.28400e-06  1.03397e+08
       807.30000  2.28400e-06  1.03214e+08
       807.40000  2.28400e-06  1.03054e+08
       807.50000  2.24321e-06  1.01057e+08
       807.60000  2.24321e-06  1.00900e+08
       807.70000  2.24321e-06  1.00765e+08
       807.80000  2.24321e-06  1.00653e+08
       807.90000  2.24321e-06  1.00541e+08
       808.00000  2.24321e-06  1.00429e+08
       808.10000  2.24321e-06  1.00339e+08
       808.20000  2.24321e-06  1.00249e+08
       808.30000  2.24321e-06  1.00159e+08
       808.40000  2.24321e-06  1.00092e+08
       808.50000  2.94474e-06  1.31335e+08
       808.60000  2.94474e-06  1.31277e+08
       808.70000  2.94474e-06  1.31218e+08
       808.80000  2.87131e-06  1.27917e+08
       808.90000  2.87131e-06  1.27888e+08
       809.00000  2.87131e-06  1.27888e+08
       809.10000  2.87131e-06  1.27888e+08
       809.20000  2.87131e-06  1.27917e+08
       809.30000  2.87131e-06  1.27946e+08
       809.40000  2.87131e-06  1.27974e+08
       809.50000  2.12777e-06  9.48773e+07
       809.60000  2.12777e-06  9.49411e+07
       809.70000  2.12777e-06  9.50050e+07
       809.80000  2.12777e-06  9.50688e+07
       809.90000  2.12777e-06  9.51539e+07
       810.00000  2.12777e-06  9.52390e+07
       810.10000  2.12777e-06  9.53454e+07
       810.20000  2.12777e-06  9.54518e+07
       810.30000  2.12777e-06  9.55582e+07
       810.40000  2.12777e-06  9.56859e+07
       810.50000  2.11112e-06  9.50848e+07
       810.60000  2.11112e-06  9.52115e+07
       810.70000  2.11112e-06  9.53803e+07
       810.80000  2.11112e-06  9.55492e+07
       810.90000  2.11112e-06  9.57181e+07
       811.00000  2.11112e-06  9.59081e+07
       811.10000  2.11112e-06  9.59292e+07
       811.20000  2.11112e-06  9.59715e+07
       811.30000  2.05774e-06  9.35654e+07
       811.40000  2.05774e-06  9.36066e+07
       811.50000  1.36936e-06  6.23060e+07
       811.60000  1.36936e-06  6.23197e+07
       811.70000  1.36936e-06  6.23334e+07
       811.80000  1.36936e-06  6.23471e+07
       811.90000  1.36936e-06  6.23608e+07
       812.00000  1.36936e-06  6.23745e+07
       812.10000  1.36936e-06  6.23745e+07
       812.20000  1.36936e-06  6.23881e+07
       812.30000  1.36936e-06  6.24018e+07
       812.40000  1.36936e-06  6.24018e+07
       812.50000  2.05935e-06  9.38446e+07
       812.60000  2.05935e-06  9.38652e+07
       812.70000  2.05935e-06  9.38652e+07
       812.80000  2.05935e-06  9.38652e+07
       812.90000  2.05935e-06  9.38652e+07
       813.00000  2.05935e-06  9.38652e+07
       813.10000  2.05935e-06  9.38240e+07
       813.20000  2.05935e-06  9.38034e+07
       813.30000  2.05935e-06  9.37623e+07
       813.40000  2.05935e-06  9.37417e+07
       813.50000  1.38187e-06  6.28750e+07
       813.60000  1.38187e-06  6.28612e+07
       813.70000  1.38187e-06  6.28474e+07
       813.80000  1.34825e-06  6.13050e+07
       813.90000  1.34825e-06  6.12915e+07
       814.00000  1.34825e-06  6.12645e+07
       814.10000  1.34825e-06  6.12510e+07
       814.20000  1.34825e-06  6.12375e+07
       814.30000  1.34825e-06  6.12241e+07
       814.40000  1.34825e-06  6.12241e+07
       814.50000  2.71750e-06  1.23375e+08
       814.60000  2.71750e-06  1.23347e+08
       814.70000  2.71750e-06  1.23320e+08
       814.80000  2.71750e-06  1.23293e+08
       814.90000  2.71750e-06  1.23293e+08
       815.00000  2.71750e-06  1.23266e+08
       815.10000  2.71750e-06  1.23375e+08
       815.20000  2.71750e-06  1.23456e+08
       815.30000  2.71750e-06  1.23538e+08
       815.40000  2.71750e-06  1.23592e+08
       815.50000  2.73733e-06  1.24576e+08
       815.60000  2.73733e-06  1.24603e+08
       815.70000  2.73733e-06  1.24658e+08
       815.80000  2.73733e-06  1.24658e+08
       815.90000  2.73733e-06  1.24686e+08
       816.00000  2.73733e-06  1.24686e+08
       816.10000  2.73733e-06  1.24686e+08
       816.20000  2.73733e-06  1.24658e+08
       816.30000  2.66853e-06  1.21498e+08
       816.40000  2.66853e-06  1.21472e+08
       816.50000  2.00880e-06  9.14006e+07
       816.60000  2.00880e-06  9.13604e+07
       816.70000  2.00880e-06  9.13001e+07
       816.80000  2.00880e-06  9.12399e+07
       816.90000  2.00880e-06  9.11796e+07
       817.00000  2.00880e-06  9.10993e+07
       817.10000  2.00880e-06  9.08180e+07
       817.20000  2.00880e-06  9.05569e+07
       817.30000  2.00880e-06  9.03158e+07
       817.40000  2.00880e-06  9.00748e+07
       817.50000  6.69575e-07  2.99501e+07
       817.60000  6.69575e-07  2.98831e+07
       817.70000  6.69575e-07  2.98162e+07
       817.80000  6.69575e-07  2.97492e+07
       817.90000  6.69575e-07  2.96956e+07
       818.00000  6.69575e-07  2.96354e+07
       818.10000  6.69575e-07  2.95885e+07
       818.20000  6.69575e-07  2.95416e+07
       818.30000  6.69575e-07  2.94948e+07
       818.40000  6.69575e-07  2.94613e+07
       818.50000  1.99829e-06  8.78048e+07
       818.60000  1.99829e-06  8.77248e+07
       818.70000  1.99829e-06  8.76449e+07
       818.80000  1.94766e-06  8.53466e+07
       818.90000  1.94766e-06  8.53076e+07
       819.00000  1.94766e-06  8.52492e+07
       819.10000  1.94766e-06  8.52297e+07
       819.20000  1.94766e-06  8.52103e+07
       819.30000  1.94766e-06  8.51908e+07
       819.40000  1.94766e-06  8.51908e+07
       819.50000  1.92883e-06  8.43862e+07
       819.60000  1.92883e-06  8.44055e+07
       819.70000  1.92883e-06  8.44440e+07
       819.80000  1.92883e-06  8.45019e+07
       819.90000  1.92883e-06  8.45598e+07
       820.00000  1.92883e-06  8.46369e+07
       820.10000  1.92883e-06  8.47141e+07
       820.20000  1.92883e-06  8.48105e+07
       820.30000  1.92883e-06  8.49263e+07
       820.40000  1.92883e-06  8.50420e+07
       820.50000  1.27060e-06  5.61096e+07
       820.60000  1.27060e-06  5.61985e+07
       820.70000  1.27060e-06  5.63002e+07
       820.80000  1.27060e-06  5.64018e+07
       820.90000  1.27060e-06  5.65162e+07
       821.00000  1.27060e-06  5.66433e+07
       821.10000  1.27060e-06  5.66178e+07
       821.20000  1.27060e-06  5.66051e+07
       821.30000  1.24129e-06  5.52749e+07
       821.40000  1.24129e-06  5.52625e+07
       821.50000  1.22678e-06  5.45916e+07
       821.60000  1.22678e-06  5.45794e+07
       821.70000  1.22678e-06  5.45671e+07
       821.80000  1.22678e-06  5.45425e+07
       821.90000  1.22678e-06  5.45303e+07
       822.00000  1.22678e-06  5.45180e+07
       822.10000  1.22678e-06  5.45180e+07
       822.20000  1.22678e-06  5.45057e+07
       822.30000  1.22678e-06  5.44935e+07
       822.40000  1.22678e-06  5.44935e+07
       822.50000  1.82156e-06  8.08954e+07
       822.60000  1.82156e-06  8.08954e+07
       822.70000  1.82156e-06  8.08772e+07
       822.80000  1.82156e-06  8.08772e+07
       822.90000  1.82156e-06  8.08772e+07
       823.00000  1.82156e-06  8.08772e+07
       823.10000  1.82156e-06  8.08772e+07
       823.20000  1.82156e-06  8.08772e+07
       823.30000  1.82156e-06  8.08772e+07
       823.40000  1.82156e-06  8.08772e+07
       823.50000  3.01740e-06  1.34003e+08
       823.60000  3.01740e-06  1.34003e+08
       823.70000  3.01740e-06  1.34033e+08
       823.80000  2.95033e-06  1.31054e+08
       823.90000  2.95033e-06  1.31083e+08
       824.00000  2.95033e-06  1.31113e+08
       824.10000  2.95033e-06  1.31142e+08
       824.20000  2.95033e-06  1.31172e+08
       824.30000  2.95033e-06  1.31201e+08
       824.40000  2.95033e-06  1.31260e+08
       824.50000  1.76542e-06  7.85613e+07
       824.60000  1.76542e-06  7.85966e+07
       824.70000  1.76542e-06  7.86142e+07
       824.80000  1.76542e-06  7.86495e+07
       824.90000  1.76542e-06  7.86848e+07
       825.00000  1.76542e-06  7.87201e+07
       825.10000  1.76542e-06  7.87555e+07
       825.20000  1.76542e-06  7.87908e+07
       825.30000  1.76542e-06  7.88437e+07
       825.40000  1.76542e-06  7.88790e+07
       825.50000  3.53015e-06  1.57833e+08
       825.60000  3.53015e-06  1.57904e+08
       825.70000  3.53015e-06  1.58010e+08
       825.80000  3.53015e-06  1.58116e+08
       825.90000  3.53015e-06  1.58222e+08
       826.00000  3.53015e-06  1.58327e+08
       826.10000  3.53015e-06  1.58433e+08
       826.20000  3.53015e-06  1.58504e+08
       826.30000  3.45830e-06  1.55381e+08
       826.40000  3.45830e-06  1.55450e+08
       826.50000  2.30170e-06  1.03484e+08
       826.60000  2.30170e-06  1.03530e+08
       826.70000  2.30170e-06  1.03576e+08
       826.80000  2.30170e-06  1.03599e+08
       826.90000  2.30170e-06  1.03622e+08
       827.00000  2.30170e-06  1.03646e+08
       827.10000  2.30170e-06  1.03646e+08
       827.20000  2.30170e-06  1.03669e+08
       827.30000  2.30170e-06  1.03669e+08
       827.40000  2.30170e-06  1.03669e+08
       827.50000  2.85380e-06  1.28535e+08
       827.60000  2.85380e-06  1.28535e+08
       827.70000  2.85380e-06  1.28507e+08
       827.80000  2.85380e-06  1.28478e+08
       827.90000  2.85380e-06  1.28450e+08
       828.00000  2.85380e-06  1.28421e+08
       828.10000  2.85380e-06  1.28335e+08
       828.20000  2.85380e-06  1.28221e+08
       828.30000  2.85380e-06  1.28107e+08
       828.40000  2.85380e-06  1.27993e+08
       828.50000  2.80235e-06  1.25601e+08
       828.60000  2.80235e-06  1.25489e+08
       828.70000  2.80235e-06  1.25405e+08
       828.80000  2.74732e-06  1.22860e+08
       828.90000  2.74732e-06  1.22750e+08
       829.00000  2.74732e-06  1.22668e+08
       829.10000  2.74732e-06  1.22585e+08
       829.20000  2.74732e-06  1.22503e+08
       829.30000  2.74732e-06  1.22421e+08
       829.40000  2.74732e-06  1.22338e+08
       829.50000  2.67220e-06  1.18913e+08
       829.60000  2.67220e-06  1.18833e+08
       829.70000  2.67220e-06  1.18753e+08
       829.80000  2.67220e-06  1.18673e+08
       829.90000  2.67220e-06  1.18619e+08
       830.00000  2.67220e-06  1.18539e+08
       830.10000  2.67220e-06  1.18486e+08
       830.20000  2.67220e-06  1.18405e+08
       830.30000  2.67220e-06  1.18352e+08
       830.40000  2.67220e-06  1.18272e+08
       830.50000  2.05868e-06  9.10759e+07
       830.60000  2.05868e-06  9.10347e+07
       830.70000  2.05868e-06  9.09730e+07
       830.80000  2.05868e-06  9.09318e+07
       830.90000  2.05868e-06  9.08906e+07
       831.00000  2.05868e-06  9.08494e+07
       831.10000  2.05868e-06  9.08083e+07
       831.20000  2.05868e-06  9.07671e+07
       831.30000  2.01765e-06  8.89382e+07
       831.40000  2.01765e-06  8.88979e+07
       831.50000  2.42170e-06  1.06651e+08
       831.60000  2.42170e-06  1.06627e+08
       831.70000  2.42170e-06  1.06579e+08
       831.80000  2.42170e-06  1.06530e+08
       831.90000  2.42170e-06  1.06506e+08
       832.00000  2.42170e-06  1.06482e+08
       832.10000  2.42170e-06  1.06385e+08
       832.20000  2.42170e-06  1.06288e+08
       832.30000  2.42170e-06  1.06216e+08
       832.40000  2.42170e-06  1.06143e+08
       832.50000  2.80281e-06  1.22763e+08
       832.60000  2.80281e-06  1.22707e+08
       832.70000  2.80281e-06  1.22651e+08
       832.80000  2.80281e-06  1.22567e+08
       832.90000  2.80281e-06  1.22539e+08
       833.00000  2.80281e-06  1.22483e+08
       833.10000  2.80281e-06  1.22427e+08
       833.20000  2.80281e-06  1.22399e+08
       833.30000  2.80281e-06  1.22371e+08
       833.40000  2.80281e-06  1.22343e+08
       833.50000  2.74146e-06  1.19665e+08
       833.60000  2.74146e-06  1.19637e+08
       833.70000  2.74146e-06  1.19637e+08
       833.80000  2.69030e-06  1.17405e+08
       833.90000  2.69030e-06  1.17432e+08
       834.00000  2.69030e-06  1.17432e+08
       834.10000  2.69030e-06  1.17566e+08
       834.20000  2.69030e-06  1.17674e+08
       834.30000  2.69030e-06  1.17808e+08
       834.40000  2.69030e-06  1.17916e+08
       834.50000  2.69020e-06  1.18019e+08
       834.60000  2.69020e-06  1.18127e+08
       834.70000  2.69020e-06  1.18208e+08
       834.80000  2.69020e-06  1.18288e+08
       834.90000  2.69020e-06  1.18396e+08
       835.00000  2.69020e-06  1.18477e+08
       835.10000  2.69020e-06  1.18530e+08
       835.20000  2.69020e-06  1.18611e+08
       835.30000  2.69020e-06  1.18665e+08
       835.40000  2.69020e-06  1.18719e+08
       835.50000  3.21253e-06  1.41833e+08
       835.60000  3.21253e-06  1.41898e+08
       835.70000  3.21253e-06  1.41930e+08
       835.80000  3.21253e-06  1.41994e+08
       835.90000  3.21253e-06  1.42026e+08
       836.00000  3.21253e-06  1.42058e+08
       836.10000  3.21253e-06  1.41994e+08
       836.20000  3.21253e-06  1.41962e+08
       836.30000  3.16061e-06  1.39604e+08
       836.40000  3.16061e-06  1.39573e+08
       836.50000  2.80883e-06  1.24010e+08
       836.60000  2.80883e-06  1.23954e+08
       836.70000  2.80883e-06  1.23926e+08
       836.80000  2.80883e-06  1.23898e+08
       836.90000  2.80883e-06  1.23842e+08
       837.00000  2.80883e-06  1.23813e+08
       837.10000  2.80883e-06  1.23785e+08
       837.20000  2.80883e-06  1.23757e+08
       837.30000  2.80883e-06  1.23729e+08
       837.40000  2.80883e-06  1.23701e+08
       837.50000  3.82750e-06  1.68525e+08
       837.60000  3.82750e-06  1.68487e+08
       837.70000  3.82750e-06  1.68448e+08
       837.80000  3.82750e-06  1.68410e+08
       837.90000  3.82750e-06  1.68410e+08
       838.00000  3.82750e-06  1.68372e+08
       838.10000  3.82750e-06  1.68333e+08
       838.20000  3.82750e-06  1.68333e+08
       838.30000  3.82750e-06  1.68333e+08
       838.40000  3.82750e-06  1.68333e+08
       838.50000  3.68002e-06  1.61811e+08
       838.60000  3.68002e-06  1.61811e+08
       838.70000  3.68002e-06  1.61811e+08
       838.80000  3.62592e-06  1.59395e+08
       838.90000  3.62592e-06  1.59395e+08
       839.00000  3.62592e-06  1.59395e+08
       839.10000  3.62592e-06  1.59359e+08
       839.20000  3.62592e-06  1.59359e+08
       839.30000  3.62592e-06  1.59359e+08
       839.40000  3.62592e-06  1.59323e+08
       839.50000  3.90854e-06  1.71741e+08
       839.60000  3.90854e-06  1.71741e+08
       839.70000  3.90854e-06  1.71702e+08
       839.80000  3.90854e-06  1.71702e+08
       839.90000  3.90854e-06  1.71702e+08
       840.00000  3.90854e-06  1.71663e+08
       840.10000  3.90854e-06  1.71663e+08
       840.20000  3.90854e-06  1.71663e+08
       840.30000  3.90854e-06  1.71624e+08
       840.40000  3.90854e-06  1.71624e+08
       840.50000  3.57744e-06  1.57085e+08
       840.60000  3.57744e-06  1.57049e+08
       840.70000  3.57744e-06  1.57049e+08
       840.80000  3.57744e-06  1.57049e+08
       840.90000  3.57744e-06  1.57014e+08
       841.00000  3.57744e-06  1.57014e+08
       841.10000  3.57744e-06  1.57014e+08
       841.20000  3.57744e-06  1.57014e+08
       841.30000  3.51951e-06  1.54436e+08
       841.40000  3.51951e-06  1.54436e+08
       841.50000  2.41259e-06  1.05865e+08
       841.60000  2.41259e-06  1.05840e+08
       841.70000  2.41259e-06  1.05840e+08
       841.80000  2.41259e-06  1.05840e+08
       841.90000  2.41259e-06  1.05816e+08
       842.00000  2.41259e-06  1.05816e+08
       842.10000  2.41259e-06  1.05720e+08
       842.20000  2.41259e-06  1.05647e+08
       842.30000  2.41259e-06  1.05575e+08
       842.40000  2.41259e-06  1.05478e+08
       842.50000  1.83223e-06  8.00501e+07
       842.60000  1.83223e-06  8.00135e+07
       842.70000  1.83223e-06  7.99585e+07
       842.80000  1.83223e-06  7.99219e+07
       842.90000  1.83223e-06  7.98669e+07
       843.00000  1.83223e-06  7.98303e+07
       843.10000  1.83223e-06  7.97936e+07
       843.20000  1.83223e-06  7.97570e+07
       843.30000  1.83223e-06  7.97386e+07
       843.40000  1.83223e-06  7.97020e+07
       843.50000  1.43808e-06  6.25421e+07
       843.60000  1.43808e-06  6.25277e+07
       843.70000  1.43808e-06  6.25133e+07
       843.80000  1.41300e-06  6.14089e+07
       843.90000  1.41300e-06  6.14089e+07
       844.00000  1.41300e-06  6.13947e+07
       844.10000  1.41300e-06  6.14371e+07
       844.20000  1.41300e-06  6.14654e+07
       844.30000  1.41300e-06  6.14937e+07
       844.40000  1.41300e-06  6.15219e+07
       844.50000  9.97158e-07  4.34362e+07
       844.60000  9.97158e-07  4.34561e+07
       844.70000  9.97158e-07  4.34661e+07
       844.80000  9.97158e-07  4.34861e+07
       844.90000  9.97158e-07  4.34960e+07
       845.00000  9.97158e-07  4.35160e+07
       845.10000  9.97158e-07  4.35259e+07
       845.20000  9.97158e-07  4.35359e+07
       845.30000  9.97158e-07  4.35559e+07
       845.40000  9.97158e-07  4.35658e+07
       845.50000  7.71143e-07  3.36913e+07
       845.60000  7.71143e-07  3.36990e+07
       845.70000  7.71143e-07  3.37067e+07
       845.80000  7.71143e-07  3.37144e+07
       845.90000  7.71143e-07  3.37144e+07
       846.00000  7.71143e-07  3.37221e+07
       846.10000  7.71143e-07  3.37221e+07
       846.20000  7.71143e-07  3.37221e+07
       846.30000  7.56706e-07  3.30908e+07
       846.40000  7.56706e-07  3.30983e+07
       846.50000  5.44372e-07  2.38108e+07
       846.60000  5.44372e-07  2.38054e+07
       846.70000  5.44372e-07  2.38054e+07
       846.80000  5.44372e-07  2.38054e+07
       846.90000  5.44372e-07  2.37999e+07
       847.00000  5.44372e-07  2.37999e+07
       847.10000  5.44372e-07  2.37945e+07
       847.20000  5.44372e-07  2.37945e+07
       847.30000  5.44372e-07  2.37890e+07
       847.40000  5.44372e-07  2.37836e+07
       847.50000  5.55206e-07  2.42514e+07
       847.60000  5.55206e-07  2.42459e+07
       847.70000  5.55206e-07  2.42403e+07
       847.80000  5.55206e-07  2.42347e+07
       847.90000  5.55206e-07  2.42236e+07
       848.00000  5.55206e-07  2.42181e+07
       848.10000  5.55206e-07  2.41015e+07
       848.20000  5.55206e-07  2.39960e+07
       848.30000  5.55206e-07  2.38905e+07
       848.40000  5.55206e-07  2.37906e+07
       848.50000  4.83832e-07  2.06499e+07
       848.60000  4.83832e-07  2.05774e+07
       848.70000  4.83832e-07  2.05048e+07
       848.80000  4.74982e-07  2.00633e+07
       848.90000  4.74982e-07  2.00015e+07
       849.00000  4.74982e-07  1.99445e+07
       849.10000  4.74982e-07  1.98875e+07
       849.20000  4.74982e-07  1.98400e+07
       849.30000  4.74982e-07  1.97973e+07
       849.40000  4.74982e-07  1.97545e+07
       849.50000  1.77299e-06  7.36147e+07
       849.60000  1.77299e-06  7.34906e+07
       849.70000  1.77299e-06  7.34019e+07
       849.80000  1.77299e-06  7.33133e+07
       849.90000  1.77299e-06  7.32423e+07
       850.00000  1.77299e-06  7.31891e+07
       850.10000  1.77299e-06  7.35792e+07
       850.20000  1.77299e-06  7.39515e+07
       850.30000  1.77299e-06  7.42884e+07
       850.40000  1.77299e-06  7.45898e+07
       850.50000  1.42264e-06  6.00783e+07
       850.60000  1.42264e-06  6.02774e+07
       850.70000  1.42264e-06  6.04482e+07
       850.80000  1.42264e-06  6.06046e+07
       850.90000  1.42264e-06  6.07327e+07
       851.00000  1.42264e-06  6.08465e+07
       851.10000  1.42264e-06  6.09319e+07
       851.20000  1.42264e-06  6.10030e+07
       851.30000  1.39813e-06  5.99937e+07
       851.40000  1.39813e-06  6.00077e+07
       851.50000  1.23775e-06  5.31241e+07
       851.60000  1.23775e-06  5.30993e+07
       851.70000  1.23775e-06  5.30622e+07
       851.80000  1.23775e-06  5.30003e+07
       851.90000  1.23775e-06  5.29136e+07
       852.00000  1.23775e-06  5.28146e+07
       852.10000  1.23775e-06  5.26908e+07
       852.20000  1.23775e-06  5.25547e+07
       852.30000  1.23775e-06  5.23938e+07
       852.40000  1.23775e-06  5.22205e+07
       852.50000  1.15762e-06  4.86430e+07
       852.60000  1.15762e-06  4.84462e+07
       852.70000  1.15762e-06  4.82147e+07
       852.80000  1.15762e-06  4.79832e+07
       852.90000  1.15762e-06  4.77169e+07
       853.00000  1.15762e-06  4.74391e+07
       853.10000  1.15762e-06  4.71381e+07
       853.20000  1.15762e-06  4.68255e+07
       853.30000  1.15762e-06  4.64898e+07
       853.40000  1.15762e-06  4.61425e+07
       853.50000  1.04979e-06  4.15089e+07
       853.60000  1.04979e-06  4.11519e+07
       853.70000  1.04979e-06  4.07845e+07
       853.80000  1.03183e-06  3.97048e+07
       853.90000  1.03183e-06  3.93127e+07
       854.00000  1.03183e-06  3.88999e+07
       854.10000  1.03183e-06  3.91888e+07
       854.20000  1.03183e-06  3.94778e+07
       854.30000  1.03183e-06  3.97564e+07
       854.40000  1.03183e-06  4.00246e+07
       854.50000  9.06829e-07  3.54026e+07
       854.60000  9.06829e-07  3.56293e+07
       854.70000  9.06829e-07  3.58469e+07
       854.80000  9.06829e-07  3.60555e+07
       854.90000  9.06829e-07  3.62641e+07
       855.00000  9.06829e-07  3.64636e+07
       855.10000  9.06829e-07  3.66540e+07
       855.20000  9.06829e-07  3.68354e+07
       855.30000  9.06829e-07  3.70168e+07
       855.40000  9.06829e-07  3.71800e+07
       855.50000  9.26619e-07  3.81674e+07
       855.60000  9.26619e-07  3.83249e+07
       855.70000  9.26619e-07  3.84825e+07
       855.80000  9.26619e-07  3.86307e+07
       855.90000  9.26619e-07  3.87697e+07
       856.00000  9.26619e-07  3.88995e+07
       856.10000  9.26619e-07  3.90014e+07
       856.20000  9.26619e-07  3.90940e+07
       856.30000  9.07901e-07  3.83951e+07
       856.40000  9.07901e-07  3.84859e+07
       856.50000  7.37367e-07  3.13233e+07
       856.60000  7.37367e-07  3.13897e+07
       856.70000  7.37367e-07  3.14487e+07
       856.80000  7.37367e-07  3.15077e+07
       856.90000  7.37367e-07  3.15593e+07
       857.00000  7.37367e-07  3.16109e+07
       857.10000  7.37367e-07  3.16625e+07
       857.20000  7.37367e-07  3.17068e+07
       857.30000  7.37367e-07  3.17510e+07
       857.40000  7.37367e-07  3.17879e+07
       857.50000  7.01130e-07  3.02608e+07
       857.60000  7.01130e-07  3.02958e+07
       857.70000  7.01130e-07  3.03239e+07
       857.80000  7.01130e-07  3.03519e+07
       857.90000  7.01130e-07  3.03729e+07
       858.00000  7.01130e-07  3.04010e+07
       858.10000  7.01130e-07  3.04150e+07
       858.20000  7.01130e-07  3.04290e+07
       858.30000  7.01130e-07  3.04430e+07
       858.40000  7.01130e-07  3.04501e+07
       858.50000  6.10688e-07  2.65283e+07
       858.60000  6.10688e-07  2.65344e+07
       858.70000  6.10688e-07  2.65344e+07
       858.80000  5.97627e-07  2.59669e+07
       858.90000  5.97627e-07  2.59609e+07
       859.00000  5.97627e-07  2.59549e+07
       859.10000  5.97627e-07  2.59490e+07
       859.20000  5.97627e-07  2.59370e+07
       859.30000  5.97627e-07  2.59251e+07
       859.40000  5.97627e-07  2.59071e+07
       859.50000  5.90680e-07  2.55883e+07
       859.60000  5.90680e-07  2.55705e+07
       859.70000  5.90680e-07  2.55469e+07
       859.80000  5.90680e-07  2.55174e+07
       859.90000  5.90680e-07  2.54938e+07
       860.00000  5.90680e-07  2.54642e+07
       860.10000  5.90680e-07  2.54583e+07
       860.20000  5.90680e-07  2.54524e+07
       860.30000  5.90680e-07  2.54524e+07
       860.40000  5.90680e-07  2.54524e+07
       860.50000  5.25698e-07  2.26471e+07
       860.60000  5.25698e-07  2.26471e+07
       860.70000  5.25698e-07  2.26471e+07
       860.80000  5.25698e-07  2.26471e+07
       860.90000  5.25698e-07  2.26471e+07
       861.00000  5.25698e-07  2.26471e+07
       861.10000  5.25698e-07  2.26471e+07
       861.20000  5.25698e-07  2.26471e+07
       861.30000  5.14522e-07  2.21656e+07
       861.40000  5.14522e-07  2.21708e+07
       861.50000  5.00957e-07  2.15862e+07
       861.60000  5.00957e-07  2.15862e+07
       861.70000  5.00957e-07  2.15912e+07
       861.80000  5.00957e-07  2.15963e+07
       861.90000  5.00957e-07  2.15963e+07
       862.00000  5.00957e-07  2.16013e+07
       862.10000  5.00957e-07  2.16714e+07
       862.20000  5.00957e-07  2.17315e+07
       862.30000  5.00957e-07  2.17866e+07
       862.40000  5.00957e-07  2.18367e+07
       862.50000  4.93685e-07  2.15592e+07
       862.60000  4.93685e-07  2.15938e+07
       862.70000  4.93685e-07  2.16234e+07
       862.80000  4.93685e-07  2.16481e+07
       862.90000  4.93685e-07  2.16629e+07
       863.00000  4.93685e-07  2.16728e+07
       863.10000  4.93685e-07  2.16777e+07
       863.20000  4.93685e-07  2.16777e+07
       863.30000  4.93685e-07  2.16678e+07
       863.40000  4.93685e-07  2.16530e+07
       863.50000  5.10959e-07  2.23902e+07
       863.60000  5.10959e-07  2.23596e+07
       863.70000  5.10959e-07  2.23238e+07
       863.80000  5.00034e-07  2.18065e+07
       863.90000  5.00034e-07  2.17615e+07
       864.00000  5.00034e-07  2.17065e+07
       864.10000  5.00034e-07  2.16465e+07
       864.20000  5.00034e-07  2.15815e+07
       864.30000  5.00034e-07  2.15065e+07
       864.40000  5.00034e-07  2.14315e+07
       864.50000  5.13934e-07  2.19347e+07
       864.60000  5.13934e-07  2.18422e+07
       864.70000  5.13934e-07  2.17394e+07
       864.80000  5.13934e-07  2.16366e+07
       864.90000  5.13934e-07  2.15184e+07
       865.00000  5.13934e-07  2.14002e+07
       865.10000  5.13934e-07  2.12717e+07
       865.20000  5.13934e-07  2.11381e+07
       865.30000  5.13934e-07  2.09993e+07
       865.40000  5.13934e-07  2.08503e+07
       865.50000  7.01227e-07  2.82384e+07
       865.60000  7.01227e-07  2.80210e+07
       865.70000  7.01227e-07  2.77966e+07
       865.80000  7.01227e-07  2.75582e+07
       865.90000  7.01227e-07  2.73128e+07
       866.00000  7.01227e-07  2.70603e+07
       866.10000  7.01227e-07  2.71585e+07
       866.20000  7.01227e-07  2.72497e+07
       866.30000  6.86312e-07  2.67662e+07
       866.40000  6.86312e-07  2.68554e+07
       866.50000  7.54762e-07  2.96319e+07
       866.60000  7.54762e-07  2.97301e+07
       866.70000  7.54762e-07  2.98282e+07
       866.80000  7.54762e-07  2.99263e+07
       866.90000  7.54762e-07  3.00169e+07
       867.00000  7.54762e-07  3.01074e+07
       867.10000  7.54762e-07  3.01980e+07
       867.20000  7.54762e-07  3.02886e+07
       867.30000  7.54762e-07  3.03792e+07
       867.40000  7.54762e-07  3.04622e+07
       867.50000  8.80867e-07  3.56487e+07
       867.60000  8.80867e-07  3.57456e+07
       867.70000  8.80867e-07  3.58425e+07
       867.80000  8.80867e-07  3.59394e+07
       867.90000  8.80867e-07  3.60275e+07
       868.00000  8.80867e-07  3.61156e+07
       868.10000  8.80867e-07  3.62124e+07
       868.20000  8.80867e-07  3.63093e+07
       868.30000  8.80867e-07  3.63974e+07
       868.40000  8.80867e-07  3.64855e+07
       868.50000  9.69833e-07  4.02675e+07
       868.60000  9.69833e-07  4.03548e+07
       868.70000  9.69833e-07  4.04517e+07
       868.80000  9.48601e-07  3.96420e+07
       868.90000  9.48601e-07  3.97274e+07
       869.00000  9.48601e-07  3.98033e+07
       869.10000  9.48601e-07  3.98792e+07
       869.20000  9.48601e-07  3.99551e+07
       869.30000  9.48601e-07  4.00310e+07
       869.40000  9.48601e-07  4.00974e+07
       869.50000  9.90376e-07  4.19325e+07
       869.60000  9.90376e-07  4.19919e+07
       869.70000  9.90376e-07  4.20514e+07
       869.80000  9.90376e-07  4.21108e+07
       869.90000  9.90376e-07  4.21702e+07
       870.00000  9.90376e-07  4.22296e+07
       870.10000  9.90376e-07  4.22791e+07
       870.20000  9.90376e-07  4.23287e+07
       870.30000  9.90376e-07  4.23683e+07
       870.40000  9.90376e-07  4.24079e+07
       870.50000  9.24982e-07  3.96447e+07
       870.60000  9.24982e-07  3.96817e+07
       870.70000  9.24982e-07  3.97095e+07
       870.80000  9.24982e-07  3.97465e+07
       870.90000  9.24982e-07  3.97650e+07
       871.00000  9.24982e-07  3.97927e+07
       871.10000  9.24982e-07  3.98112e+07
       871.20000  9.24982e-07  3.98297e+07
       871.30000  9.05589e-07  3.90128e+07
       871.40000  9.05589e-07  3.90218e+07
       871.50000  8.26004e-07  3.56008e+07
       871.60000  8.26004e-07  3.56090e+07
       871.70000  8.26004e-07  3.56090e+07
       871.80000  8.26004e-07  3.56173e+07
       871.90000  8.26004e-07  3.56090e+07
       872.00000  8.26004e-07  3.56090e+07
       872.10000  8.26004e-07  3.55843e+07
       872.20000  8.26004e-07  3.55677e+07
       872.30000  8.26004e-07  3.55430e+07
       872.40000  8.26004e-07  3.55264e+07
       872.50000  6.93082e-07  2.97886e+07
       872.60000  6.93082e-07  2.97748e+07
       872.70000  6.93082e-07  2.97609e+07
       872.80000  6.93082e-07  2.97471e+07
       872.90000  6.93082e-07  2.97263e+07
       873.00000  6.93082e-07  2.97124e+07
       873.10000  6.93082e-07  2.96985e+07
       873.20000  6.93082e-07  2.96847e+07
       873.30000  6.93082e-07  2.96708e+07
       873.40000  6.93082e-07  2.96570e+07
       873.50000  4.67838e-07  2.00094e+07
       873.60000  4.67838e-07  2.00001e+07
       873.70000  4.67838e-07  1.99907e+07
       873.80000  4.57220e-07  1.95325e+07
       873.90000  4.57220e-07  1.95233e+07
       874.00000  4.57220e-07  1.95142e+07
       874.10000  4.57220e-07  1.95004e+07
       874.20000  4.57220e-07  1.94867e+07
       874.30000  4.57220e-07  1.94776e+07
       874.40000  4.57220e-07  1.94639e+07
       874.50000  1.27216e-07  5.41304e+06
       874.60000  1.27216e-07  5.41049e+06
       874.70000  1.27216e-07  5.40795e+06
       874.80000  1.27216e-07  5.40668e+06
       874.90000  1.27216e-07  5.40413e+06
       875.00000  1.27216e-07  5.40286e+06
       875.10000  1.27216e-07  5.40159e+06
       875.20000  1.27216e-07  5.40032e+06
       875.30000  1.27216e-07  5.40032e+06
       875.40000  1.27216e-07  5.39904e+06
       875.50000  2.84862e-07  1.20895e+07
       875.60000  2.84862e-07  1.20895e+07
       875.70000  2.84862e-07  1.20895e+07
       875.80000  2.84862e-07  1.20924e+07
       875.90000  2.84862e-07  1.20924e+07
       876.00000  2.84862e-07  1.20952e+07
       876.10000  2.84862e-07  1.20981e+07
       876.20000  2.84862e-07  1.21009e+07
       876.30000  2.78060e-07  1.18148e+07
       876.40000  2.78060e-07  1.18203e+07
       876.50000  8.24012e-07  3.50452e+07
       876.60000  8.24012e-07  3.50617e+07
       876.70000  8.24012e-07  3.50782e+07
       876.80000  8.24012e-07  3.50947e+07
       876.90000  8.24012e-07  3.51194e+07
       877.00000  8.24012e-07  3.51441e+07
       877.10000  8.24012e-07  3.51688e+07
       877.20000  8.24012e-07  3.51936e+07
       877.30000  8.24012e-07  3.52183e+07
       877.40000  8.24012e-07  3.52512e+07
       877.50000  1.60701e-06  6.88122e+07
       877.60000  1.60701e-06  6.88764e+07
       877.70000  1.60701e-06  6.89407e+07
       877.80000  1.60701e-06  6.90050e+07
       877.90000  1.60701e-06  6.90854e+07
       878.00000  1.60701e-06  6.91657e+07
       878.10000  1.60701e-06  6.90693e+07
       878.20000  1.60701e-06  6.89889e+07
       878.30000  1.60701e-06  6.89086e+07
       878.40000  1.60701e-06  6.88282e+07
       878.50000  2.44823e-06  1.04735e+08
       878.60000  2.44823e-06  1.04637e+08
       878.70000  2.44823e-06  1.04515e+08
       878.80000  2.38850e-06  1.01869e+08
       878.90000  2.38850e-06  1.01774e+08
       879.00000  2.38850e-06  1.01678e+08
       879.10000  2.38850e-06  1.01583e+08
       879.20000  2.38850e-06  1.01511e+08
       879.30000  2.38850e-06  1.01416e+08
       879.40000  2.38850e-06  1.01344e+08
       879.50000  3.25494e-06  1.38009e+08
       879.60000  3.25494e-06  1.37912e+08
       879.70000  3.25494e-06  1.37814e+08
       879.80000  3.25494e-06  1.37749e+08
       879.90000  3.25494e-06  1.37651e+08
       880.00000  3.25494e-06  1.37586e+08
       880.10000  3.25494e-06  1.37554e+08
       880.20000  3.25494e-06  1.37489e+08
       880.30000  3.25494e-06  1.37456e+08
       880.40000  3.25494e-06  1.37391e+08
       880.50000  4.23248e-06  1.78611e+08
       880.60000  4.23248e-06  1.78568e+08
       880.70000  4.23248e-06  1.78526e+08
       880.80000  4.23248e-06  1.78526e+08
       880.90000  4.23248e-06  1.78484e+08
       881.00000  4.23248e-06  1.78441e+08
       881.10000  4.23248e-06  1.78441e+08
       881.20000  4.23248e-06  1.78441e+08
       881.30000  4.13151e-06  1.74184e+08
       881.40000  4.13151e-06  1.74143e+08
       881.50000  4.85589e-06  2.04724e+08
       881.60000  4.85589e-06  2.04724e+08
       881.70000  4.85589e-06  2.04724e+08
       881.80000  4.85589e-06  2.04773e+08
       881.90000  4.85589e-06  2.04773e+08
       882.00000  4.85589e-06  2.04822e+08
       882.10000  4.85589e-06  2.05064e+08
       882.20000  4.85589e-06  2.05259e+08
       882.30000  4.85589e-06  2.05453e+08
       882.40000  4.85589e-06  2.05647e+08
       882.50000  5.21213e-06  2.20942e+08
       882.60000  5.21213e-06  2.21099e+08
       882.70000  5.21213e-06  2.21255e+08
       882.80000  5.21213e-06  2.21411e+08
       882.90000  5.21213e-06  2.21516e+08
       883.00000  5.21213e-06  2.21620e+08
       883.10000  5.21213e-06  2.21724e+08
       883.20000  5.21213e-06  2.21828e+08
       883.30000  5.21213e-06  2.21881e+08
       883.40000  5.21213e-06  2.21933e+08
       883.50000  5.60869e-06  2.38874e+08
       883.60000  5.60869e-06  2.38874e+08
       883.70000  5.60869e-06  2.38874e+08
       883.80000  5.47842e-06  2.33326e+08
       883.90000  5.47842e-06  2.33271e+08
       884.00000  5.47842e-06  2.33216e+08
       884.10000  5.47842e-06  2.32887e+08
       884.20000  5.47842e-06  2.32559e+08
       884.30000  5.47842e-06  2.32230e+08
       884.40000  5.47842e-06  2.31901e+08
       884.50000  5.70789e-06  2.41272e+08
       884.60000  5.70789e-06  2.40987e+08
       884.70000  5.70789e-06  2.40702e+08
       884.80000  5.70789e-06  2.40473e+08
       884.90000  5.70789e-06  2.40188e+08
       885.00000  5.70789e-06  2.39959e+08
       885.10000  5.70789e-06  2.39788e+08
       885.20000  5.70789e-06  2.39560e+08
       885.30000  5.70789e-06  2.39389e+08
       885.40000  5.70789e-06  2.39217e+08
       885.50000  5.39013e-06  2.25793e+08
       885.60000  5.39013e-06  2.25631e+08
       885.70000  5.39013e-06  2.25523e+08
       885.80000  5.39013e-06  2.25469e+08
       885.90000  5.39013e-06  2.25362e+08
       886.00000  5.39013e-06  2.25308e+08
       886.10000  5.39013e-06  2.25254e+08
       886.20000  5.39013e-06  2.25200e+08
       886.30000  5.26993e-06  2.20178e+08
       886.40000  5.26993e-06  2.20178e+08
       886.50000  5.33127e-06  2.22741e+08
       886.60000  5.33127e-06  2.22794e+08
       886.70000  5.33127e-06  2.22847e+08
       886.80000  5.33127e-06  2.22901e+08
       886.90000  5.33127e-06  2.22954e+08
       887.00000  5.33127e-06  2.23060e+08
       887.10000  5.33127e-06  2.23167e+08
       887.20000  5.33127e-06  2.23274e+08
       887.30000  5.33127e-06  2.23380e+08
       887.40000  5.33127e-06  2.23540e+08
       887.50000  5.16769e-06  2.16836e+08
       887.60000  5.16769e-06  2.17043e+08
       887.70000  5.16769e-06  2.17198e+08
       887.80000  5.16769e-06  2.17405e+08
       887.90000  5.16769e-06  2.17663e+08
       888.00000  5.16769e-06  2.17870e+08
       888.10000  5.16769e-06  2.18128e+08
       888.20000  5.16769e-06  2.18335e+08
       888.30000  5.16769e-06  2.18593e+08
       888.40000  5.16769e-06  2.18800e+08
       888.50000  5.02319e-06  2.12883e+08
       888.60000  5.02319e-06  2.13034e+08
       888.70000  5.02319e-06  2.13184e+08
       888.80000  4.92301e-06  2.09080e+08
       888.90000  4.92301e-06  2.09228e+08
       889.00000  4.92301e-06  2.09376e+08
       889.10000  4.92301e-06  2.09474e+08
       889.20000  4.92301e-06  2.09573e+08
       889.30000  4.92301e-06  2.09671e+08
       889.40000  4.92301e-06  2.09720e+08
       889.50000  4.61834e-06  1.96834e+08
       889.60000  4.61834e-06  1.96880e+08
       889.70000  4.61834e-06  1.96926e+08
       889.80000  4.61834e-06  1.96926e+08
       889.90000  4.61834e-06  1.96926e+08
       890.00000  4.61834e-06  1.96926e+08
       890.10000  4.61834e-06  1.96787e+08
       890.20000  4.61834e-06  1.96649e+08
       890.30000  4.61834e-06  1.96510e+08
       890.40000  4.61834e-06  1.96372e+08
       890.50000  4.52628e-06  1.92321e+08
       890.60000  4.52628e-06  1.92186e+08
       890.70000  4.52628e-06  1.92050e+08
       890.80000  4.52628e-06  1.91914e+08
       890.90000  4.52628e-06  1.91778e+08
       891.00000  4.52628e-06  1.91688e+08
       891.10000  4.52628e-06  1.91552e+08
       891.20000  4.52628e-06  1.91461e+08
       891.30000  4.44576e-06  1.87922e+08
       891.40000  4.44576e-06  1.87834e+08
       891.50000  4.37785e-06  1.84876e+08
       891.60000  4.37785e-06  1.84789e+08
       891.70000  4.37785e-06  1.84701e+08
       891.80000  4.37785e-06  1.84614e+08
       891.90000  4.37785e-06  1.84526e+08
       892.00000  4.37785e-06  1.84439e+08
       892.10000  4.37785e-06  1.84351e+08
       892.20000  4.37785e-06  1.84307e+08
       892.30000  4.37785e-06  1.84220e+08
       892.40000  4.37785e-06  1.84176e+08
       892.50000  4.32957e-06  1.82058e+08
       892.60000  4.32957e-06  1.82015e+08
       892.70000  4.32957e-06  1.81972e+08
       892.80000  4.32957e-06  1.81929e+08
       892.90000  4.32957e-06  1.81885e+08
       893.00000  4.32957e-06  1.81842e+08
       893.10000  4.32957e-06  1.81799e+08
       893.20000  4.32957e-06  1.81755e+08
       893.30000  4.32957e-06  1.81712e+08
       893.40000  4.32957e-06  1.81712e+08
       893.50000  4.29212e-06  1.80097e+08
       893.60000  4.29212e-06  1.80097e+08
       893.70000  4.29212e-06  1.80054e+08
       893.80000  4.21807e-06  1.76948e+08
       893.90000  4.21807e-06  1.76948e+08
       894.00000  4.21807e-06  1.76948e+08
       894.10000  4.21807e-06  1.77074e+08
       894.20000  4.21807e-06  1.77159e+08
       894.30000  4.21807e-06  1.77285e+08
       894.40000  4.21807e-06  1.77370e+08
       894.50000  4.19279e-06  1.76433e+08
       894.60000  4.19279e-06  1.76517e+08
       894.70000  4.19279e-06  1.76600e+08
       894.80000  4.19279e-06  1.76684e+08
       894.90000  4.19279e-06  1.76768e+08
       895.00000  4.19279e-06  1.76852e+08
       895.10000  4.19279e-06  1.76894e+08
       895.20000  4.19279e-06  1.76978e+08
       895.30000  4.19279e-06  1.77020e+08
       895.40000  4.19279e-06  1.77062e+08
       895.50000  4.00585e-06  1.69247e+08
       895.60000  4.00585e-06  1.69287e+08
       895.70000  4.00585e-06  1.69327e+08
       895.80000  4.00585e-06  1.69327e+08
       895.90000  4.00585e-06  1.69367e+08
       896.00000  4.00585e-06  1.69407e+08
       896.10000  4.00585e-06  1.69447e+08
       896.20000  4.00585e-06  1.69447e+08
       896.30000  3.94692e-06  1.66994e+08
       896.40000  3.94692e-06  1.66994e+08
       896.50000  3.93448e-06  1.66468e+08
       896.60000  3.93448e-06  1.66468e+08
       896.70000  3.93448e-06  1.66468e+08
       896.80000  3.93448e-06  1.66468e+08
       896.90000  3.93448e-06  1.66468e+08
       897.00000  3.93448e-06  1.66429e+08
       897.10000  3.93448e-06  1.66429e+08
       897.20000  3.93448e-06  1.66389e+08
       897.30000  3.93448e-06  1.66350e+08
       897.40000  3.93448e-06  1.66311e+08
       897.50000  3.75600e-06  1.58691e+08
       897.60000  3.75600e-06  1.58653e+08
       897.70000  3.75600e-06  1.58578e+08
       897.80000  3.75600e-06  1.58541e+08
       897.90000  3.75600e-06  1.58465e+08
       898.00000  3.75600e-06  1.58390e+08
       898.10000  3.75600e-06  1.58278e+08
       898.20000  3.75600e-06  1.58203e+08
       898.30000  3.75600e-06  1.58127e+08
       898.40000  3.75600e-06  1.58015e+08
       898.50000  3.74173e-06  1.57302e+08
       898.60000  3.74173e-06  1.57190e+08
       898.70000  3.74173e-06  1.57078e+08
       898.80000  3.68645e-06  1.54647e+08
       898.90000  3.68645e-06  1.54499e+08
       899.00000  3.68645e-06  1.54388e+08
       899.10000  3.68645e-06  1.54241e+08
       899.20000  3.68645e-06  1.54094e+08
       899.30000  3.68645e-06  1.53946e+08
       899.40000  3.68645e-06  1.53799e+08
       899.50000  3.67207e-06  1.53052e+08
       899.60000  3.67207e-06  1.52868e+08
       899.70000  3.67207e-06  1.52721e+08
       899.80000  3.67207e-06  1.52538e+08
       899.90000  3.67207e-06  1.52354e+08
       900.00000  3.67207e-06  1.52171e+08
       900.10000  3.67207e-06  1.51730e+08
       900.20000  3.67207e-06  1.51363e+08
       900.30000  3.67207e-06  1.50959e+08
       900.40000  3.67207e-06  1.50628e+08
       900.50000  3.66383e-06  1.49961e+08
       900.60000  3.66383e-06  1.49668e+08
       900.70000  3.66383e-06  1.49374e+08
       900.80000  3.66383e-06  1.49155e+08
       900.90000  3.66383e-06  1.48935e+08
       901.00000  3.66383e-06  1.48715e+08
       901.10000  3.66383e-06  1.48568e+08
       901.20000  3.66383e-06  1.48422e+08
       901.30000  3.61180e-06  1.46169e+08
       901.40000  3.61180e-06  1.46097e+08
       901.50000  3.44530e-06  1.39293e+08
       901.60000  3.44530e-06  1.39259e+08
       901.70000  3.44530e-06  1.39224e+08
       901.80000  3.44530e-06  1.39224e+08
       901.90000  3.44530e-06  1.39259e+08
       902.00000  3.44530e-06  1.39328e+08
       902.10000  3.44530e-06  1.39810e+08
       902.20000  3.44530e-06  1.40258e+08
       902.30000  3.44530e-06  1.40706e+08
       902.40000  3.44530e-06  1.41119e+08
       902.50000  3.43312e-06  1.41033e+08
       902.60000  3.43312e-06  1.41410e+08
       902.70000  3.43312e-06  1.41788e+08
       902.80000  3.43312e-06  1.42131e+08
       902.90000  3.43312e-06  1.42474e+08
       903.00000  3.43312e-06  1.42783e+08
       903.10000  3.43312e-06  1.43092e+08
       903.20000  3.43312e-06  1.43367e+08
       903.30000  3.43312e-06  1.43607e+08
       903.40000  3.43312e-06  1.43848e+08
       903.50000  3.26170e-06  1.36861e+08
       903.60000  3.26170e-06  1.37057e+08
       903.70000  3.26170e-06  1.37252e+08
       903.80000  3.21625e-06  1.35468e+08
       903.90000  3.21625e-06  1.35629e+08
       904.00000  3.21625e-06  1.35726e+08
       904.10000  3.21625e-06  1.35822e+08
       904.20000  3.21625e-06  1.35919e+08
       904.30000  3.21625e-06  1.35983e+08
       904.40000  3.21625e-06  1.36015e+08
       904.50000  3.19536e-06  1.35164e+08
       904.60000  3.19536e-06  1.35196e+08
       904.70000  3.19536e-06  1.35196e+08
       904.80000  3.19536e-06  1.35164e+08
       904.90000  3.19536e-06  1.35132e+08
       905.00000  3.19536e-06  1.35068e+08
       905.10000  3.19536e-06  1.35004e+08
       905.20000  3.19536e-06  1.34908e+08
       905.30000  3.19536e-06  1.34812e+08
       905.40000  3.19536e-06  1.34684e+08
       905.50000  3.17297e-06  1.33582e+08
       905.60000  3.17297e-06  1.33423e+08
       905.70000  3.17297e-06  1.33265e+08
       905.80000  3.17297e-06  1.33074e+08
       905.90000  3.17297e-06  1.32852e+08
       906.00000  3.17297e-06  1.32630e+08
       906.10000  3.17297e-06  1.32503e+08
       906.20000  3.17297e-06  1.32408e+08
       906.30000  3.12712e-06  1.30401e+08
       906.40000  3.12712e-06  1.30276e+08
       906.50000  2.95546e-06  1.23036e+08
       906.60000  2.95546e-06  1.22947e+08
       906.70000  2.95546e-06  1.22859e+08
       906.80000  2.95546e-06  1.22770e+08
       906.90000  2.95546e-06  1.22681e+08
       907.00000  2.95546e-06  1.22593e+08
       907.10000  2.95546e-06  1.22504e+08
       907.20000  2.95546e-06  1.22415e+08
       907.30000  2.95546e-06  1.22327e+08
       907.40000  2.95546e-06  1.22238e+08
       907.50000  2.93090e-06  1.21134e+08
       907.60000  2.93090e-06  1.21075e+08
       907.70000  2.93090e-06  1.20987e+08
       907.80000  2.93090e-06  1.20899e+08
       907.90000  2.93090e-06  1.20841e+08
       908.00000  2.93090e-06  1.20753e+08
       908.10000  2.93090e-06  1.20636e+08
       908.20000  2.93090e-06  1.20548e+08
       908.30000  2.93090e-06  1.20430e+08
       908.40000  2.93090e-06  1.20343e+08
       908.50000  2.76039e-06  1.13259e+08
       908.60000  2.76039e-06  1.13176e+08
       908.70000  2.76039e-06  1.13121e+08
       908.80000  2.71873e-06  1.11332e+08
       908.90000  2.71873e-06  1.11277e+08
       909.00000  2.71873e-06  1.11223e+08
       909.10000  2.71873e-06  1.11169e+08
       909.20000  2.71873e-06  1.11114e+08
       909.30000  2.71873e-06  1.11060e+08
       909.40000  2.71873e-06  1.11033e+08
       909.50000  2.69392e-06  1.09993e+08
       909.60000  2.69392e-06  1.09966e+08
       909.70000  2.69392e-06  1.09939e+08
       909.80000  2.69392e-06  1.09912e+08
       909.90000  2.69392e-06  1.09912e+08
       910.00000  2.69392e-06  1.09885e+08
       910.10000  2.69392e-06  1.09885e+08
       910.20000  2.69392e-06  1.09885e+08
       910.30000  2.69392e-06  1.09912e+08
       910.40000  2.69392e-06  1.09912e+08
       910.50000  2.66757e-06  1.08864e+08
       910.60000  2.66757e-06  1.08864e+08
       910.70000  2.66757e-06  1.08890e+08
       910.80000  2.66757e-06  1.08944e+08
       910.90000  2.66757e-06  1.08970e+08
       911.00000  2.66757e-06  1.08997e+08
       911.10000  2.66757e-06  1.09050e+08
       911.20000  2.66757e-06  1.09104e+08
       911.30000  2.62505e-06  1.07417e+08
       911.40000  2.62505e-06  1.07469e+08
       911.50000  2.46287e-06  1.00904e+08
       911.60000  2.46287e-06  1.00953e+08
       911.70000  2.46287e-06  1.01027e+08
       911.80000  2.46287e-06  1.01101e+08
       911.90000  2.46287e-06  1.01175e+08
       912.00000  2.46287e-06  1.01273e+08
       912.10000  2.46287e-06  1.01396e+08
       912.20000  2.46287e-06  1.01495e+08
       912.30000  2.46287e-06  1.01593e+08
       912.40000  2.46287e-06  1.01692e+08
       912.50000  2.43986e-06  1.00839e+08
       912.60000  2.43986e-06  1.00937e+08
       912.70000  2.43986e-06  1.01034e+08
       912.80000  2.43986e-06  1.01108e+08
       912.90000  2.43986e-06  1.01181e+08
       913.00000  2.43986e-06  1.01254e+08
       913.10000  2.43986e-06  1.01327e+08
       913.20000  2.43986e-06  1.01376e+08
       913.30000  2.43986e-06  1.01449e+08
       913.40000  2.43986e-06  1.01498e+08
       913.50000  2.28201e-06  9.49774e+07
       913.60000  2.28201e-06  9.50230e+07
       913.70000  2.28201e-06  9.50459e+07
       913.80000  2.24290e-06  9.34393e+07
       913.90000  2.24290e-06  9.34841e+07
       914.00000  2.24290e-06  9.35065e+07
       914.10000  2.24290e-06  9.34617e+07
       914.20000  2.24290e-06  9.34393e+07
       914.30000  2.24290e-06  9.34168e+07
       914.40000  2.24290e-06  9.33944e+07
       914.50000  2.22135e-06  9.24747e+07
       914.60000  2.22135e-06  9.24303e+07
       914.70000  2.22135e-06  9.24081e+07
       914.80000  2.22135e-06  9.23859e+07
       914.90000  2.22135e-06  9.23637e+07
       915.00000  2.22135e-06  9.23415e+07
       915.10000  2.22135e-06  9.23192e+07
       915.20000  2.22135e-06  9.22970e+07
       915.30000  2.22135e-06  9.22748e+07
       915.40000  2.22135e-06  9.22526e+07
       915.50000  2.19918e-06  9.13099e+07
       915.60000  2.19918e-06  9.12879e+07
       915.70000  2.19918e-06  9.12659e+07
       915.80000  2.19918e-06  9.12439e+07
       915.90000  2.19918e-06  9.12220e+07
       916.00000  2.19918e-06  9.12000e+07
       916.10000  2.19918e-06  9.11780e+07
       916.20000  2.19918e-06  9.11560e+07
       916.30000  2.15830e-06  8.94400e+07
       916.40000  2.15830e-06  8.94184e+07
       916.50000  2.13794e-06  8.85534e+07
       916.60000  2.13794e-06  8.85534e+07
       916.70000  2.13794e-06  8.85320e+07
       916.80000  2.13794e-06  8.85106e+07
       916.90000  2.13794e-06  8.84893e+07
       917.00000  2.13794e-06  8.84679e+07
       917.10000  2.13794e-06  8.84679e+07
       917.20000  2.13794e-06  8.84465e+07
       917.30000  2.13794e-06  8.84251e+07
       917.40000  2.13794e-06  8.84037e+07
       917.50000  1.99198e-06  8.23683e+07
       917.60000  1.99198e-06  8.23484e+07
       917.70000  1.99198e-06  8.23285e+07
       917.80000  1.99198e-06  8.23285e+07
       917.90000  1.99198e-06  8.23086e+07
       918.00000  1.99198e-06  8.22887e+07
       918.10000  1.99198e-06  8.23285e+07
       918.20000  1.99198e-06  8.23683e+07
       918.30000  1.99198e-06  8.24082e+07
       918.40000  1.99198e-06  8.24281e+07
       918.50000  1.97232e-06  8.16342e+07
       918.60000  1.97232e-06  8.16539e+07
       918.70000  1.97232e-06  8.16539e+07
       918.80000  1.93542e-06  8.01265e+07
       918.90000  1.93542e-06  8.01265e+07
       919.00000  1.93542e-06  8.01265e+07
       919.10000  1.93542e-06  8.01071e+07
       919.20000  1.93542e-06  8.00878e+07
       919.30000  1.93542e-06  8.00684e+07
       919.40000  1.93542e-06  8.00297e+07
       919.50000  1.91584e-06  7.91816e+07
       919.60000  1.91584e-06  7.91433e+07
       919.70000  1.91584e-06  7.91050e+07
       919.80000  1.91584e-06  7.90475e+07
       919.90000  1.91584e-06  7.90092e+07
       920.00000  1.91584e-06  7.89517e+07
       920.10000  1.91584e-06  7.87793e+07
       920.20000  1.91584e-06  7.86260e+07
       920.30000  1.91584e-06  7.84728e+07
       920.40000  1.91584e-06  7.83195e+07
       920.50000  1.89597e-06  7.73557e+07
       920.60000  1.89597e-06  7.72230e+07
       920.70000  1.89597e-06  7.70902e+07
       920.80000  1.89597e-06  7.69765e+07
       920.90000  1.89597e-06  7.68438e+07
       921.00000  1.89597e-06  7.67300e+07
       921.10000  1.89597e-06  7.66162e+07
       921.20000  1.89597e-06  7.65214e+07
       921.30000  1.85956e-06  7.49404e+07
       921.40000  1.85956e-06  7.48474e+07
       921.50000  1.83998e-06  7.39672e+07
       921.60000  1.83998e-06  7.38936e+07
       921.70000  1.83998e-06  7.38200e+07
       921.80000  1.83998e-06  7.37464e+07
       921.90000  1.83998e-06  7.36728e+07
       922.00000  1.83998e-06  7.36176e+07
       922.10000  1.83998e-06  7.35440e+07
       922.20000  1.83998e-06  7.35072e+07
       922.30000  1.83998e-06  7.34520e+07
       922.40000  1.83998e-06  7.34152e+07
       922.50000  1.70648e-06  6.80374e+07
       922.60000  1.70648e-06  6.80203e+07
       922.70000  1.70648e-06  6.79862e+07
       922.80000  1.70648e-06  6.79692e+07
       922.90000  1.70648e-06  6.79521e+07
       923.00000  1.70648e-06  6.79350e+07
       923.10000  1.70648e-06  6.79350e+07
       923.20000  1.70648e-06  6.79180e+07
       923.30000  1.70648e-06  6.79180e+07
       923.40000  1.70648e-06  6.79350e+07
       923.50000  1.68723e-06  6.71686e+07
       923.60000  1.68723e-06  6.71855e+07
       923.70000  1.68723e-06  6.72024e+07
       923.80000  1.65440e-06  6.59278e+07
       923.90000  1.65440e-06  6.59444e+07
       924.00000  1.65440e-06  6.59774e+07
       924.10000  1.65440e-06  6.59774e+07
       924.20000  1.65440e-06  6.59774e+07
       924.30000  1.65440e-06  6.59774e+07
       924.40000  1.65440e-06  6.59774e+07
       924.50000  1.63483e-06  6.51971e+07
       924.60000  1.63483e-06  6.51971e+07
       924.70000  1.63483e-06  6.52134e+07
       924.80000  1.63483e-06  6.52298e+07
       924.90000  1.63483e-06  6.52298e+07
       925.00000  1.63483e-06  6.52461e+07
       925.10000  1.63483e-06  6.52788e+07
       925.20000  1.63483e-06  6.52952e+07
       925.30000  1.63483e-06  6.53115e+07
       925.40000  1.63483e-06  6.53442e+07
       925.50000  1.50753e-06  6.02862e+07
       925.60000  1.50753e-06  6.03163e+07
       925.70000  1.50753e-06  6.03465e+07
       925.80000  1.50753e-06  6.03766e+07
       925.90000  1.50753e-06  6.04068e+07
       926.00000  1.50753e-06  6.04520e+07
       926.10000  1.50753e-06  6.05425e+07
       926.20000  1.50753e-06  6.06480e+07
       926.30000  1.47815e-06  5.95548e+07
       926.40000  1.47815e-06  5.96435e+07
       926.50000  1.46007e-06  5.90016e+07
       926.60000  1.46007e-06  5.90746e+07
       926.70000  1.46007e-06  5.91476e+07
       926.80000  1.46007e-06  5.92206e+07
       926.90000  1.46007e-06  5.92936e+07
       927.00000  1.46007e-06  5.93520e+07
       927.10000  1.46007e-06  5.94104e+07
       927.20000  1.46007e-06  5.94688e+07
       927.30000  1.46007e-06  5.95126e+07
       927.40000  1.46007e-06  5.95564e+07
       927.50000  1.44132e-06  5.88345e+07
       927.60000  1.44132e-06  5.88634e+07
       927.70000  1.44132e-06  5.89066e+07
       927.80000  1.44132e-06  5.89354e+07
       927.90000  1.44132e-06  5.89498e+07
       928.00000  1.44132e-06  5.89643e+07
       928.10000  1.44132e-06  5.89354e+07
       928.20000  1.44132e-06  5.89066e+07
       928.30000  1.44132e-06  5.88634e+07
       928.40000  1.44132e-06  5.88345e+07
       928.50000  1.42184e-06  5.80111e+07
       928.60000  1.42184e-06  5.79827e+07
       928.70000  1.42184e-06  5.79542e+07
       928.80000  1.39434e-06  5.68052e+07
       928.90000  1.39434e-06  5.67773e+07
       929.00000  1.39434e-06  5.67634e+07
       929.10000  1.39434e-06  5.67355e+07
       929.20000  1.39434e-06  5.67076e+07
       929.30000  1.39434e-06  5.66937e+07
       929.40000  1.39434e-06  5.66658e+07
       929.50000  1.27711e-06  5.18889e+07
       929.60000  1.27711e-06  5.18761e+07
       929.70000  1.27711e-06  5.18506e+07
       929.80000  1.27711e-06  5.18378e+07
       929.90000  1.27711e-06  5.18250e+07
       930.00000  1.27711e-06  5.18122e+07
       930.10000  1.27711e-06  5.18122e+07
       930.20000  1.27711e-06  5.18122e+07
       930.30000  1.27711e-06  5.17995e+07
       930.40000  1.27711e-06  5.17995e+07
       930.50000  1.35568e-06  5.49863e+07
       930.60000  1.35568e-06  5.49863e+07
       930.70000  1.35568e-06  5.49727e+07
       930.80000  1.35568e-06  5.49727e+07
       930.90000  1.35568e-06  5.49727e+07
       931.00000  1.35568e-06  5.49727e+07
       931.10000  1.35568e-06  5.49727e+07
       931.20000  1.35568e-06  5.49591e+07
       931.30000  1.33088e-06  5.39539e+07
       931.40000  1.33088e-06  5.39539e+07
       931.50000  1.21791e-06  4.93740e+07
       931.60000  1.21791e-06  4.93740e+07
       931.70000  1.21791e-06  4.93740e+07
       931.80000  1.21791e-06  4.93740e+07
       931.90000  1.21791e-06  4.93740e+07
       932.00000  1.21791e-06  4.93740e+07
       932.10000  1.21791e-06  4.93740e+07
       932.20000  1.21791e-06  4.93740e+07
       932.30000  1.21791e-06  4.93740e+07
       932.40000  1.21791e-06  4.93740e+07
       932.50000  1.20000e-06  4.86479e+07
       932.60000  1.20000e-06  4.86479e+07
       932.70000  1.20000e-06  4.86479e+07
       932.80000  1.20000e-06  4.86599e+07
       932.90000  1.20000e-06  4.86599e+07
       933.00000  1.20000e-06  4.86599e+07
       933.10000  1.20000e-06  4.86599e+07
       933.20000  1.20000e-06  4.86599e+07
       933.30000  1.20000e-06  4.86719e+07
       933.40000  1.20000e-06  4.86719e+07
       933.50000  1.18177e-06  4.79326e+07
       933.60000  1.18177e-06  4.79444e+07
       933.70000  1.18177e-06  4.79444e+07
       933.80000  1.16173e-06  4.71315e+07
       933.90000  1.16173e-06  4.71431e+07
       934.00000  1.16173e-06  4.71431e+07
       934.10000  1.16173e-06  4.71083e+07
       934.20000  1.16173e-06  4.70734e+07
       934.30000  1.16173e-06  4.70386e+07
       934.40000  1.16173e-06  4.70037e+07
       934.50000  1.14350e-06  4.62317e+07
       934.60000  1.14350e-06  4.62089e+07
       934.70000  1.14350e-06  4.61860e+07
       934.80000  1.14350e-06  4.61517e+07
       934.90000  1.14350e-06  4.61288e+07
       935.00000  1.14350e-06  4.61174e+07
       935.10000  1.14350e-06  4.60945e+07
       935.20000  1.14350e-06  4.60717e+07
       935.30000  1.14350e-06  4.60602e+07
       935.40000  1.14350e-06  4.60488e+07
       935.50000  1.12564e-06  4.53184e+07
       935.60000  1.12564e-06  4.53071e+07
       935.70000  1.12564e-06  4.52959e+07
       935.80000  1.12564e-06  4.52846e+07
       935.90000  1.12564e-06  4.52846e+07
       936.00000  1.12564e-06  4.52734e+07
       936.10000  1.12564e-06  4.53071e+07
       936.20000  1.12564e-06  4.53409e+07
       936.30000  1.10713e-06  4.46285e+07
       936.40000  1.10713e-06  4.46617e+07
       936.50000  1.00602e-06  4.06029e+07
       936.60000  1.00602e-06  4.06230e+07
       936.70000  1.00602e-06  4.06431e+07
       936.80000  1.00602e-06  4.06633e+07
       936.90000  1.00602e-06  4.06733e+07
       937.00000  1.00602e-06  4.06934e+07
       937.10000  1.00602e-06  4.07035e+07
       937.20000  1.00602e-06  4.07136e+07
       937.30000  1.00602e-06  4.07136e+07
       937.40000  1.00602e-06  4.07236e+07
       937.50000  9.89636e-07  4.00605e+07
       937.60000  9.89636e-07  4.00605e+07
       937.70000  9.89636e-07  4.00605e+07
       937.80000  9.89636e-07  4.00605e+07
       937.90000  9.89636e-07  4.00506e+07
       938.00000  9.89636e-07  4.00506e+07
       938.10000  9.89636e-07  4.00407e+07
       938.20000  9.89636e-07  4.00209e+07
       938.30000  9.89636e-07  4.00110e+07
       938.40000  9.89636e-07  3.99912e+07
       938.50000  9.73785e-07  3.93409e+07
       938.60000  9.73785e-07  3.93214e+07
       938.70000  9.73785e-07  3.92922e+07
       938.80000  9.58605e-07  3.86605e+07
       938.90000  9.58605e-07  3.86318e+07
       939.00000  9.58605e-07  3.86126e+07
       939.10000  9.58605e-07  3.85839e+07
       939.20000  9.58605e-07  3.85455e+07
       939.30000  9.58605e-07  3.85168e+07
       939.40000  9.58605e-07  3.84784e+07
       939.50000  9.42721e-07  3.78031e+07
       939.60000  9.42721e-07  3.77654e+07
       939.70000  9.42721e-07  3.77277e+07
       939.80000  9.42721e-07  3.76900e+07
       939.90000  9.42721e-07  3.76428e+07
       940.00000  9.42721e-07  3.75957e+07
       940.10000  9.42721e-07  3.75297e+07
       940.20000  9.42721e-07  3.74637e+07
       940.30000  9.42721e-07  3.74072e+07
       940.40000  9.42721e-07  3.73506e+07
       940.50000  9.27411e-07  3.66884e+07
       940.60000  9.27411e-07  3.66420e+07
       940.70000  9.27411e-07  3.65956e+07
       940.80000  9.27411e-07  3.65493e+07
       940.90000  9.27411e-07  3.65029e+07
       941.00000  9.27411e-07  3.64658e+07
       941.10000  9.27411e-07  3.64287e+07
       941.20000  9.27411e-07  3.64009e+07
       941.30000  9.13590e-07  3.58310e+07
       941.40000  9.13590e-07  3.58036e+07
       941.50000  8.23843e-07  3.22617e+07
       941.60000  8.23843e-07  3.22452e+07
       941.70000  8.23843e-07  3.22287e+07
       941.80000  8.23843e-07  3.22122e+07
       941.90000  8.23843e-07  3.21958e+07
       942.00000  8.23843e-07  3.21875e+07
       942.10000  8.23843e-07  3.22122e+07
       942.20000  8.23843e-07  3.22287e+07
       942.30000  8.23843e-07  3.22534e+07
       942.40000  8.23843e-07  3.22699e+07
       942.50000  8.10553e-07  3.17656e+07
       942.60000  8.10553e-07  3.17899e+07
       942.70000  8.10553e-07  3.18061e+07
       942.80000  8.10553e-07  3.18223e+07
       942.90000  8.10553e-07  3.18385e+07
       943.00000  8.10553e-07  3.18547e+07
       943.10000  8.10553e-07  3.18791e+07
       943.20000  8.10553e-07  3.18953e+07
       943.30000  8.10553e-07  3.19115e+07
       943.40000  8.10553e-07  3.19277e+07
       943.50000  7.97153e-07  3.14158e+07
       943.60000  7.97153e-07  3.14317e+07
       943.70000  7.97153e-07  3.14477e+07
       943.80000  7.84995e-07  3.09838e+07
       943.90000  7.84995e-07  3.09995e+07
       944.00000  7.84995e-07  3.10152e+07
       944.10000  7.84995e-07  3.10309e+07
       944.20000  7.84995e-07  3.10466e+07
       944.30000  7.84995e-07  3.10544e+07
       944.40000  7.84995e-07  3.10701e+07
       944.50000  7.72326e-07  3.05841e+07
       944.60000  7.72326e-07  3.05996e+07
       944.70000  7.72326e-07  3.06073e+07
       944.80000  7.72326e-07  3.06227e+07
       944.90000  7.72326e-07  3.06382e+07
       945.00000  7.72326e-07  3.06459e+07
       945.10000  7.72326e-07  3.06614e+07
       945.20000  7.72326e-07  3.06768e+07
       945.30000  7.72326e-07  3.06845e+07
       945.40000  7.72326e-07  3.07000e+07
       945.50000  7.59790e-07  3.02092e+07
       945.60000  7.59790e-07  3.02244e+07
       945.70000  7.59790e-07  3.02320e+07
       945.80000  7.59790e-07  3.02472e+07
       945.90000  7.59790e-07  3.02548e+07
       946.00000  7.59790e-07  3.02624e+07
       946.10000  7.59790e-07  3.02776e+07
       946.20000  7.59790e-07  3.02928e+07
       946.30000  7.48387e-07  2.98532e+07
       946.40000  7.48387e-07  2.98681e+07
       946.50000  7.35942e-07  2.93862e+07
       946.60000  7.35942e-07  2.93935e+07
       946.70000  7.35942e-07  2.94082e+07
       946.80000  7.35942e-07  2.94156e+07
       946.90000  7.35942e-07  2.94230e+07
       947.00000  7.35942e-07  2.94377e+07
       947.10000  7.35942e-07  2.94450e+07
       947.20000  7.35942e-07  2.94524e+07
       947.30000  7.35942e-07  2.94598e+07
       947.40000  7.35942e-07  2.94671e+07
       947.50000  6.57999e-07  2.63463e+07
       947.60000  6.57999e-07  2.63528e+07
       947.70000  6.57999e-07  2.63594e+07
       947.80000  6.57999e-07  2.63594e+07
       947.90000  6.57999e-07  2.63660e+07
       948.00000  6.57999e-07  2.63660e+07
       948.10000  6.57999e-07  2.63660e+07
       948.20000  6.57999e-07  2.63660e+07
       948.30000  6.57999e-07  2.63594e+07
       948.40000  6.57999e-07  2.63594e+07
       948.50000  6.47229e-07  2.59215e+07
       948.60000  6.47229e-07  2.59215e+07
       948.70000  6.47229e-07  2.59215e+07
       948.80000  6.36836e-07  2.54989e+07
       948.90000  6.36836e-07  2.54989e+07
       949.00000  6.36836e-07  2.54926e+07
       949.10000  6.36836e-07  2.54926e+07
       949.20000  6.36836e-07  2.54862e+07
       949.30000  6.36836e-07  2.54862e+07
       949.40000  6.36836e-07  2.54798e+07
       949.50000  6.26009e-07  2.50466e+07
       949.60000  6.26009e-07  2.50404e+07
       949.70000  6.26009e-07  2.50341e+07
       949.80000  6.26009e-07  2.50341e+07
       949.90000  6.26009e-07  2.50278e+07
       950.00000  6.26009e-07  2.50216e+07
       950.10000  6.26009e-07  2.50216e+07
       950.20000  6.26009e-07  2.50153e+07
       950.30000  6.26009e-07  2.50091e+07
       950.40000  6.26009e-07  2.50091e+07
       950.50000  6.17866e-07  2.46776e+07
       950.60000  6.17866e-07  2.46714e+07
       950.70000  6.17866e-07  2.46652e+07
       950.80000  6.17866e-07  2.46652e+07
       950.90000  6.17866e-07  2.46590e+07
       951.00000  6.17866e-07  2.46529e+07
       951.10000  6.17866e-07  2.46467e+07
       951.20000  6.17866e-07  2.46405e+07
       951.30000  6.07981e-07  2.42463e+07
       951.40000  6.07981e-07  2.42402e+07
       951.50000  6.00658e-07  2.39422e+07
       951.60000  6.00658e-07  2.39362e+07
       951.70000  6.00658e-07  2.39302e+07
       951.80000  6.00658e-07  2.39242e+07
       951.90000  6.00658e-07  2.39182e+07
       952.00000  6.00658e-07  2.39122e+07
       952.10000  6.00658e-07  2.38641e+07
       952.20000  6.00658e-07  2.38161e+07
       952.30000  6.00658e-07  2.37740e+07
       952.40000  6.00658e-07  2.37320e+07
       952.50000  5.93050e-07  2.33899e+07
       952.60000  5.93050e-07  2.33484e+07
       952.70000  5.93050e-07  2.33128e+07
       952.80000  5.93050e-07  2.32772e+07
       952.90000  5.93050e-07  2.32416e+07
       953.00000  5.93050e-07  2.32120e+07
       953.10000  5.93050e-07  2.31823e+07
       953.20000  5.93050e-07  2.31527e+07
       953.30000  5.93050e-07  2.31290e+07
       953.40000  5.93050e-07  2.30993e+07
       953.50000  5.85508e-07  2.27821e+07
       953.60000  5.85508e-07  2.27646e+07
       953.70000  5.85508e-07  2.27412e+07
       953.80000  5.75787e-07  2.23463e+07
       953.90000  5.75787e-07  2.23290e+07
       954.00000  5.75787e-07  2.23175e+07
       954.10000  5.75787e-07  2.23117e+07
       954.20000  5.75787e-07  2.23060e+07
       954.30000  5.75787e-07  2.23060e+07
       954.40000  5.75787e-07  2.23060e+07
       954.50000  5.68394e-07  2.20139e+07
       954.60000  5.68394e-07  2.20139e+07
       954.70000  5.68394e-07  2.20139e+07
       954.80000  5.68394e-07  2.20139e+07
       954.90000  5.68394e-07  2.20196e+07
       955.00000  5.68394e-07  2.20196e+07
       955.10000  5.68394e-07  2.20253e+07
       955.20000  5.68394e-07  2.20253e+07
       955.30000  5.68394e-07  2.20310e+07
       955.40000  5.68394e-07  2.20366e+07
       955.50000  5.60781e-07  2.17471e+07
       955.60000  5.60781e-07  2.17527e+07
       955.70000  5.60781e-07  2.17583e+07
       955.80000  5.60781e-07  2.17695e+07
       955.90000  5.60781e-07  2.17751e+07
       956.00000  5.60781e-07  2.17863e+07
       956.10000  5.60781e-07  2.17976e+07
       956.20000  5.60781e-07  2.18032e+07
       956.30000  5.51627e-07  2.14583e+07
       956.40000  5.51627e-07  2.14748e+07
       956.50000  4.89743e-07  1.90755e+07
       956.60000  4.89743e-07  1.90853e+07
       956.70000  4.89743e-07  1.91000e+07
       956.80000  4.89743e-07  1.91098e+07
       956.90000  4.89743e-07  1.91245e+07
       957.00000  4.89743e-07  1.91392e+07
       957.10000  4.89743e-07  1.91538e+07
       957.20000  4.89743e-07  1.91685e+07
       957.30000  4.89743e-07  1.91881e+07
       957.40000  4.89743e-07  1.92028e+07
       957.50000  4.82942e-07  1.89507e+07
       957.60000  4.82942e-07  1.89700e+07
       957.70000  4.82942e-07  1.89893e+07
       957.80000  4.82942e-07  1.90086e+07
       957.90000  4.82942e-07  1.90279e+07
       958.00000  4.82942e-07  1.90472e+07
       958.10000  4.82942e-07  1.90472e+07
       958.20000  4.82942e-07  1.90424e+07
       958.30000  4.82942e-07  1.90424e+07
       958.40000  4.82942e-07  1.90424e+07
       958.50000  4.75961e-07  1.87671e+07
       958.60000  4.75961e-07  1.87624e+07
       958.70000  4.75961e-07  1.87624e+07
       958.80000  4.67571e-07  1.84316e+07
       958.90000  4.67571e-07  1.84270e+07
       959.00000  4.67571e-07  1.84270e+07
       959.10000  4.67571e-07  1.84223e+07
       959.20000  4.67571e-07  1.84223e+07
       959.30000  4.67571e-07  1.84176e+07
       959.40000  4.67571e-07  1.84129e+07
       959.50000  4.60630e-07  1.81396e+07
       959.60000  4.60630e-07  1.81350e+07
       959.70000  4.60630e-07  1.81350e+07
       959.80000  4.60630e-07  1.81304e+07
       959.90000  4.60630e-07  1.81258e+07
       960.00000  4.60630e-07  1.81212e+07
       960.10000  4.60630e-07  1.81166e+07
       960.20000  4.60630e-07  1.81120e+07
       960.30000  4.60630e-07  1.81074e+07
       960.40000  4.60630e-07  1.81028e+07
       960.50000  4.53605e-07  1.78221e+07
       960.60000  4.53605e-07  1.78176e+07
       960.70000  4.53605e-07  1.78131e+07
       960.80000  4.53605e-07  1.78085e+07
       960.90000  4.53605e-07  1.78040e+07
       961.00000  4.53605e-07  1.77994e+07
       961.10000  4.53605e-07  1.77949e+07
       961.20000  4.53605e-07  1.77904e+07
       961.30000  4.45724e-07  1.74768e+07
       961.40000  4.45724e-07  1.74724e+07
       961.50000  4.38719e-07  1.71934e+07
       961.60000  4.38719e-07  1.71846e+07
       961.70000  4.38719e-07  1.71802e+07
       961.80000  4.38719e-07  1.71758e+07
       961.90000  4.38719e-07  1.71714e+07
       962.00000  4.38719e-07  1.71671e+07
       962.10000  4.38719e-07  1.71583e+07
       962.20000  4.38719e-07  1.71539e+07
       962.30000  4.38719e-07  1.71495e+07
       962.40000  4.38719e-07  1.71407e+07
       962.50000  4.31469e-07  1.68532e+07
       962.60000  4.31469e-07  1.68488e+07
       962.70000  4.31469e-07  1.68402e+07
       962.80000  4.31469e-07  1.68359e+07
       962.90000  4.31469e-07  1.68273e+07
       963.00000  4.31469e-07  1.68230e+07
       963.10000  4.31469e-07  1.68186e+07
       963.20000  4.31469e-07  1.68100e+07
       963.30000  4.31469e-07  1.68057e+07
       963.40000  4.31469e-07  1.67971e+07
       963.50000  4.24364e-07  1.65162e+07
       963.60000  4.24364e-07  1.65078e+07
       963.70000  4.24364e-07  1.65035e+07
       963.80000  4.16657e-07  1.61955e+07
       963.90000  4.16657e-07  1.61871e+07
       964.00000  4.16657e-07  1.61830e+07
       964.10000  4.16657e-07  1.61746e+07
       964.20000  4.16657e-07  1.61621e+07
       964.30000  4.16657e-07  1.61538e+07
       964.40000  4.16657e-07  1.61496e+07
       964.50000  4.09512e-07  1.58645e+07
       964.60000  4.09512e-07  1.58563e+07
       964.70000  4.09512e-07  1.58522e+07
       964.80000  4.09512e-07  1.58440e+07
       964.90000  4.09512e-07  1.58399e+07
       965.00000  4.09512e-07  1.58317e+07
       965.10000  4.09512e-07  1.58276e+07
       965.20000  4.09512e-07  1.58235e+07
       965.30000  4.09512e-07  1.58194e+07
       965.40000  4.09512e-07  1.58194e+07
       965.50000  4.02252e-07  1.55350e+07
       965.60000  4.02252e-07  1.55309e+07
       965.70000  4.02252e-07  1.55309e+07
       965.80000  4.02252e-07  1.55269e+07
       965.90000  4.02252e-07  1.55269e+07
       966.00000  4.02252e-07  1.55269e+07
       966.10000  4.02252e-07  1.55309e+07
       966.20000  4.02252e-07  1.55350e+07
       966.30000  3.94813e-07  1.52556e+07
       966.40000  3.94813e-07  1.52595e+07
       966.50000  3.87600e-07  1.49846e+07
       966.60000  3.87600e-07  1.49885e+07
       966.70000  3.87600e-07  1.49924e+07
       966.80000  3.87600e-07  1.49963e+07
       966.90000  3.87600e-07  1.50001e+07
       967.00000  3.87600e-07  1.50040e+07
       967.10000  3.87600e-07  1.50079e+07
       967.20000  3.87600e-07  1.50118e+07
       967.30000  3.87600e-07  1.50156e+07
       967.40000  3.87600e-07  1.50195e+07
       967.50000  3.80290e-07  1.47363e+07
       967.60000  3.80290e-07  1.47401e+07
       967.70000  3.80290e-07  1.47439e+07
       967.80000  3.80290e-07  1.47439e+07
       967.90000  3.80290e-07  1.47477e+07
       968.00000  3.80290e-07  1.47515e+07
       968.10000  3.80290e-07  1.47515e+07
       968.20000  3.80290e-07  1.47553e+07
       968.30000  3.80290e-07  1.47553e+07
       968.40000  3.80290e-07  1.47553e+07
       968.50000  3.73124e-07  1.44809e+07
       968.60000  3.73124e-07  1.44809e+07
       968.70000  3.73124e-07  1.44809e+07
       968.80000  3.66210e-07  1.42163e+07
       968.90000  3.66210e-07  1.42163e+07
       969.00000  3.66210e-07  1.42163e+07
       969.10000  3.66210e-07  1.42163e+07
       969.20000  3.66210e-07  1.42163e+07
       969.30000  3.66210e-07  1.42163e+07
       969.40000  3.66210e-07  1.42163e+07
       969.50000  3.18925e-07  1.23807e+07
       969.60000  3.18925e-07  1.23807e+07
       969.70000  3.18925e-07  1.23807e+07
       969.80000  3.18925e-07  1.23807e+07
       969.90000  3.18925e-07  1.23807e+07
       970.00000  3.18925e-07  1.23807e+07
       970.10000  3.18925e-07  1.23839e+07
       970.20000  3.18925e-07  1.23871e+07
       970.30000  3.18925e-07  1.23871e+07
       970.40000  3.18925e-07  1.23902e+07
       970.50000  3.12411e-07  1.21372e+07
       970.60000  3.12411e-07  1.21403e+07
       970.70000  3.12411e-07  1.21403e+07
       970.80000  3.12411e-07  1.21403e+07
       970.90000  3.12411e-07  1.21403e+07
       971.00000  3.12411e-07  1.21403e+07
       971.10000  3.12411e-07  1.21403e+07
       971.20000  3.12411e-07  1.21372e+07
       971.30000  3.06635e-07  1.19128e+07
       971.40000  3.06635e-07  1.19097e+07
       971.50000  3.00205e-07  1.16600e+07
       971.60000  3.00205e-07  1.16570e+07
       971.70000  3.00205e-07  1.16540e+07
       971.80000  3.00205e-07  1.16510e+07
       971.90000  3.00205e-07  1.16480e+07
       972.00000  3.00205e-07  1.16420e+07
       972.10000  3.00205e-07  1.16300e+07
       972.20000  3.00205e-07  1.16179e+07
       972.30000  3.00205e-07  1.16089e+07
       972.40000  3.00205e-07  1.15969e+07
       972.50000  2.93753e-07  1.13389e+07
       972.60000  2.93753e-07  1.13271e+07
       972.70000  2.93753e-07  1.13183e+07
       972.80000  2.93753e-07  1.13095e+07
       972.90000  2.93753e-07  1.13007e+07
       973.00000  2.93753e-07  1.12948e+07
       973.10000  2.93753e-07  1.12860e+07
       973.20000  2.93753e-07  1.12801e+07
       973.30000  2.93753e-07  1.12742e+07
       973.40000  2.93753e-07  1.12684e+07
       973.50000  2.87469e-07  1.10215e+07
       973.60000  2.87469e-07  1.10158e+07
       973.70000  2.87469e-07  1.10129e+07
       973.80000  2.81869e-07  1.07928e+07
       973.90000  2.81869e-07  1.07899e+07
       974.00000  2.81869e-07  1.07871e+07
       974.10000  2.81869e-07  1.07899e+07
       974.20000  2.81869e-07  1.07956e+07
       974.30000  2.81869e-07  1.07984e+07
       974.40000  2.81869e-07  1.08012e+07
       974.50000  2.75561e-07  1.05623e+07
       974.60000  2.75561e-07  1.05650e+07
       974.70000  2.75561e-07  1.05678e+07
       974.80000  2.75561e-07  1.05705e+07
       974.90000  2.75561e-07  1.05705e+07
       975.00000  2.75561e-07  1.05733e+07
       975.10000  2.75561e-07  1.05760e+07
       975.20000  2.75561e-07  1.05760e+07
       975.30000  2.75561e-07  1.05788e+07
       975.40000  2.75561e-07  1.05788e+07
       975.50000  2.69347e-07  1.03402e+07
       975.60000  2.69347e-07  1.03429e+07
       975.70000  2.69347e-07  1.03429e+07
       975.80000  2.69347e-07  1.03429e+07
       975.90000  2.69347e-07  1.03429e+07
       976.00000  2.69347e-07  1.03429e+07
       976.10000  2.69347e-07  1.03402e+07
       976.20000  2.69347e-07  1.03375e+07
       976.30000  2.64196e-07  1.01372e+07
       976.40000  2.64196e-07  1.01346e+07
       976.50000  2.58179e-07  9.90376e+06
       976.60000  2.58179e-07  9.90118e+06
       976.70000  2.58179e-07  9.89860e+06
       976.80000  2.58179e-07  9.89602e+06
       976.90000  2.58179e-07  9.89602e+06
       977.00000  2.58179e-07  9.89344e+06
       977.10000  2.58179e-07  9.89085e+06
       977.20000  2.58179e-07  9.88827e+06
       977.30000  2.58179e-07  9.88827e+06
       977.40000  2.58179e-07  9.88569e+06
       977.50000  2.52276e-07  9.65712e+06
       977.60000  2.52276e-07  9.65712e+06
       977.70000  2.52276e-07  9.65460e+06
       977.80000  2.52276e-07  9.65208e+06
       977.90000  2.52276e-07  9.65208e+06
       978.00000  2.52276e-07  9.64956e+06
       978.10000  2.52276e-07  9.64956e+06
       978.20000  2.52276e-07  9.64703e+06
       978.30000  2.52276e-07  9.64703e+06
       978.40000  2.52276e-07  9.64451e+06
       978.50000  2.46391e-07  9.41706e+06
       978.60000  2.46391e-07  9.41706e+06
       978.70000  2.46391e-07  9.41706e+06
       978.80000  2.41595e-07  9.23135e+06
       978.90000  2.41595e-07  9.23135e+06
       979.00000  2.41595e-07  9.22893e+06
       979.10000  2.41595e-07  9.22893e+06
       979.20000  2.41595e-07  9.22651e+06
       979.30000  2.41595e-07  9.22651e+06
       979.40000  2.41595e-07  9.22651e+06
       979.50000  2.35837e-07  9.00427e+06
       979.60000  2.35837e-07  9.00427e+06
       979.70000  2.35837e-07  9.00427e+06
       979.80000  2.35837e-07  9.00191e+06
       979.90000  2.35837e-07  9.00191e+06
       980.00000  2.35837e-07  9.00191e+06
       980.10000  2.35837e-07  9.00663e+06
       980.20000  2.35837e-07  9.00898e+06
       980.30000  2.35837e-07  9.01370e+06
       980.40000  2.35837e-07  9.01606e+06
       980.50000  2.30124e-07  8.80224e+06
       980.60000  2.30124e-07  8.80454e+06
       980.70000  2.30124e-07  8.80684e+06
       980.80000  2.30124e-07  8.80914e+06
       980.90000  2.30124e-07  8.81144e+06
       981.00000  2.30124e-07  8.81375e+06
       981.10000  2.30124e-07  8.81605e+06
       981.20000  2.30124e-07  8.81835e+06
       981.30000  2.25467e-07  8.63990e+06
       981.40000  2.25467e-07  8.64216e+06
       981.50000  2.19958e-07  8.43099e+06
       981.60000  2.19958e-07  8.43099e+06
       981.70000  2.19958e-07  8.43319e+06
       981.80000  2.19958e-07  8.43319e+06
       981.90000  2.19958e-07  8.43319e+06
       982.00000  2.19958e-07  8.43099e+06
       982.10000  2.19958e-07  8.42879e+06
       982.20000  2.19958e-07  8.42439e+06
       982.30000  2.19958e-07  8.42219e+06
       982.40000  2.19958e-07  8.41780e+06
       982.50000  2.14301e-07  8.19916e+06
       982.60000  2.14301e-07  8.19487e+06
       982.70000  2.14301e-07  8.19273e+06
       982.80000  2.14301e-07  8.19058e+06
       982.90000  2.14301e-07  8.18630e+06
       983.00000  2.14301e-07  8.18416e+06
       983.10000  2.14301e-07  8.18201e+06
       983.20000  2.14301e-07  8.17987e+06
       983.30000  2.14301e-07  8.17773e+06
       983.40000  2.14301e-07  8.17344e+06
       983.50000  2.08737e-07  7.95913e+06
       983.60000  2.08737e-07  7.95704e+06
       983.70000  2.08737e-07  7.95495e+06
       983.80000  2.04620e-07  7.79601e+06
       983.90000  2.04620e-07  7.79396e+06
       984.00000  2.04620e-07  7.79191e+06
       984.10000  2.04620e-07  7.79191e+06
       984.20000  2.04620e-07  7.78987e+06
       984.30000  2.04620e-07  7.78782e+06
       984.40000  2.04620e-07  7.78578e+06
       984.50000  1.99161e-07  7.57809e+06
       984.60000  1.99161e-07  7.57610e+06
       984.70000  1.99161e-07  7.57410e+06
       984.80000  1.99161e-07  7.57410e+06
       984.90000  1.99161e-07  7.57211e+06
       985.00000  1.99161e-07  7.57012e+06
       985.10000  1.99161e-07  7.57012e+06
       985.20000  1.99161e-07  7.56813e+06
       985.30000  1.99161e-07  7.56813e+06
       985.40000  1.99161e-07  7.56813e+06
       985.50000  1.93678e-07  7.35782e+06
       985.60000  1.93678e-07  7.35782e+06
       985.70000  1.93678e-07  7.35782e+06
       985.80000  1.93678e-07  7.35588e+06
       985.90000  1.93678e-07  7.35588e+06
       986.00000  1.93678e-07  7.35588e+06
       986.10000  1.93678e-07  7.35394e+06
       986.20000  1.93678e-07  7.35394e+06
       986.30000  1.89861e-07  7.20900e+06
       986.40000  1.89861e-07  7.20710e+06
       986.50000  1.84578e-07  7.00474e+06
       986.60000  1.84578e-07  7.00474e+06
       986.70000  1.84578e-07  7.00290e+06
       986.80000  1.84578e-07  7.00290e+06
       986.90000  1.84578e-07  7.00105e+06
       987.00000  1.84578e-07  6.99921e+06
       987.10000  1.84578e-07  6.99736e+06
       987.20000  1.84578e-07  6.99736e+06
       987.30000  1.84578e-07  6.99551e+06
       987.40000  1.84578e-07  6.99367e+06
       987.50000  1.56785e-07  5.93901e+06
       987.60000  1.56785e-07  5.93744e+06
       987.70000  1.56785e-07  5.93587e+06
       987.80000  1.56785e-07  5.93430e+06
       987.90000  1.56785e-07  5.93274e+06
       988.00000  1.56785e-07  5.93117e+06
       988.10000  1.56785e-07  5.92646e+06
       988.20000  1.56785e-07  5.92333e+06
       988.30000  1.56785e-07  5.91862e+06
       988.40000  1.56785e-07  5.91549e+06
       988.50000  1.52116e-07  5.73628e+06
       988.60000  1.52116e-07  5.73323e+06
       988.70000  1.52116e-07  5.73019e+06
       988.80000  1.49152e-07  5.61556e+06
       988.90000  1.49152e-07  5.61258e+06
       989.00000  1.49152e-07  5.61109e+06
       989.10000  1.49152e-07  5.60959e+06
       989.20000  1.49152e-07  5.60661e+06
       989.30000  1.49152e-07  5.60512e+06
       989.40000  1.49152e-07  5.60363e+06
       989.50000  1.44644e-07  5.43283e+06
       989.60000  1.44644e-07  5.43138e+06
       989.70000  1.44644e-07  5.43138e+06
       989.80000  1.44644e-07  5.42994e+06
       989.90000  1.44644e-07  5.42994e+06
       990.00000  1.44644e-07  5.42994e+06
       990.10000  1.44644e-07  5.42849e+06
       990.20000  1.44644e-07  5.42849e+06
       990.30000  1.44644e-07  5.42994e+06
       990.40000  1.44644e-07  5.42994e+06
       990.50000  1.40117e-07  5.25998e+06
       990.60000  1.40117e-07  5.26138e+06
       990.70000  1.40117e-07  5.26138e+06
       990.80000  1.40117e-07  5.26278e+06
       990.90000  1.40117e-07  5.26419e+06
       991.00000  1.40117e-07  5.26559e+06
       991.10000  1.40117e-07  5.26699e+06
       991.20000  1.40117e-07  5.26839e+06
       991.30000  1.37520e-07  5.17214e+06
       991.40000  1.37520e-07  5.17489e+06
       991.50000  1.33132e-07  5.01109e+06
       991.60000  1.33132e-07  5.01376e+06
       991.70000  1.33132e-07  5.01642e+06
       991.80000  1.33132e-07  5.01908e+06
       991.90000  1.33132e-07  5.02174e+06
       992.00000  1.33132e-07  5.02441e+06
       992.10000  1.33132e-07  5.02574e+06
       992.20000  1.33132e-07  5.02574e+06
       992.30000  1.33132e-07  5.02574e+06
       992.40000  1.33132e-07  5.02574e+06
       992.50000  1.28809e-07  4.86384e+06
       992.60000  1.28809e-07  4.86384e+06
       992.70000  1.28809e-07  4.86384e+06
       992.80000  1.28809e-07  4.86384e+06
       992.90000  1.28809e-07  4.86384e+06
       993.00000  1.28809e-07  4.86513e+06
       993.10000  1.28809e-07  4.86513e+06
       993.20000  1.28809e-07  4.86513e+06
       993.30000  1.28809e-07  4.86513e+06
       993.40000  1.28809e-07  4.86513e+06
       993.50000  1.24478e-07  4.70152e+06
       993.60000  1.24478e-07  4.70152e+06
       993.70000  1.24478e-07  4.70152e+06
       993.80000  1.22329e-07  4.62038e+06
       993.90000  1.22329e-07  4.61916e+06
       994.00000  1.22329e-07  4.61916e+06
       994.10000  1.22329e-07  4.61916e+06
       994.20000  1.22329e-07  4.61793e+06
       994.30000  1.22329e-07  4.61793e+06
       994.40000  1.22329e-07  4.61671e+06
       994.50000  1.18133e-07  4.45832e+06
       994.60000  1.18133e-07  4.45714e+06
       994.70000  1.18133e-07  4.45714e+06
       994.80000  1.18133e-07  4.45596e+06
       994.90000  1.18133e-07  4.45596e+06
       995.00000  1.18133e-07  4.45478e+06
       995.10000  1.18133e-07  4.45478e+06
       995.20000  1.18133e-07  4.45478e+06
       995.30000  1.18133e-07  4.45360e+06
       995.40000  1.18133e-07  4.45360e+06
       995.50000  1.14020e-07  4.29856e+06
       995.60000  1.14020e-07  4.29742e+06
       995.70000  1.14020e-07  4.29742e+06
       995.80000  1.14020e-07  4.29742e+06
       995.90000  1.14020e-07  4.29742e+06
       996.00000  1.14020e-07  4.29628e+06
       996.10000  1.14020e-07  4.29742e+06
       996.20000  1.14020e-07  4.29742e+06
       996.30000  1.12109e-07  4.22540e+06
       996.40000  1.12109e-07  4.22540e+06
       996.50000  1.08065e-07  4.07298e+06
       996.60000  1.08065e-07  4.07298e+06
       996.70000  1.08065e-07  4.07298e+06
       996.80000  1.08065e-07  4.07298e+06
       996.90000  1.08065e-07  4.07298e+06
       997.00000  1.08065e-07  4.07298e+06
       997.10000  1.08065e-07  4.07298e+06
       997.20000  1.08065e-07  4.07298e+06
       997.30000  1.08065e-07  4.07298e+06
       997.40000  1.08065e-07  4.07298e+06
       997.50000  1.04086e-07  3.92299e+06
       997.60000  1.04086e-07  3.92299e+06
       997.70000  1.04086e-07  3.92299e+06
       997.80000  1.04086e-07  3.92299e+06
       997.90000  1.04086e-07  3.92299e+06
       998.00000  1.04086e-07  3.92194e+06
       998.10000  1.04086e-07  3.92194e+06
       998.20000  1.04086e-07  3.92090e+06
       998.30000  1.04086e-07  3.92090e+06
       998.40000  1.04086e-07  3.91986e+06
       998.50000  1.00206e-07  3.77276e+06
       998.60000  1.00206e-07  3.77276e+06
       998.70000  1.00206e-07  3.77176e+06
       998.80000  9.86789e-08  3.71427e+06
       998.90000  9.86789e-08  3.71427e+06
       999.00000  9.86789e-08  3.71329e+06
       999.10000  9.86789e-08  3.71329e+06
       999.20000  9.86789e-08  3.71230e+06
       999.30000  9.86789e-08  3.71230e+06
       999.40000  9.86789e-08  3.71230e+06
       999.50000  9.48522e-08  3.56739e+06
       999.60000  9.48522e-08  3.56739e+06
       999.70000  9.48522e-08  3.56739e+06
       999.80000  9.48522e-08  3.56739e+06
       999.90000  9.48522e-08  3.56739e+06
       1000.0000  9.48522e-08  3.56644e+06
       1000.1000  9.48522e-08  3.56644e+06
       1000.2000  9.48522e-08  3.56644e+06
       1000.3000  9.48522e-08  3.56644e+06
       1000.4000  9.48522e-08  3.56644e+06
       1000.5000  9.32813e-08  3.50738e+06
       1000.6000  9.32813e-08  3.50738e+06
       1000.7000  9.32813e-08  3.50738e+06
       1000.8000  9.32813e-08  3.50738e+06
       1000.9000  9.32813e-08  3.50738e+06
       1001.0000  9.32813e-08  3.50738e+06
       1001.1000  9.32813e-08  3.50738e+06
       1001.2000  9.32813e-08  3.50831e+06
       1001.3000  9.19045e-08  3.45653e+06
       1001.4000  9.19045e-08  3.45653e+06
       1001.5000  9.03996e-08  3.39993e+06
       1001.6000  9.03996e-08  3.39993e+06
       1001.7000  9.03996e-08  3.40083e+06
       1001.8000  9.03996e-08  3.40083e+06
       1001.9000  9.03996e-08  3.40083e+06
       1002.0000  9.03996e-08  3.40174e+06
       1002.1000  9.03996e-08  3.39631e+06
       1002.2000  9.03996e-08  3.39089e+06
       1002.3000  9.03996e-08  3.38637e+06
       1002.4000  9.03996e-08  3.38094e+06
       1002.5000  8.89194e-08  3.32114e+06
       1002.6000  8.89194e-08  3.31580e+06
       1002.7000  8.89194e-08  3.31136e+06
       1002.8000  8.89194e-08  3.30691e+06
       1002.9000  8.89194e-08  3.30247e+06
       1003.0000  8.89194e-08  3.29802e+06
       1003.1000  8.89194e-08  3.29358e+06
       1003.2000  8.89194e-08  3.28913e+06
       1003.3000  8.89194e-08  3.28557e+06
       1003.4000  8.89194e-08  3.28113e+06
       1003.5000  8.74586e-08  3.22372e+06
       1003.6000  8.74586e-08  3.22022e+06
       1003.7000  8.74586e-08  3.21585e+06
       1003.8000  8.62673e-08  3.16860e+06
       1003.9000  8.62673e-08  3.16515e+06
       1004.0000  8.62673e-08  3.16170e+06
       1004.1000  8.62673e-08  3.15652e+06
       1004.2000  8.62673e-08  3.15048e+06
       1004.3000  8.62673e-08  3.14617e+06
       1004.4000  8.62673e-08  3.14099e+06
       1004.5000  8.48809e-08  3.08627e+06
       1004.6000  8.48809e-08  3.08202e+06
       1004.7000  8.48809e-08  3.07863e+06
       1004.8000  8.48809e-08  3.07523e+06
       1004.9000  8.48809e-08  3.07269e+06
       1005.0000  8.48809e-08  3.07014e+06
       1005.1000  8.48809e-08  3.06759e+06
       1005.2000  8.48809e-08  3.06590e+06
       1005.3000  8.48809e-08  3.06420e+06
       1005.4000  8.48809e-08  3.06335e+06
       1005.5000  8.35160e-08  3.01326e+06
       1005.6000  8.35160e-08  3.01242e+06
       1005.7000  8.35160e-08  3.01242e+06
       1005.8000  8.35160e-08  3.01326e+06
       1005.9000  8.35160e-08  3.01326e+06
       1006.0000  8.35160e-08  3.01409e+06
       1006.1000  8.35160e-08  3.01576e+06
       1006.2000  8.35160e-08  3.01743e+06
       1006.3000  8.24536e-08  2.98070e+06
       1006.4000  8.24536e-08  2.98317e+06
       1006.5000  8.11179e-08  2.93728e+06
       1006.6000  8.11179e-08  2.94052e+06
       1006.7000  8.11179e-08  2.94377e+06
       1006.8000  8.11179e-08  2.94701e+06
       1006.9000  8.11179e-08  2.95107e+06
       1007.0000  8.11179e-08  2.95512e+06
       1007.1000  8.11179e-08  2.95999e+06
       1007.2000  8.11179e-08  2.96486e+06
       1007.3000  8.11179e-08  2.96972e+06
       1007.4000  8.11179e-08  2.97540e+06
       1007.5000  7.98015e-08  2.93270e+06
       1007.6000  7.98015e-08  2.93909e+06
       1007.7000  7.98015e-08  2.94547e+06
       1007.8000  7.98015e-08  2.95186e+06
       1007.9000  7.98015e-08  2.95904e+06
       1008.0000  7.98015e-08  2.96622e+06
       1008.1000  7.98015e-08  2.96702e+06
       1008.2000  7.98015e-08  2.96702e+06
       1008.3000  7.98015e-08  2.96702e+06
       1008.4000  7.98015e-08  2.96702e+06
       1008.5000  7.83937e-08  2.91468e+06
       1008.6000  7.83937e-08  2.91468e+06
       1008.7000  7.83937e-08  2.91468e+06
       1008.8000  7.74762e-08  2.88056e+06
       1008.9000  7.74762e-08  2.88056e+06
       1009.0000  7.74762e-08  2.87979e+06
       1009.1000  7.74762e-08  2.87979e+06
       1009.2000  7.74762e-08  2.87979e+06
       1009.3000  7.74762e-08  2.87979e+06
       1009.4000  7.74762e-08  2.87901e+06
       1009.5000  7.59020e-08  2.82052e+06
       1009.6000  7.59020e-08  2.82052e+06
       1009.7000  7.59020e-08  2.81976e+06
       1009.8000  7.59020e-08  2.81976e+06
       1009.9000  7.59020e-08  2.81900e+06
       1010.0000  7.59020e-08  2.81900e+06
       1010.1000  7.59020e-08  2.81824e+06
       1010.2000  7.59020e-08  2.81748e+06
       1010.3000  7.59020e-08  2.81672e+06
       1010.4000  7.59020e-08  2.81596e+06
       1010.5000  7.41665e-08  2.75083e+06
       1010.6000  7.41665e-08  2.75009e+06
       1010.7000  7.41665e-08  2.74935e+06
       1010.8000  7.41665e-08  2.74861e+06
       1010.9000  7.41665e-08  2.74787e+06
       1011.0000  7.41665e-08  2.74713e+06
       1011.1000  7.41665e-08  2.74713e+06
       1011.2000  7.41665e-08  2.74638e+06
       1011.3000  7.33483e-08  2.71535e+06
       1011.4000  7.33483e-08  2.71462e+06
       1011.5000  7.12701e-08  2.63699e+06
       1011.6000  7.12701e-08  2.63628e+06
       1011.7000  7.12701e-08  2.63557e+06
       1011.8000  7.12701e-08  2.63485e+06
       1011.9000  7.12701e-08  2.63414e+06
       1012.0000  7.12701e-08  2.63343e+06
       1012.1000  7.12701e-08  2.63272e+06
       1012.2000  7.12701e-08  2.63200e+06
       1012.3000  7.12701e-08  2.63129e+06
       1012.4000  7.12701e-08  2.63058e+06
       1012.5000  6.86567e-08  2.53343e+06
       1012.6000  6.86567e-08  2.53274e+06
       1012.7000  6.86567e-08  2.53206e+06
       1012.8000  6.86567e-08  2.53137e+06
       1012.9000  6.86567e-08  2.53137e+06
       1013.0000  6.86567e-08  2.53069e+06
       1013.1000  6.86567e-08  2.53000e+06
       1013.2000  6.86567e-08  2.52931e+06
       1013.3000  6.86567e-08  2.52863e+06
       1013.4000  6.86567e-08  2.52794e+06
       1013.5000  6.53649e-08  2.40608e+06
       1013.6000  6.53649e-08  2.40543e+06
       1013.7000  6.53649e-08  2.40478e+06
       1013.8000  6.46928e-08  2.37940e+06
       1013.9000  6.46928e-08  2.37875e+06
       1014.0000  6.46928e-08  2.37811e+06
       1014.1000  6.46928e-08  2.37681e+06
       1014.2000  6.46928e-08  2.37552e+06
       1014.3000  6.46928e-08  2.37422e+06
       1014.4000  6.46928e-08  2.37293e+06
       1014.5000  6.08620e-08  2.23181e+06
       1014.6000  6.08620e-08  2.23059e+06
       1014.7000  6.08620e-08  2.22938e+06
       1014.8000  6.08620e-08  2.22877e+06
       1014.9000  6.08620e-08  2.22755e+06
       1015.0000  6.08620e-08  2.22694e+06
       1015.1000  6.08620e-08  2.22572e+06
       1015.2000  6.08620e-08  2.22512e+06
       1015.3000  6.08620e-08  2.22451e+06
       1015.4000  6.08620e-08  2.22329e+06
       1015.5000  5.62580e-08  2.05454e+06
       1015.6000  5.62580e-08  2.05398e+06
       1015.7000  5.62580e-08  2.05342e+06
       1015.8000  5.62580e-08  2.05285e+06
       1015.9000  5.62580e-08  2.05229e+06
       1016.0000  5.62580e-08  2.05173e+06
       1016.1000  5.62580e-08  2.05173e+06
       1016.2000  5.62580e-08  2.05173e+06
       1016.3000  5.57234e-08  2.03223e+06
       1016.4000  5.57234e-08  2.03168e+06
       1016.5000  5.03355e-08  1.83523e+06
       1016.6000  5.03355e-08  1.83523e+06
       1016.7000  5.03355e-08  1.83523e+06
       1016.8000  5.03355e-08  1.83473e+06
       1016.9000  5.03355e-08  1.83473e+06
       1017.0000  5.03355e-08  1.83422e+06
       1017.1000  5.03355e-08  1.83422e+06
       1017.2000  5.03355e-08  1.83372e+06
       1017.3000  5.03355e-08  1.83372e+06
       1017.4000  5.03355e-08  1.83322e+06
       1017.5000  4.47302e-08  1.62907e+06
       1017.6000  4.47302e-08  1.62863e+06
       1017.7000  4.47302e-08  1.62818e+06
       1017.8000  4.47302e-08  1.62773e+06
       1017.9000  4.47302e-08  1.62728e+06
       1018.0000  4.47302e-08  1.62728e+06
       1018.1000  4.47302e-08  1.62639e+06
       1018.2000  4.47302e-08  1.62549e+06
       1018.3000  4.47302e-08  1.62460e+06
       1018.4000  4.47302e-08  1.62370e+06
       1018.5000  3.88760e-08  1.41081e+06
       1018.6000  3.88760e-08  1.41003e+06
       1018.7000  3.88760e-08  1.40964e+06
       1018.8000  3.85200e-08  1.39596e+06
       1018.9000  3.85200e-08  1.39558e+06
       1019.0000  3.85200e-08  1.39481e+06
       1019.1000  3.85200e-08  1.39442e+06
       1019.2000  3.85200e-08  1.39404e+06
       1019.3000  3.85200e-08  1.39365e+06
       1019.4000  3.85200e-08  1.39288e+06
       1019.5000  3.26683e-08  1.18096e+06
       1019.6000  3.26683e-08  1.18063e+06
       1019.7000  3.26683e-08  1.18030e+06
       1019.8000  3.26683e-08  1.18030e+06
       1019.9000  3.26683e-08  1.17998e+06
       1020.0000  3.26683e-08  1.17965e+06
       1020.1000  3.26683e-08  1.17932e+06
       1020.2000  3.26683e-08  1.17900e+06
       1020.3000  3.26683e-08  1.17900e+06
       1020.4000  3.26683e-08  1.17867e+06
       1020.5000  2.71759e-08      980507.
       1020.6000  2.71759e-08      980235.
       1020.7000  2.71759e-08      980235.
       1020.8000  2.71759e-08      979964.
       1020.9000  2.71759e-08      979964.
       1021.0000  2.71759e-08      979964.
       1021.1000  2.71759e-08      979964.
       1021.2000  2.71759e-08      979964.
       1021.3000  2.69740e-08      972682.
       1021.4000  2.69740e-08      972682.
       1021.5000  2.22381e-08      801905.
       1021.6000  2.22381e-08      801905.
       1021.7000  2.22381e-08      801905.
       1021.8000  2.22381e-08      802127.
       1021.9000  2.22381e-08      802127.
       1022.0000  2.22381e-08      802349.
       1022.1000  2.22381e-08      802349.
       1022.2000  2.22381e-08      802572.
       1022.3000  2.22381e-08      802794.
       1022.4000  2.22381e-08      802794.
       1022.5000  1.79046e-08      646534.
       1022.6000  1.79046e-08      646713.
       1022.7000  1.79046e-08      646892.
       1022.8000  1.79046e-08      647071.
       1022.9000  1.79046e-08      647250.
       1023.0000  1.79046e-08      647429.
       1023.1000  1.79046e-08      647787.
       1023.2000  1.79046e-08      647966.
       1023.3000  1.79046e-08      648145.
       1023.4000  1.79046e-08      648504.
       1023.5000  1.42874e-08      517634.
       1023.6000  1.42874e-08      517920.
       1023.7000  1.42874e-08      518063.
       1023.8000  1.41978e-08      515096.
       1023.9000  1.41978e-08      515380.
       1024.0000  1.41978e-08      515664.
       1024.1000  1.41978e-08      515664.
       1024.2000  1.41978e-08      515522.
       1024.3000  1.41978e-08      515522.
       1024.4000  1.41978e-08      515522.
       1024.5000  1.13536e-08      412251.
       1024.6000  1.13536e-08      412137.
       1024.7000  1.13536e-08      412137.
       1024.8000  1.13536e-08      412137.
       1024.9000  1.13536e-08      412024.
       1025.0000  1.13536e-08      412024.
       1025.1000  1.13536e-08      412024.
       1025.2000  1.13536e-08      411910.
       1025.3000  1.13536e-08      411910.
       1025.4000  1.13536e-08      411910.
       1025.5000  8.97794e-09      325630.
       1025.6000  8.97794e-09      325630.
       1025.7000  8.97794e-09      325540.
       1025.8000  8.97794e-09      325540.
       1025.9000  8.97794e-09      325450.
       1026.0000  8.97794e-09      325450.
       1026.1000  8.97794e-09      325450.
       1026.2000  8.97794e-09      325361.
       1026.3000  8.92195e-09      323332.
       1026.4000  8.92195e-09      323242.
       1026.5000  6.99099e-09      253284.
       1026.6000  6.99099e-09      253214.
       1026.7000  6.99099e-09      253144.
       1026.8000  6.99099e-09      253144.
       1026.9000  6.99099e-09      253074.
       1027.0000  6.99099e-09      253074.
       1027.1000  6.99099e-09      253004.
       1027.2000  6.99099e-09      252934.
       1027.3000  6.99099e-09      252934.
       1027.4000  6.99099e-09      252864.
       1027.5000  5.57186e-09      201479.
       1027.6000  5.57186e-09      201479.
       1027.7000  5.57186e-09      201423.
       1027.8000  5.57186e-09      201367.
       1027.9000  5.57186e-09      201311.
       1028.0000  5.57186e-09      201256.
       1028.1000  5.57186e-09      201256.
       1028.2000  5.57186e-09      201200.
       1028.3000  5.57186e-09      201144.
       1028.4000  5.57186e-09      201089.
       1028.5000  4.40524e-09      158941.
       1028.6000  4.40524e-09      158897.
       1028.7000  4.40524e-09      158853.
       1028.8000  4.36746e-09      157447.
       1028.9000  4.36746e-09      157403.
       1029.0000  4.36746e-09      157360.
       1029.1000  4.36746e-09      157316.
       1029.2000  4.36746e-09      157272.
       1029.3000  4.36746e-09      157229.
       1029.4000  4.36746e-09      157185.
       1029.5000  3.43689e-09      123659.
       1029.6000  3.43689e-09      123625.
       1029.7000  3.43689e-09      123590.
       1029.8000  3.43689e-09      123556.
       1029.9000  3.43689e-09      123522.
       1030.0000  3.43689e-09      123453.
       1030.1000  3.43689e-09      123487.
       1030.2000  3.43689e-09      123487.
       1030.3000  3.43689e-09      123487.
       1030.4000  3.43689e-09      123487.
       1030.5000  2.74398e-09      98591.1
       1030.6000  2.74398e-09      98591.1
       1030.7000  2.74398e-09      98563.6
       1030.8000  2.74398e-09      98563.6
       1030.9000  2.74398e-09      98563.6
       1031.0000  2.74398e-09      98536.2
       1031.1000  2.74398e-09      98536.2
       1031.2000  2.74398e-09      98508.8
       1031.3000  2.70664e-09      97168.4
       1031.4000  2.70664e-09      97141.4
       1031.5000  2.16780e-09      77780.8
       1031.6000  2.16780e-09      77759.1
       1031.7000  2.16780e-09      77737.4
       1031.8000  2.16780e-09      77715.8
       1031.9000  2.16780e-09      77694.1
       1032.0000  2.16780e-09      77672.4
       1032.1000  2.16780e-09      77607.4
       1032.2000  2.16780e-09      77520.7
       1032.3000  2.16780e-09      77455.6
       1032.4000  2.16780e-09      77412.3
       1032.5000  1.70849e-09      60959.0
       1032.6000  1.70849e-09      60907.8
       1032.7000  1.70849e-09      60873.6
       1032.8000  1.70849e-09      60822.3
       1032.9000  1.70849e-09      60788.2
       1033.0000  1.70849e-09      60754.0
       1033.1000  1.70849e-09      60719.8
       1033.2000  1.70849e-09      60702.7
       1033.3000  1.70849e-09      60668.6
       1033.4000  1.70849e-09      60651.5
       1033.5000  1.38134e-09      49009.8
       1033.6000  1.38134e-09      48996.0
       1033.7000  1.38134e-09      48982.2
       1033.8000  1.35504e-09      48036.2
       1033.9000  1.35504e-09      48036.2
       1034.0000  1.35504e-09      48022.7
       1034.1000  1.35504e-09      48022.7
       1034.2000  1.35504e-09      48009.1
       1034.3000  1.35504e-09      48009.1
       1034.4000  1.35504e-09      48009.1
       1034.5000  1.08335e-09      38382.9
       1034.6000  1.08335e-09      38393.8
       1034.7000  1.08335e-09      38393.8
       1034.8000  1.08335e-09      38404.6
       1034.9000  1.08335e-09      38404.6
       1035.0000  1.08335e-09      38415.4
       1035.1000  1.08335e-09      38426.3
       1035.2000  1.08335e-09      38437.1
       1035.3000  1.08335e-09      38458.8
       1035.4000  1.08335e-09      38469.6
       1035.5000  8.73091e-10      31020.9
       1035.6000  8.73091e-10      31038.4
       1035.7000  8.73091e-10      31047.1
       1035.8000  8.73091e-10      31064.6
       1035.9000  8.73091e-10      31090.8
       1036.0000  8.73091e-10      31108.2
       1036.1000  8.73091e-10      31090.8
       1036.2000  8.73091e-10      31073.3
       1036.3000  8.52704e-10      30330.7
       1036.4000  8.52704e-10      30313.6
       1036.5000  6.79508e-10      24142.9
       1036.6000  6.79508e-10      24129.3
       1036.7000  6.79508e-10      24122.5
       1036.8000  6.79508e-10      24108.9
       1036.9000  6.79508e-10      24095.3
       1037.0000  6.79508e-10      24088.5
       1037.1000  6.79508e-10      24081.7
       1037.2000  6.79508e-10      24068.2
       1037.3000  6.79508e-10      24061.4
       1037.4000  6.79508e-10      24054.6
       1037.5000  5.47562e-10      19378.2
       1037.6000  5.47562e-10      19372.7
       1037.7000  5.47562e-10      19367.3
       1037.8000  5.47562e-10      19361.8
       1037.9000  5.47562e-10      19356.3
       1038.0000  5.47562e-10      19350.8
       1038.1000  5.47562e-10      19350.8
       1038.2000  5.47562e-10      19350.8
       1038.3000  5.47562e-10      19356.3
       1038.4000  5.47562e-10      19356.3
       1038.5000  4.47354e-10      15813.9
       1038.6000  4.47354e-10      15813.9
       1038.7000  4.47354e-10      15813.9
       1038.8000  4.35714e-10      15402.5
       1038.9000  4.35714e-10      15402.5
       1039.0000  4.35714e-10      15402.5
       1039.1000  4.35714e-10      15402.5
       1039.2000  4.35714e-10      15402.5
       1039.3000  4.35714e-10      15402.5
       1039.4000  4.35714e-10      15402.5
       1039.5000  3.54472e-10      12530.6
       1039.6000  3.54472e-10      12530.6
       1039.7000  3.54472e-10      12530.6
       1039.8000  3.54472e-10      12530.6
       1039.9000  3.54472e-10      12530.6
       1040.0000  3.54472e-10      12530.6
       1040.1000  3.54472e-10      12530.6
       1040.2000  3.54472e-10      12530.6
       1040.3000  3.54472e-10      12530.6
       1040.4000  3.54472e-10      12530.6
       1040.5000  2.80310e-10      9908.94
       1040.6000  2.80310e-10      9908.94
       1040.7000  2.80310e-10      9908.94
       1040.8000  2.80310e-10      9908.94
       1040.9000  2.80310e-10      9908.94
       1041.0000  2.80310e-10      9908.94
       1041.1000  2.80310e-10      9908.94
       1041.2000  2.80310e-10      9908.94
       1041.3000  2.72281e-10      9625.14
       1041.4000  2.72281e-10      9625.14
       1041.5000  2.24939e-10      7951.59
       1041.6000  2.24939e-10      7951.59
       1041.7000  2.24939e-10      7951.59
       1041.8000  2.24939e-10      7949.34
       1041.9000  2.24939e-10      7949.34
       1042.0000  2.24939e-10      7949.34
       1042.1000  2.24939e-10      7951.59
       1042.2000  2.24939e-10      7951.59
       1042.3000  2.24939e-10      7953.84
       1042.4000  2.24939e-10      7953.84
       1042.5000  1.83884e-10      6502.15
       1042.6000  1.83884e-10      6502.15
       1042.7000  1.83884e-10      6502.15
       1042.8000  1.83884e-10      6500.31
       1042.9000  1.83884e-10      6500.31
       1043.0000  1.83884e-10      6500.31
       1043.1000  1.83884e-10      6498.48
       1043.2000  1.83884e-10      6496.64
       1043.3000  1.83884e-10      6496.64
       1043.4000  1.83884e-10      6494.80
       1043.5000  1.47594e-10      5211.55
       1043.6000  1.47594e-10      5210.07
       1043.7000  1.47594e-10      5208.60
       1043.8000  1.43372e-10      5056.74
       1043.9000  1.43372e-10      5055.30
       1044.0000  1.43372e-10      5052.43
       1044.1000  1.43372e-10      5046.70
       1044.2000  1.43372e-10      5039.53
       1044.3000  1.43372e-10      5033.80
       1044.4000  1.43372e-10      5028.06
       1044.5000  1.13645e-10      3980.99
       1044.6000  1.13645e-10      3977.58
       1044.7000  1.13645e-10      3973.04
       1044.8000  1.13645e-10      3969.63
       1044.9000  1.13645e-10      3966.22
       1045.0000  1.13645e-10      3962.81
       1045.1000  1.13645e-10      3960.53
       1045.2000  1.13645e-10      3957.13
       1045.3000  1.13645e-10      3954.85
       1045.4000  1.13645e-10      3952.58
       1045.5000  9.65649e-11      3357.56
       1045.6000  9.65649e-11      3355.63
       1045.7000  9.65649e-11      3354.66
       1045.8000  9.65649e-11      3353.70
       1045.9000  9.65649e-11      3352.73
       1046.0000  9.65649e-11      3351.77
       1046.1000  9.65649e-11      3351.77
       1046.2000  9.65649e-11      3350.80
       1046.3000  9.38237e-11      3255.68
       1046.4000  9.38237e-11      3255.68
       1046.5000  7.69834e-11      2672.09
       1046.6000  7.69834e-11      2672.09
       1046.7000  7.69834e-11      2672.86
       1046.8000  7.69834e-11      2673.63
       1046.9000  7.69834e-11      2674.40
       1047.0000  7.69834e-11      2675.94
       1047.1000  7.69834e-11      2676.71
       1047.2000  7.69834e-11      2678.25
       1047.3000  7.69834e-11      2679.79
       1047.4000  7.69834e-11      2681.33
       1047.5000  6.07370e-11      2117.29
       1047.6000  6.07370e-11      2118.51
       1047.7000  6.07370e-11      2120.33
       1047.8000  6.07370e-11      2122.15
       1047.9000  6.07370e-11      2123.97
       1048.0000  6.07370e-11      2126.40
       1048.1000  6.07370e-11      2126.40
       1048.2000  6.07370e-11      2126.40
       1048.3000  6.07370e-11      2126.40
       1048.4000  6.07370e-11      2125.80
       1048.5000  4.98503e-11      1744.76
       1048.6000  4.98503e-11      1744.76
       1048.7000  4.98503e-11      1744.76
       1048.8000  4.85466e-11      1699.13
       1048.9000  4.85466e-11      1699.13
       1049.0000  4.85466e-11      1698.64
       1049.1000  4.85466e-11      1698.64
       1049.2000  4.85466e-11      1698.64
       1049.3000  4.85466e-11      1698.16
       1049.4000  4.85466e-11      1698.16
       1049.5000  4.00287e-11      1400.20
       1049.6000  4.00287e-11      1399.80
       1049.7000  4.00287e-11      1399.80
       1049.8000  4.00287e-11      1399.80
       1049.9000  4.00287e-11      1399.40
       1050.0000  4.00287e-11      1399.40
       1050.1000  4.00287e-11      1399.00
       1050.2000  4.00287e-11      1399.00
       1050.3000  4.00287e-11      1398.60
       1050.4000  4.00287e-11      1398.20
       1050.5000  3.29350e-11      1150.42
       1050.6000  3.29350e-11      1150.09
       1050.7000  3.29350e-11      1150.09
       1050.8000  3.29350e-11      1149.76
       1050.9000  3.29350e-11      1149.43
       1051.0000  3.29350e-11      1149.43
       1051.1000  3.29350e-11      1149.10
       1051.2000  3.29350e-11      1149.10
       1051.3000  3.21980e-11      1123.07
       1051.4000  3.21980e-11      1122.75
       1051.5000  2.65999e-11      927.538
       1051.6000  2.65999e-11      927.271
       1051.7000  2.65999e-11      927.006
       1051.8000  2.65999e-11      927.006
       1051.9000  2.65999e-11      926.740
       1052.0000  2.65999e-11      926.740
       1052.1000  2.65999e-11      926.474
       1052.2000  2.65999e-11      926.208
       1052.3000  2.65999e-11      926.208
       1052.4000  2.65999e-11      925.942
       1052.5000  1.97988e-11      688.998
       1052.6000  1.97988e-11      688.998
       1052.7000  1.97988e-11      688.800
       1052.8000  1.97988e-11      688.602
       1052.9000  1.97988e-11      688.602
       1053.0000  1.97988e-11      688.404
       1053.1000  1.97988e-11      688.404
       1053.2000  1.97988e-11      688.206
       1053.3000  1.97988e-11      688.008
       1053.4000  1.97988e-11      688.008
       1053.5000  1.53509e-11      533.292
       1053.6000  1.53509e-11      533.138
       1053.7000  1.53509e-11      533.138
       1053.8000  1.50642e-11      523.029
       1053.9000  1.50642e-11      522.878
       1054.0000  1.50642e-11      522.878
       1054.1000  1.50642e-11      523.180
       1054.2000  1.50642e-11      523.330
       1054.3000  1.50642e-11      523.632
       1054.4000  1.50642e-11      523.933
       1054.5000  1.10779e-11      385.401
       1054.6000  1.10779e-11      385.512
       1054.7000  1.10779e-11      385.622
       1054.8000  1.10779e-11      385.733
       1054.9000  1.10779e-11      385.844
       1055.0000  1.10779e-11      385.955
       1055.1000  1.10779e-11      385.955
       1055.2000  1.10779e-11      385.955
       1055.3000  1.10779e-11      386.066
       1055.4000  1.10779e-11      386.066
       1055.5000  7.82648e-12      272.675
       1055.6000  7.82648e-12      272.675
       1055.7000  7.82648e-12      272.675
       1055.8000  7.82648e-12      272.596
       1055.9000  7.82648e-12      272.518
       1056.0000  7.82648e-12      272.440
       1056.1000  7.82648e-12      272.205
       1056.2000  7.82648e-12      271.970
       1056.3000  7.68374e-12      266.780
       1056.4000  7.68374e-12      266.472
       1056.5000  4.35615e-12      150.941
       1056.6000  4.35615e-12      150.853
       1056.7000  4.35615e-12      150.723
       1056.8000  4.35615e-12      150.592
       1056.9000  4.35615e-12      150.461
       1057.0000  4.35615e-12      150.374
