PDS_VERSION_ID         = PDS3
RECORD_TYPE            = STREAM
OBJECT                 = TEXT
  PUBLICATION_DATE     = 2014-04-25
  INTERCHANGE_FORMAT   = ASCII
  NOTE                 = "System transmission vs. wavelength."
END_OBJECT             = TEXT
END
    
The systrans directory contains the non-wavelength-integrated system 
transmission values (QE*optics*filter1*filter2) for each filter combination. 
The naming convention for these files is as follows:

<camera><filter 1><filter 2>_systrans.tab

where <camera> is "issna" or "isswa," and <filter 1> and <filter 2> represent
the filter names. For polarized filter combinations, values are given for the
parallel orientation of the filter (full transmission), with values for the 
perpendicular (blocking) orientation provided in files with subscript 
"_b_systrans.tab". 

Columns in systrans files are as follows:

 1st column: Wavelength (nm)  
 2nd column: Transmitted Flux
 3rd column: Transmitted Flux * Solar Flux (phot per cm^2-s-angstrom at 1 AU)

The solar spectrum used for this calculation is provided in solarflux.tab.

\begindata
       659.00000  1.01827e-05  5.22578e+08
       659.10000  1.01827e-05  5.24207e+08
       659.20000  1.01827e-05  5.25735e+08
       659.30000  1.01827e-05  5.27059e+08
       659.40000  1.01827e-05  5.28281e+08
       659.50000  1.02020e-05  5.30401e+08
       659.60000  1.02020e-05  5.31421e+08
       659.70000  1.02020e-05  5.32237e+08
       659.80000  1.02020e-05  5.33053e+08
       659.90000  1.02020e-05  5.33665e+08
       660.00000  1.02020e-05  5.34175e+08
       660.10000  1.02020e-05  5.34583e+08
       660.20000  1.02020e-05  5.34787e+08
       660.30000  1.02020e-05  5.34991e+08
       660.40000  1.02020e-05  5.34991e+08
       660.50000  8.17444e-06  4.28586e+08
       660.60000  8.17444e-06  4.28422e+08
       660.70000  8.17444e-06  4.28177e+08
       660.80000  8.17444e-06  4.27768e+08
       660.90000  8.17444e-06  4.27360e+08
       661.00000  8.17444e-06  4.26787e+08
       661.10000  8.17444e-06  4.26542e+08
       661.20000  8.17444e-06  4.26215e+08
       661.30000  8.11459e-06  4.22851e+08
       661.40000  8.11459e-06  4.22608e+08
       661.50000  6.09685e-06  3.17341e+08
       661.60000  6.09685e-06  3.17219e+08
       661.70000  6.09685e-06  3.17036e+08
       661.80000  6.09685e-06  3.16914e+08
       661.90000  6.09685e-06  3.16792e+08
       662.00000  6.09685e-06  3.16670e+08
       662.10000  6.09685e-06  3.16549e+08
       662.20000  6.09685e-06  3.16427e+08
       662.30000  6.09685e-06  3.16366e+08
       662.40000  6.09685e-06  3.16305e+08
       662.50000  8.14130e-06  4.22208e+08
       662.60000  8.14130e-06  4.22208e+08
       662.70000  8.14130e-06  4.22126e+08
       662.80000  8.14130e-06  4.22045e+08
       662.90000  8.14130e-06  4.22045e+08
       663.00000  8.14130e-06  4.22045e+08
       663.10000  8.14130e-06  4.22371e+08
       663.20000  8.14130e-06  4.22615e+08
       663.30000  8.14130e-06  4.22940e+08
       663.40000  8.14130e-06  4.23185e+08
       663.50000  1.01910e-05  5.30033e+08
       663.60000  1.01910e-05  5.30338e+08
       663.70000  1.01910e-05  5.30542e+08
       663.80000  1.01072e-05  5.26483e+08
       663.90000  1.01072e-05  5.26685e+08
       664.00000  1.01072e-05  5.26786e+08
       664.10000  1.01072e-05  5.26988e+08
       664.20000  1.01072e-05  5.27089e+08
       664.30000  1.01072e-05  5.27190e+08
       664.40000  1.01072e-05  5.27291e+08
       664.50000  4.04977e-06  2.11277e+08
       664.60000  4.04977e-06  2.11277e+08
       664.70000  4.04977e-06  2.11277e+08
       664.80000  4.04977e-06  2.11277e+08
       664.90000  4.04977e-06  2.11277e+08
       665.00000  4.04977e-06  2.11236e+08
       665.10000  4.04977e-06  2.11196e+08
       665.20000  4.04977e-06  2.11155e+08
       665.30000  4.04977e-06  2.11074e+08
       665.40000  4.04977e-06  2.10993e+08
       665.50000  1.80206e-06  9.38510e+07
       665.60000  1.80206e-06  9.38150e+07
       665.70000  1.80206e-06  9.37609e+07
       665.80000  1.80206e-06  9.37249e+07
       665.90000  1.80206e-06  9.36708e+07
       666.00000  1.80206e-06  9.35988e+07
       666.10000  1.80206e-06  9.35447e+07
       666.20000  1.80206e-06  9.34726e+07
       666.30000  1.79041e-06  9.27968e+07
       666.40000  1.79041e-06  9.27252e+07
       666.50000  6.05409e-06  3.13238e+08
       666.60000  6.05409e-06  3.12936e+08
       666.70000  6.05409e-06  3.12633e+08
       666.80000  6.05409e-06  3.12330e+08
       666.90000  6.05409e-06  3.12028e+08
       667.00000  6.05409e-06  3.11664e+08
       667.10000  6.05409e-06  3.12028e+08
       667.20000  6.05409e-06  3.12330e+08
       667.30000  6.05409e-06  3.12633e+08
       667.40000  6.05409e-06  3.12936e+08
       667.50000  1.01079e-05  5.22983e+08
       667.60000  1.01079e-05  5.23388e+08
       667.70000  1.01079e-05  5.23792e+08
       667.80000  1.01079e-05  5.24095e+08
       667.90000  1.01079e-05  5.24399e+08
       668.00000  1.01079e-05  5.24702e+08
       668.10000  1.01079e-05  5.25005e+08
       668.20000  1.01079e-05  5.25207e+08
       668.30000  1.01079e-05  5.25409e+08
       668.40000  1.01079e-05  5.25510e+08
       668.50000  6.07327e-06  3.15810e+08
       668.60000  6.07327e-06  3.15871e+08
       668.70000  6.07327e-06  3.15871e+08
       668.80000  6.03842e-06  3.14058e+08
       668.90000  6.03842e-06  3.14058e+08
       669.00000  6.03842e-06  3.13998e+08
       669.10000  6.03842e-06  3.13575e+08
       669.20000  6.03842e-06  3.13153e+08
       669.30000  6.03842e-06  3.12790e+08
       669.40000  6.03842e-06  3.12428e+08
       669.50000  6.04545e-06  3.12429e+08
       669.60000  6.04545e-06  3.12066e+08
       669.70000  6.04545e-06  3.11764e+08
       669.80000  6.04545e-06  3.11461e+08
       669.90000  6.04545e-06  3.11159e+08
       670.00000  6.04545e-06  3.10917e+08
       670.10000  6.04545e-06  3.10675e+08
       670.20000  6.04545e-06  3.10434e+08
       670.30000  6.04545e-06  3.10192e+08
       670.40000  6.04545e-06  3.10010e+08
       670.50000  4.03749e-06  2.06921e+08
       670.60000  4.03749e-06  2.06800e+08
       670.70000  4.03749e-06  2.06719e+08
       670.80000  4.03749e-06  2.06639e+08
       670.90000  4.03749e-06  2.06558e+08
       671.00000  4.03749e-06  2.06517e+08
       671.10000  4.03749e-06  2.06437e+08
       671.20000  4.03749e-06  2.06437e+08
       671.30000  4.01461e-06  2.05227e+08
       671.40000  4.01461e-06  2.05227e+08
       671.50000  4.02106e-06  2.05557e+08
       671.60000  4.02106e-06  2.05557e+08
       671.70000  4.02106e-06  2.05557e+08
       671.80000  4.02106e-06  2.05597e+08
       671.90000  4.02106e-06  2.05637e+08
       672.00000  4.02106e-06  2.05718e+08
       672.10000  4.02106e-06  2.05798e+08
       672.20000  4.02106e-06  2.05878e+08
       672.30000  4.02106e-06  2.05959e+08
       672.40000  4.02106e-06  2.06080e+08
       672.50000  4.02422e-06  2.06362e+08
       672.60000  4.02422e-06  2.06483e+08
       672.70000  4.02422e-06  2.06603e+08
       672.80000  4.02422e-06  2.06764e+08
       672.90000  4.02422e-06  2.06925e+08
       673.00000  4.02422e-06  2.07126e+08
       673.10000  4.02422e-06  2.07046e+08
       673.20000  4.02422e-06  2.06966e+08
       673.30000  4.02422e-06  2.06885e+08
       673.40000  4.02422e-06  2.06845e+08
       673.50000  8.06355e-06  4.14305e+08
       673.60000  8.06355e-06  4.14225e+08
       673.70000  8.06355e-06  4.14144e+08
       673.80000  8.01339e-06  4.11407e+08
       673.90000  8.01339e-06  4.11327e+08
       674.00000  8.01339e-06  4.11247e+08
       674.10000  8.01339e-06  4.11167e+08
       674.20000  8.01339e-06  4.11087e+08
       674.30000  8.01339e-06  4.11007e+08
       674.40000  8.01339e-06  4.10927e+08
       674.50000  6.01655e-06  3.08469e+08
       674.60000  6.01655e-06  3.08469e+08
       674.70000  6.01655e-06  3.08409e+08
       674.80000  6.01655e-06  3.08409e+08
       674.90000  6.01655e-06  3.08348e+08
       675.00000  6.01655e-06  3.08348e+08
       675.10000  6.01655e-06  3.08409e+08
       675.20000  6.01655e-06  3.08469e+08
       675.30000  6.01655e-06  3.08529e+08
       675.40000  6.01655e-06  3.08589e+08
       675.50000  1.01185e-06  5.18977e+07
       675.60000  1.01185e-06  5.19078e+07
       675.70000  1.01185e-06  5.19179e+07
       675.80000  1.01185e-06  5.19179e+07
       675.90000  1.01185e-06  5.19280e+07
       676.00000  1.01185e-06  5.19280e+07
       676.10000  1.01185e-06  5.19381e+07
       676.20000  1.01185e-06  5.19381e+07
       676.30000  1.00420e-06  5.15455e+07
       676.40000  1.00420e-06  5.15455e+07
       676.50000  5.98750e-06  3.07398e+08
       676.60000  5.98750e-06  3.07398e+08
       676.70000  5.98750e-06  3.07398e+08
       676.80000  5.98750e-06  3.07338e+08
       676.90000  5.98750e-06  3.07338e+08
       677.00000  5.98750e-06  3.07338e+08
       677.10000  5.98750e-06  3.07338e+08
       677.20000  5.98750e-06  3.07278e+08
       677.30000  5.98750e-06  3.07278e+08
       677.40000  5.98750e-06  3.07219e+08
       677.50000  5.99470e-06  3.07588e+08
       677.60000  5.99470e-06  3.07528e+08
       677.70000  5.99470e-06  3.07528e+08
       677.80000  5.99470e-06  3.07468e+08
       677.90000  5.99470e-06  3.07408e+08
       678.00000  5.99470e-06  3.07348e+08
       678.10000  5.99470e-06  3.07288e+08
       678.20000  5.99470e-06  3.07228e+08
       678.30000  5.99470e-06  3.07168e+08
       678.40000  5.99470e-06  3.07108e+08
       678.50000  2.00085e-06  1.02463e+08
       678.60000  2.00085e-06  1.02443e+08
       678.70000  2.00085e-06  1.02423e+08
       678.80000  1.98577e-06  1.01612e+08
       678.90000  1.98577e-06  1.01592e+08
       679.00000  1.98577e-06  1.01552e+08
       679.10000  1.98577e-06  1.01552e+08
       679.20000  1.98577e-06  1.01572e+08
       679.30000  1.98577e-06  1.01572e+08
       679.40000  1.98577e-06  1.01572e+08
       679.50000  3.97617e-06  2.03381e+08
       679.60000  3.97617e-06  2.03381e+08
       679.70000  3.97617e-06  2.03381e+08
       679.80000  3.97617e-06  2.03381e+08
       679.90000  3.97617e-06  2.03381e+08
       680.00000  3.97617e-06  2.03341e+08
       680.10000  3.97617e-06  2.03341e+08
       680.20000  3.97617e-06  2.03341e+08
       680.30000  3.97617e-06  2.03301e+08
       680.40000  3.97617e-06  2.03301e+08
       680.50000  5.97125e-06  3.05250e+08
       680.60000  5.97125e-06  3.05250e+08
       680.70000  5.97125e-06  3.05191e+08
       680.80000  5.97125e-06  3.05131e+08
       680.90000  5.97125e-06  3.05071e+08
       681.00000  5.97125e-06  3.05071e+08
       681.10000  5.97125e-06  3.05012e+08
       681.20000  5.97125e-06  3.04952e+08
       681.30000  5.92084e-06  3.02377e+08
       681.40000  5.92084e-06  3.02318e+08
       681.50000  7.90569e-06  4.03585e+08
       681.60000  7.90569e-06  4.03506e+08
       681.70000  7.90569e-06  4.03427e+08
       681.80000  7.90569e-06  4.03269e+08
       681.90000  7.90569e-06  4.03190e+08
       682.00000  7.90569e-06  4.03111e+08
       682.10000  7.90569e-06  4.02953e+08
       682.20000  7.90569e-06  4.02795e+08
       682.30000  7.90569e-06  4.02716e+08
       682.40000  7.90569e-06  4.02558e+08
       682.50000  9.37498e-07  4.77187e+07
       682.60000  9.37498e-07  4.76999e+07
       682.70000  9.37498e-07  4.76812e+07
       682.80000  9.37498e-07  4.76624e+07
       682.90000  9.37498e-07  4.76343e+07
       683.00000  9.37498e-07  4.76155e+07
       683.10000  9.37498e-07  4.75968e+07
       683.20000  9.37498e-07  4.75687e+07
       683.30000  9.37498e-07  4.75405e+07
       683.40000  9.37498e-07  4.75124e+07
       683.50000  5.93736e-06  3.00787e+08
       683.60000  5.93736e-06  3.00609e+08
       683.70000  5.93736e-06  3.00430e+08
       683.80000  5.88099e-06  2.97343e+08
       683.90000  5.88099e-06  2.97166e+08
       684.00000  5.88099e-06  2.96990e+08
       684.10000  5.88099e-06  2.96755e+08
       684.20000  5.88099e-06  2.96578e+08
       684.30000  5.88099e-06  2.96343e+08
       684.40000  5.88099e-06  2.96166e+08
       684.50000  7.85007e-06  3.95015e+08
       684.60000  7.85007e-06  3.94701e+08
       684.70000  7.85007e-06  3.94387e+08
       684.80000  7.85007e-06  3.94073e+08
       684.90000  7.85007e-06  3.93681e+08
       685.00000  7.85007e-06  3.93367e+08
       685.10000  7.85007e-06  3.93681e+08
       685.20000  7.85007e-06  3.94073e+08
       685.30000  7.85007e-06  3.94387e+08
       685.40000  7.85007e-06  3.94623e+08
       685.50000  7.86057e-06  3.95465e+08
       685.60000  7.86057e-06  3.95780e+08
       685.70000  7.86057e-06  3.96015e+08
       685.80000  7.86057e-06  3.96251e+08
       685.90000  7.86057e-06  3.96487e+08
       686.00000  7.86057e-06  3.96723e+08
       686.10000  7.86057e-06  3.96959e+08
       686.20000  7.86057e-06  3.97116e+08
       686.30000  7.78633e-06  3.93599e+08
       686.40000  7.78633e-06  3.93755e+08
       686.50000  1.36357e-05  6.89831e+08
       686.60000  1.36357e-05  6.90104e+08
       686.70000  1.36357e-05  6.90377e+08
       686.80000  1.36357e-05  6.90513e+08
       686.90000  1.36357e-05  6.90786e+08
       687.00000  1.36357e-05  6.90922e+08
       687.10000  1.36357e-05  6.91058e+08
       687.20000  1.36357e-05  6.91058e+08
       687.30000  1.36357e-05  6.91058e+08
       687.40000  1.36357e-05  6.91058e+08
       687.50000  5.84964e-06  2.96460e+08
       687.60000  5.84964e-06  2.96460e+08
       687.70000  5.84964e-06  2.96460e+08
       687.80000  5.84964e-06  2.96460e+08
       687.90000  5.84964e-06  2.96460e+08
       688.00000  5.84964e-06  2.96401e+08
       688.10000  5.84964e-06  2.96401e+08
       688.20000  5.84964e-06  2.96401e+08
       688.30000  5.84964e-06  2.96343e+08
       688.40000  5.84964e-06  2.96343e+08
       688.50000  1.38866e-06  7.03356e+07
       688.60000  1.38866e-06  7.03218e+07
       688.70000  1.38866e-06  7.03218e+07
       688.80000  1.37726e-06  6.97307e+07
       688.90000  1.37726e-06  6.97169e+07
       689.00000  1.37726e-06  6.97031e+07
       689.10000  1.37726e-06  6.96894e+07
       689.20000  1.37726e-06  6.96756e+07
       689.30000  1.37726e-06  6.96618e+07
       689.40000  1.37726e-06  6.96480e+07
       689.50000  5.81138e-06  2.93823e+08
       689.60000  5.81138e-06  2.93765e+08
       689.70000  5.81138e-06  2.93649e+08
       689.80000  5.81138e-06  2.93591e+08
       689.90000  5.81138e-06  2.93533e+08
       690.00000  5.81138e-06  2.93416e+08
       690.10000  5.81138e-06  2.93300e+08
       690.20000  5.81138e-06  2.93242e+08
       690.30000  5.81138e-06  2.93126e+08
       690.40000  5.81138e-06  2.93010e+08
       690.50000  5.81920e-06  2.93346e+08
       690.60000  5.81920e-06  2.93229e+08
       690.70000  5.81920e-06  2.93113e+08
       690.80000  5.81920e-06  2.92997e+08
       690.90000  5.81920e-06  2.92880e+08
       691.00000  5.81920e-06  2.92764e+08
       691.10000  5.81920e-06  2.92880e+08
       691.20000  5.81920e-06  2.92938e+08
       691.30000  5.77512e-06  2.90835e+08
       691.40000  5.77512e-06  2.90893e+08
       691.50000  5.77972e-06  2.91182e+08
       691.60000  5.77972e-06  2.91298e+08
       691.70000  5.77972e-06  2.91356e+08
       691.80000  5.77972e-06  2.91414e+08
       691.90000  5.77972e-06  2.91471e+08
       692.00000  5.77972e-06  2.91471e+08
       692.10000  5.77972e-06  2.91529e+08
       692.20000  5.77972e-06  2.91587e+08
       692.30000  5.77972e-06  2.91587e+08
       692.40000  5.77972e-06  2.91587e+08
       692.50000  5.78365e-06  2.91843e+08
       692.60000  5.78365e-06  2.91843e+08
       692.70000  5.78365e-06  2.91843e+08
       692.80000  5.78365e-06  2.91843e+08
       692.90000  5.78365e-06  2.91843e+08
       693.00000  5.78365e-06  2.91785e+08
       693.10000  5.78365e-06  2.91785e+08
       693.20000  5.78365e-06  2.91727e+08
       693.30000  5.78365e-06  2.91669e+08
       693.40000  5.78365e-06  2.91612e+08
       693.50000  7.71607e-06  3.88967e+08
       693.60000  7.71607e-06  3.88890e+08
       693.70000  7.71607e-06  3.88813e+08
       693.80000  7.66285e-06  3.86055e+08
       693.90000  7.66285e-06  3.85901e+08
       694.00000  7.66285e-06  3.85825e+08
       694.10000  7.66285e-06  3.85748e+08
       694.20000  7.66285e-06  3.85595e+08
       694.30000  7.66285e-06  3.85518e+08
       694.40000  7.66285e-06  3.85365e+08
       694.50000  5.75489e-06  2.89298e+08
       694.60000  5.75489e-06  2.89241e+08
       694.70000  5.75489e-06  2.89125e+08
       694.80000  5.75489e-06  2.89010e+08
       694.90000  5.75489e-06  2.88895e+08
       695.00000  5.75489e-06  2.88780e+08
       695.10000  5.75489e-06  2.88665e+08
       695.20000  5.75489e-06  2.88550e+08
       695.30000  5.75489e-06  2.88377e+08
       695.40000  5.75489e-06  2.88262e+08
       695.50000  3.83893e-06  1.92215e+08
       695.60000  3.83893e-06  1.92100e+08
       695.70000  3.83893e-06  1.92023e+08
       695.80000  3.83893e-06  1.91908e+08
       695.90000  3.83893e-06  1.91793e+08
       696.00000  3.83893e-06  1.91716e+08
       696.10000  3.83893e-06  1.91601e+08
       696.20000  3.83893e-06  1.91486e+08
       696.30000  3.81647e-06  1.90251e+08
       696.40000  3.81647e-06  1.90137e+08
       696.50000  1.91020e-06  9.51090e+07
       696.60000  1.91020e-06  9.50517e+07
       696.70000  1.91020e-06  9.49753e+07
       696.80000  1.91020e-06  9.49180e+07
       696.90000  1.91020e-06  9.48607e+07
       697.00000  1.91020e-06  9.47843e+07
       697.10000  1.91020e-06  9.49180e+07
       697.20000  1.91020e-06  9.50135e+07
       697.30000  1.91020e-06  9.51281e+07
       697.40000  1.91020e-06  9.52236e+07
       697.50000  9.56308e-06  4.77198e+08
       697.60000  9.56308e-06  4.77580e+08
       697.70000  9.56308e-06  4.77963e+08
       697.80000  9.56308e-06  4.78249e+08
       697.90000  9.56308e-06  4.78536e+08
       698.00000  9.56308e-06  4.78728e+08
       698.10000  9.56308e-06  4.78919e+08
       698.20000  9.56308e-06  4.79110e+08
       698.30000  9.56308e-06  4.79206e+08
       698.40000  9.56308e-06  4.79301e+08
       698.50000  5.74180e-06  2.87836e+08
       698.60000  5.74180e-06  2.87836e+08
       698.70000  5.74180e-06  2.87779e+08
       698.80000  5.70660e-06  2.85958e+08
       698.90000  5.70660e-06  2.85901e+08
       699.00000  5.70660e-06  2.85786e+08
       699.10000  5.70660e-06  2.85273e+08
       699.20000  5.70660e-06  2.84702e+08
       699.30000  5.70660e-06  2.84246e+08
       699.40000  5.70660e-06  2.83732e+08
       699.50000  1.90328e-06  9.44789e+07
       699.60000  1.90328e-06  9.43266e+07
       699.70000  1.90328e-06  9.41934e+07
       699.80000  1.90328e-06  9.40602e+07
       699.90000  1.90328e-06  9.39269e+07
       700.00000  1.90328e-06  9.38127e+07
       700.10000  1.90328e-06  9.36985e+07
       700.20000  1.90328e-06  9.35843e+07
       700.30000  1.90328e-06  9.34892e+07
       700.40000  1.90328e-06  9.33940e+07
       700.50000  9.52552e-06  4.66941e+08
       700.60000  9.52552e-06  4.66560e+08
       700.70000  9.52552e-06  4.66179e+08
       700.80000  9.52552e-06  4.65893e+08
       700.90000  9.52552e-06  4.65607e+08
       701.00000  9.52552e-06  4.65322e+08
       701.10000  9.52552e-06  4.65226e+08
       701.20000  9.52552e-06  4.65131e+08
       701.30000  9.45495e-06  4.61590e+08
       701.40000  9.45495e-06  4.61590e+08
       701.50000  7.57132e-06  3.69632e+08
       701.60000  7.57132e-06  3.69632e+08
       701.70000  7.57132e-06  3.69632e+08
       701.80000  7.57132e-06  3.69707e+08
       701.90000  7.57132e-06  3.69707e+08
       702.00000  7.57132e-06  3.69783e+08
       702.10000  7.57132e-06  3.69934e+08
       702.20000  7.57132e-06  3.70010e+08
       702.30000  7.57132e-06  3.70162e+08
       702.40000  7.57132e-06  3.70237e+08
       702.50000  1.84257e-06  9.01387e+07
       702.60000  1.84257e-06  9.01940e+07
       702.70000  1.84257e-06  9.02308e+07
       702.80000  1.84257e-06  9.02861e+07
       702.90000  1.84257e-06  9.03414e+07
       703.00000  1.84257e-06  9.03967e+07
       703.10000  1.84257e-06  9.05625e+07
       703.20000  1.84257e-06  9.07283e+07
       703.30000  1.84257e-06  9.08757e+07
       703.40000  1.84257e-06  9.10231e+07
       703.50000  7.58343e-06  3.75152e+08
       703.60000  7.58343e-06  3.75759e+08
       703.70000  7.58343e-06  3.76214e+08
       703.80000  7.51304e-06  3.73248e+08
       703.90000  7.51304e-06  3.73699e+08
       704.00000  7.51304e-06  3.74074e+08
       704.10000  7.51304e-06  3.74525e+08
       704.20000  7.51304e-06  3.74901e+08
       704.30000  7.51304e-06  3.75201e+08
       704.40000  7.51304e-06  3.75502e+08
       704.50000  3.76211e-06  1.88181e+08
       704.60000  3.76211e-06  1.88331e+08
       704.70000  3.76211e-06  1.88444e+08
       704.80000  3.76211e-06  1.88519e+08
       704.90000  3.76211e-06  1.88632e+08
       705.00000  3.76211e-06  1.88707e+08
       705.10000  3.76211e-06  1.88745e+08
       705.20000  3.76211e-06  1.88783e+08
       705.30000  3.76211e-06  1.88820e+08
       705.40000  3.76211e-06  1.88858e+08
       705.50000  3.76397e-06  1.88952e+08
       705.60000  3.76397e-06  1.88952e+08
       705.70000  3.76397e-06  1.88914e+08
       705.80000  3.76397e-06  1.88876e+08
       705.90000  3.76397e-06  1.88839e+08
       706.00000  3.76397e-06  1.88763e+08
       706.10000  3.76397e-06  1.88688e+08
       706.20000  3.76397e-06  1.88575e+08
       706.30000  3.72685e-06  1.86603e+08
       706.40000  3.72685e-06  1.86491e+08
       706.50000  3.72858e-06  1.86429e+08
       706.60000  3.72858e-06  1.86280e+08
       706.70000  3.72858e-06  1.86131e+08
       706.80000  3.72858e-06  1.85945e+08
       706.90000  3.72858e-06  1.85758e+08
       707.00000  3.72858e-06  1.85572e+08
       707.10000  3.72858e-06  1.85423e+08
       707.20000  3.72858e-06  1.85311e+08
       707.30000  3.72858e-06  1.85162e+08
       707.40000  3.72858e-06  1.85050e+08
       707.50000  3.73194e-06  1.85104e+08
       707.60000  3.73194e-06  1.84992e+08
       707.70000  3.73194e-06  1.84917e+08
       707.80000  3.73194e-06  1.84805e+08
       707.90000  3.73194e-06  1.84731e+08
       708.00000  3.73194e-06  1.84656e+08
       708.10000  3.73194e-06  1.84582e+08
       708.20000  3.73194e-06  1.84507e+08
       708.30000  3.73194e-06  1.84432e+08
       708.40000  3.73194e-06  1.84358e+08
       708.50000  5.60381e-06  2.76772e+08
       708.60000  5.60381e-06  2.76660e+08
       708.70000  5.60381e-06  2.76604e+08
       708.80000  5.53962e-06  2.73380e+08
       708.90000  5.53962e-06  2.73325e+08
       709.00000  5.53962e-06  2.73325e+08
       709.10000  5.53962e-06  2.73436e+08
       709.20000  5.53962e-06  2.73546e+08
       709.30000  5.53962e-06  2.73602e+08
       709.40000  5.53962e-06  2.73713e+08
       709.50000  7.39423e-06  3.65423e+08
       709.60000  7.39423e-06  3.65571e+08
       709.70000  7.39423e-06  3.65645e+08
       709.80000  7.39423e-06  3.65719e+08
       709.90000  7.39423e-06  3.65792e+08
       710.00000  7.39423e-06  3.65866e+08
       710.10000  7.39423e-06  3.65940e+08
       710.20000  7.39423e-06  3.66014e+08
       710.30000  7.39423e-06  3.66014e+08
       710.40000  7.39423e-06  3.66088e+08
       710.50000  5.54966e-06  2.74763e+08
       710.60000  5.54966e-06  2.74763e+08
       710.70000  5.54966e-06  2.74763e+08
       710.80000  5.54966e-06  2.74763e+08
       710.90000  5.54966e-06  2.74763e+08
       711.00000  5.54966e-06  2.74763e+08
       711.10000  5.54966e-06  2.74763e+08
       711.20000  5.54966e-06  2.74708e+08
       711.30000  5.46858e-06  2.70695e+08
       711.40000  5.46858e-06  2.70640e+08
       711.50000  7.29712e-06  3.61061e+08
       711.60000  7.29712e-06  3.60988e+08
       711.70000  7.29712e-06  3.60915e+08
       711.80000  7.29712e-06  3.60842e+08
       711.90000  7.29712e-06  3.60770e+08
       712.00000  7.29712e-06  3.60624e+08
       712.10000  7.29712e-06  3.60551e+08
       712.20000  7.29712e-06  3.60405e+08
       712.30000  7.29712e-06  3.60332e+08
       712.40000  7.29712e-06  3.60186e+08
       712.50000  3.65257e-06  1.80218e+08
       712.60000  3.65257e-06  1.80145e+08
       712.70000  3.65257e-06  1.80035e+08
       712.80000  3.65257e-06  1.79962e+08
       712.90000  3.65257e-06  1.79889e+08
       713.00000  3.65257e-06  1.79779e+08
       713.10000  3.65257e-06  1.79779e+08
       713.20000  3.65257e-06  1.79779e+08
       713.30000  3.65257e-06  1.79779e+08
       713.40000  3.65257e-06  1.79743e+08
       713.50000  7.31013e-06  3.59731e+08
       713.60000  7.31013e-06  3.59731e+08
       713.70000  7.31013e-06  3.59658e+08
       713.80000  7.21049e-06  3.54756e+08
       713.90000  7.21049e-06  3.54684e+08
       714.00000  7.21049e-06  3.54684e+08
       714.10000  7.21049e-06  3.54612e+08
       714.20000  7.21049e-06  3.54540e+08
       714.30000  7.21049e-06  3.54540e+08
       714.40000  7.21049e-06  3.54468e+08
       714.50000  1.27751e-06  6.27894e+07
       714.60000  1.27751e-06  6.27767e+07
       714.70000  1.27751e-06  6.27767e+07
       714.80000  1.27751e-06  6.27639e+07
       714.90000  1.27751e-06  6.27511e+07
       715.00000  1.27751e-06  6.27383e+07
       715.10000  1.27751e-06  6.27256e+07
       715.20000  1.27751e-06  6.27256e+07
       715.30000  1.27751e-06  6.27256e+07
       715.40000  1.27751e-06  6.27128e+07
       715.50000  2.56478e-07  1.25879e+07
       715.60000  2.56478e-07  1.25854e+07
       715.70000  2.56478e-07  1.25828e+07
       715.80000  2.56478e-07  1.25802e+07
       715.90000  2.56478e-07  1.25777e+07
       716.00000  2.56478e-07  1.25726e+07
       716.10000  2.56478e-07  1.25700e+07
       716.20000  2.56478e-07  1.25649e+07
       716.30000  2.53051e-07  1.23919e+07
       716.40000  2.53051e-07  1.23868e+07
       716.50000  3.56431e-06  1.74402e+08
       716.60000  3.56431e-06  1.74330e+08
       716.70000  3.56431e-06  1.74259e+08
       716.80000  3.56431e-06  1.74152e+08
       716.90000  3.56431e-06  1.74081e+08
       717.00000  3.56431e-06  1.73974e+08
       717.10000  3.56431e-06  1.73867e+08
       717.20000  3.56431e-06  1.73760e+08
       717.30000  3.56431e-06  1.73653e+08
       717.40000  3.56431e-06  1.73546e+08
       717.50000  8.92316e-06  4.34201e+08
       717.60000  8.92316e-06  4.33844e+08
       717.70000  8.92316e-06  4.33576e+08
       717.80000  8.92316e-06  4.33219e+08
       717.90000  8.92316e-06  4.32863e+08
       718.00000  8.92316e-06  4.32506e+08
       718.10000  8.92316e-06  4.32149e+08
       718.20000  8.92316e-06  4.31792e+08
       718.30000  8.92316e-06  4.31435e+08
       718.40000  8.92316e-06  4.30989e+08
       718.50000  1.74141e-06  8.40407e+07
       718.60000  1.74141e-06  8.39536e+07
       718.70000  1.74141e-06  8.38665e+07
       718.80000  1.72050e-06  8.27734e+07
       718.90000  1.72050e-06  8.26874e+07
       719.00000  1.72050e-06  8.26013e+07
       719.10000  1.72050e-06  8.26013e+07
       719.20000  1.72050e-06  8.26013e+07
       719.30000  1.72050e-06  8.26013e+07
       719.40000  1.72050e-06  8.26185e+07
       719.50000  5.29992e-06  2.54502e+08
       719.60000  5.29992e-06  2.54555e+08
       719.70000  5.29992e-06  2.54555e+08
       719.80000  5.29992e-06  2.54608e+08
       719.90000  5.29992e-06  2.54661e+08
       720.00000  5.29992e-06  2.54767e+08
       720.10000  5.29992e-06  2.54820e+08
       720.20000  5.29992e-06  2.54873e+08
       720.30000  5.29992e-06  2.54979e+08
       720.40000  5.29992e-06  2.55032e+08
       720.50000  5.30082e-06  2.55181e+08
       720.60000  5.30082e-06  2.55287e+08
       720.70000  5.30082e-06  2.55393e+08
       720.80000  5.30082e-06  2.55499e+08
       720.90000  5.30082e-06  2.55658e+08
       721.00000  5.30082e-06  2.55764e+08
       721.10000  5.30082e-06  2.56029e+08
       721.20000  5.30082e-06  2.56294e+08
       721.30000  5.24103e-06  2.53666e+08
       721.40000  5.24103e-06  2.53876e+08
       721.50000  3.49707e-06  1.69573e+08
       721.60000  3.49707e-06  1.69713e+08
       721.70000  3.49707e-06  1.69853e+08
       721.80000  3.49707e-06  1.70027e+08
       721.90000  3.49707e-06  1.70167e+08
       722.00000  3.49707e-06  1.70272e+08
       722.10000  3.49707e-06  1.70412e+08
       722.20000  3.49707e-06  1.70552e+08
       722.30000  3.49707e-06  1.70657e+08
       722.40000  3.49707e-06  1.70762e+08
       722.50000  7.00633e-06  3.42329e+08
       722.60000  7.00633e-06  3.42610e+08
       722.70000  7.00633e-06  3.42750e+08
       722.80000  7.00633e-06  3.42960e+08
       722.90000  7.00633e-06  3.43170e+08
       723.00000  7.00633e-06  3.43310e+08
       723.10000  7.00633e-06  3.43520e+08
       723.20000  7.00633e-06  3.43661e+08
       723.30000  7.00633e-06  3.43801e+08
       723.40000  7.00633e-06  3.43941e+08
       723.50000  5.25611e-06  2.58127e+08
       723.60000  5.25611e-06  2.58180e+08
       723.70000  5.25611e-06  2.58285e+08
       723.80000  5.19678e-06  2.55422e+08
       723.90000  5.19678e-06  2.55474e+08
       724.00000  5.19678e-06  2.55526e+08
       724.10000  5.19678e-06  2.55577e+08
       724.20000  5.19678e-06  2.55629e+08
       724.30000  5.19678e-06  2.55681e+08
       724.40000  5.19678e-06  2.55733e+08
       724.50000  1.73358e-06  8.53095e+07
       724.60000  1.73358e-06  8.53095e+07
       724.70000  1.73358e-06  8.53095e+07
       724.80000  1.73358e-06  8.53095e+07
       724.90000  1.73358e-06  8.53095e+07
       725.00000  1.73358e-06  8.53095e+07
       727.00000  1.68125e-06  8.27176e+07
       727.10000  1.68125e-06  8.26000e+07
       727.20000  1.68125e-06  8.24823e+07
       727.30000  1.68125e-06  8.23646e+07
       727.40000  1.68125e-06  8.22637e+07
       727.50000  3.43700e-06  1.67966e+08
       727.60000  3.43700e-06  1.67760e+08
       727.70000  3.43700e-06  1.67588e+08
       727.80000  3.43700e-06  1.67416e+08
       727.90000  3.43700e-06  1.67245e+08
       728.00000  3.43700e-06  1.67107e+08
       728.10000  3.43700e-06  1.66970e+08
       728.20000  3.43700e-06  1.66832e+08
       728.30000  3.43700e-06  1.66695e+08
       728.40000  3.43700e-06  1.66592e+08
       728.50000  1.55934e-06  7.55346e+07
       728.60000  1.55934e-06  7.55034e+07
       728.70000  1.55934e-06  7.54566e+07
       728.80000  1.54195e-06  7.45997e+07
       728.90000  1.54195e-06  7.45689e+07
       729.00000  1.54195e-06  7.45535e+07
       729.10000  1.54195e-06  7.45381e+07
       729.20000  1.54195e-06  7.45226e+07
       729.30000  1.54195e-06  7.45226e+07
       729.40000  1.54195e-06  7.45072e+07
       729.50000  5.10938e-06  2.46936e+08
       729.60000  5.10938e-06  2.46936e+08
       729.70000  5.10938e-06  2.46988e+08
       729.80000  5.10938e-06  2.47039e+08
       729.90000  5.10938e-06  2.47141e+08
       730.00000  5.10938e-06  2.47243e+08
       730.10000  5.10938e-06  2.47345e+08
       730.20000  5.10938e-06  2.47447e+08
       730.30000  5.10938e-06  2.47601e+08
       730.40000  5.10938e-06  2.47754e+08
       730.50000  5.11240e-06  2.48054e+08
       730.60000  5.11240e-06  2.48258e+08
       730.70000  5.11240e-06  2.48463e+08
       730.80000  5.11240e-06  2.48667e+08
       730.90000  5.11240e-06  2.48923e+08
       731.00000  5.11240e-06  2.49178e+08
       731.10000  5.11240e-06  2.49127e+08
       731.20000  5.11240e-06  2.49076e+08
       731.30000  5.04903e-06  2.45938e+08
       731.40000  5.04903e-06  2.45938e+08
       731.50000  3.36849e-06  1.64046e+08
       731.60000  3.36849e-06  1.64012e+08
       731.70000  3.36849e-06  1.63978e+08
       731.80000  3.36849e-06  1.63978e+08
       731.90000  3.36849e-06  1.63944e+08
       732.00000  3.36849e-06  1.63911e+08
       732.10000  3.36849e-06  1.63877e+08
       732.20000  3.36849e-06  1.63843e+08
       732.30000  3.36849e-06  1.63843e+08
       732.40000  3.36849e-06  1.63810e+08
       732.50000  3.01381e-07  1.46531e+07
       732.60000  3.01381e-07  1.46501e+07
       732.70000  3.01381e-07  1.46471e+07
       732.80000  3.01381e-07  1.46441e+07
       732.90000  3.01381e-07  1.46411e+07
       733.00000  3.01381e-07  1.46381e+07
       733.10000  3.01381e-07  1.46351e+07
       733.20000  3.01381e-07  1.46290e+07
       733.30000  3.01381e-07  1.46260e+07
       733.40000  3.01381e-07  1.46200e+07
       733.50000  5.06006e-06  2.45413e+08
       733.60000  5.06006e-06  2.45362e+08
       733.70000  5.06006e-06  2.45261e+08
       733.80000  4.99063e-06  2.41846e+08
       733.90000  4.99063e-06  2.41796e+08
       734.00000  4.99063e-06  2.41746e+08
       734.10000  4.99063e-06  2.41696e+08
       734.20000  4.99063e-06  2.41646e+08
       734.30000  4.99063e-06  2.41597e+08
       734.40000  4.99063e-06  2.41597e+08
       734.50000  3.22036e-07  1.55865e+07
       734.60000  3.22036e-07  1.55833e+07
       734.70000  3.22036e-07  1.55833e+07
       734.80000  3.22036e-07  1.55801e+07
       734.90000  3.22036e-07  1.55801e+07
       735.00000  3.22036e-07  1.55769e+07
       735.10000  3.22036e-07  1.55769e+07
       735.20000  3.22036e-07  1.55769e+07
       735.30000  3.22036e-07  1.55769e+07
       735.40000  3.22036e-07  1.55736e+07
       735.50000  3.33730e-06  1.61392e+08
       735.60000  3.33730e-06  1.61392e+08
       735.70000  3.33730e-06  1.61392e+08
       735.80000  3.33730e-06  1.61425e+08
       735.90000  3.33730e-06  1.61425e+08
       736.00000  3.33730e-06  1.61425e+08
       736.10000  3.33730e-06  1.61425e+08
       736.20000  3.33730e-06  1.61458e+08
       736.30000  3.28476e-06  1.58917e+08
       736.40000  3.28476e-06  1.58949e+08
       736.50000  3.28480e-06  1.58952e+08
       736.60000  3.28480e-06  1.58984e+08
       736.70000  3.28480e-06  1.59017e+08
       736.80000  3.28480e-06  1.59017e+08
       736.90000  3.28480e-06  1.59050e+08
       737.00000  3.28480e-06  1.59083e+08
       737.10000  3.28480e-06  1.58919e+08
       737.20000  3.28480e-06  1.58722e+08
       737.30000  3.28480e-06  1.58557e+08
       737.40000  3.28480e-06  1.58393e+08
       737.50000  4.93170e-06  2.37511e+08
       737.60000  4.93170e-06  2.37264e+08
       737.70000  4.93170e-06  2.37018e+08
       737.80000  4.93170e-06  2.36771e+08
       737.90000  4.93170e-06  2.36574e+08
       738.00000  4.93170e-06  2.36327e+08
       738.10000  4.93170e-06  2.36081e+08
       738.20000  4.93170e-06  2.35834e+08
       738.30000  4.93170e-06  2.35637e+08
       738.40000  4.93170e-06  2.35440e+08
       738.50000  4.93821e-06  2.35503e+08
       738.60000  4.93821e-06  2.35305e+08
       738.70000  4.93821e-06  2.35108e+08
       738.80000  4.85324e-06  2.30868e+08
       738.90000  4.85324e-06  2.30674e+08
       739.00000  4.85324e-06  2.30480e+08
       739.10000  4.85324e-06  2.30092e+08
       739.20000  4.85324e-06  2.29752e+08
       739.30000  4.85324e-06  2.29461e+08
       739.40000  4.85324e-06  2.29170e+08
       739.50000  5.33257e-07  2.51484e+07
       739.60000  5.33257e-07  2.51217e+07
       739.70000  5.33257e-07  2.51004e+07
       739.80000  5.33257e-07  2.50737e+07
       739.90000  5.33257e-07  2.50577e+07
       740.00000  5.33257e-07  2.50364e+07
       740.10000  5.33257e-07  2.50257e+07
       740.20000  5.33257e-07  2.50097e+07
       740.30000  5.33257e-07  2.49991e+07
       740.40000  5.33257e-07  2.49937e+07
       740.50000  4.86315e-06  2.27887e+08
       740.60000  4.86315e-06  2.27839e+08
       740.70000  4.86315e-06  2.27839e+08
       740.80000  4.86315e-06  2.27839e+08
       740.90000  4.86315e-06  2.27887e+08
       741.00000  4.86315e-06  2.27936e+08
       741.10000  4.86315e-06  2.28033e+08
       741.20000  4.86315e-06  2.28130e+08
       741.30000  4.77908e-06  2.24282e+08
       741.40000  4.77908e-06  2.24426e+08
       741.50000  1.02173e-06  4.80113e+07
       741.60000  1.02173e-06  4.80521e+07
       741.70000  1.02173e-06  4.81032e+07
       741.80000  1.02173e-06  4.81441e+07
       741.90000  1.02173e-06  4.82054e+07
       742.00000  1.02173e-06  4.82565e+07
       742.10000  1.02173e-06  4.83178e+07
       742.20000  1.02173e-06  4.83893e+07
       742.30000  1.02173e-06  4.84608e+07
       742.40000  1.02173e-06  4.85324e+07
       742.50000  6.37751e-06  3.03442e+08
       742.60000  6.37751e-06  3.03952e+08
       742.70000  6.37751e-06  3.04526e+08
       742.80000  6.37751e-06  3.05100e+08
       742.90000  6.37751e-06  3.05738e+08
       743.00000  6.37751e-06  3.06376e+08
       743.10000  6.37751e-06  3.06248e+08
       743.20000  6.37751e-06  3.06184e+08
       743.30000  6.37751e-06  3.06120e+08
       743.40000  6.37751e-06  3.05993e+08
       743.50000  4.79064e-06  2.29807e+08
       743.60000  4.79064e-06  2.29759e+08
       743.70000  4.79064e-06  2.29711e+08
       743.80000  4.71670e-06  2.26119e+08
       743.90000  4.71670e-06  2.26071e+08
       744.00000  4.71670e-06  2.26024e+08
       744.10000  4.71670e-06  2.26024e+08
       744.20000  4.71670e-06  2.25977e+08
       744.30000  4.71670e-06  2.25977e+08
       744.40000  4.71670e-06  2.25977e+08
       744.50000  3.14601e-06  1.50694e+08
       744.60000  3.14601e-06  1.50694e+08
       744.70000  3.14601e-06  1.50694e+08
       744.80000  3.14601e-06  1.50694e+08
       744.90000  3.14601e-06  1.50725e+08
       745.00000  3.14601e-06  1.50725e+08
       745.10000  3.14601e-06  1.50820e+08
       745.20000  3.14601e-06  1.50914e+08
       745.30000  3.14601e-06  1.50977e+08
       745.40000  3.14601e-06  1.51071e+08
       745.50000  4.72173e-06  2.26832e+08
       745.60000  4.72173e-06  2.26926e+08
       745.70000  4.72173e-06  2.27021e+08
       745.80000  4.72173e-06  2.27115e+08
       745.90000  4.72173e-06  2.27162e+08
       746.00000  4.72173e-06  2.27257e+08
       746.10000  4.72173e-06  2.27304e+08
       746.20000  4.72173e-06  2.27351e+08
       746.30000  4.66752e-06  2.24788e+08
       746.40000  4.66752e-06  2.24834e+08
       746.50000  3.11638e-06  1.50147e+08
       746.60000  3.11638e-06  1.50147e+08
       746.70000  3.11638e-06  1.50179e+08
       746.80000  3.11638e-06  1.50179e+08
       746.90000  3.11638e-06  1.50179e+08
       747.00000  3.11638e-06  1.50179e+08
       747.10000  3.11638e-06  1.50085e+08
       747.20000  3.11638e-06  1.50023e+08
       747.30000  3.11638e-06  1.49960e+08
       747.40000  3.11638e-06  1.49898e+08
       747.50000  4.67785e-06  2.24911e+08
       747.60000  4.67785e-06  2.24817e+08
       747.70000  4.67785e-06  2.24724e+08
       747.80000  4.67785e-06  2.24630e+08
       747.90000  4.67785e-06  2.24537e+08
       748.00000  4.67785e-06  2.24443e+08
       748.10000  4.67785e-06  2.24396e+08
       748.20000  4.67785e-06  2.24303e+08
       748.30000  4.67785e-06  2.24209e+08
       748.40000  4.67785e-06  2.24162e+08
       748.50000  3.12091e-06  1.49491e+08
       748.60000  3.12091e-06  1.49429e+08
       748.70000  3.12091e-06  1.49398e+08
       748.80000  3.08527e-06  1.47630e+08
       748.90000  3.08527e-06  1.47599e+08
       749.00000  3.08527e-06  1.47568e+08
       749.10000  3.08527e-06  1.47507e+08
       749.20000  3.08527e-06  1.47476e+08
       749.30000  3.08527e-06  1.47445e+08
       749.40000  3.08527e-06  1.47414e+08
       749.50000  4.63374e-06  2.21354e+08
       749.60000  4.63374e-06  2.21307e+08
       749.70000  4.63374e-06  2.21215e+08
       749.80000  4.63374e-06  2.21168e+08
       749.90000  4.63374e-06  2.21168e+08
       750.00000  4.63374e-06  2.21122e+08
       750.10000  4.63374e-06  2.21076e+08
       750.20000  4.63374e-06  2.21029e+08
       750.30000  4.63374e-06  2.20983e+08
       750.40000  4.63374e-06  2.20983e+08
       750.50000  3.08940e-06  1.47303e+08
       750.60000  3.08940e-06  1.47272e+08
       750.70000  3.08940e-06  1.47272e+08
       750.80000  3.08940e-06  1.47241e+08
       750.90000  3.08940e-06  1.47241e+08
       751.00000  3.08940e-06  1.47210e+08
       751.10000  3.08940e-06  1.47210e+08
       751.20000  3.08940e-06  1.47210e+08
       751.30000  3.04978e-06  1.45292e+08
       751.40000  3.04978e-06  1.45292e+08
       751.50000  6.07688e-06  2.89503e+08
       751.60000  6.07688e-06  2.89503e+08
       751.70000  6.07688e-06  2.89503e+08
       751.80000  6.07688e-06  2.89503e+08
       751.90000  6.07688e-06  2.89503e+08
       752.00000  6.07688e-06  2.89503e+08
       752.10000  6.07688e-06  2.89503e+08
       752.20000  6.07688e-06  2.89503e+08
       752.30000  6.07688e-06  2.89503e+08
       752.40000  6.07688e-06  2.89503e+08
       752.50000  6.05398e-06  2.88472e+08
       752.60000  6.05398e-06  2.88472e+08
       752.70000  6.05398e-06  2.88472e+08
       752.80000  6.05398e-06  2.88533e+08
       752.90000  6.05398e-06  2.88533e+08
       753.00000  6.05398e-06  2.88593e+08
       753.10000  6.05398e-06  2.88593e+08
       753.20000  6.05398e-06  2.88593e+08
       753.30000  6.05398e-06  2.88593e+08
       753.40000  6.05398e-06  2.88593e+08
       753.50000  3.01362e-06  1.43659e+08
       753.60000  3.01362e-06  1.43659e+08
       753.70000  3.01362e-06  1.43659e+08
       753.80000  2.97120e-06  1.41637e+08
       753.90000  2.97120e-06  1.41637e+08
       754.00000  2.97120e-06  1.41637e+08
       754.10000  2.97120e-06  1.41637e+08
       754.20000  2.97120e-06  1.41607e+08
       754.30000  2.97120e-06  1.41607e+08
       754.40000  2.97120e-06  1.41607e+08
       754.50000  4.43873e-06  2.11550e+08
       754.60000  4.43873e-06  2.11550e+08
       754.70000  4.43873e-06  2.11506e+08
       754.80000  4.43873e-06  2.11506e+08
       754.90000  4.43873e-06  2.11461e+08
       755.00000  4.43873e-06  2.11461e+08
       755.10000  4.43873e-06  2.11417e+08
       755.20000  4.43873e-06  2.11417e+08
       755.30000  4.43873e-06  2.11372e+08
       755.40000  4.43873e-06  2.11372e+08
       755.50000  4.41675e-06  2.10282e+08
       755.60000  4.41675e-06  2.10237e+08
       755.70000  4.41675e-06  2.10237e+08
       755.80000  4.41675e-06  2.10193e+08
       755.90000  4.41675e-06  2.10149e+08
       756.00000  4.41675e-06  2.10149e+08
       756.10000  4.41675e-06  2.10105e+08
       756.20000  4.41675e-06  2.10061e+08
       756.30000  4.35321e-06  2.06995e+08
       756.40000  4.35321e-06  2.06995e+08
       756.50000  4.33495e-06  2.06084e+08
       756.60000  4.33495e-06  2.06040e+08
       756.70000  4.33495e-06  2.05997e+08
       756.80000  4.33495e-06  2.05997e+08
       756.90000  4.33495e-06  2.05954e+08
       757.00000  4.33495e-06  2.05910e+08
       757.10000  4.33495e-06  2.05867e+08
       757.20000  4.33495e-06  2.05824e+08
       757.30000  4.33495e-06  2.05824e+08
       757.40000  4.33495e-06  2.05780e+08
       757.50000  2.87796e-06  1.36588e+08
       757.60000  2.87796e-06  1.36559e+08
       757.70000  2.87796e-06  1.36530e+08
       757.80000  2.87796e-06  1.36502e+08
       757.90000  2.87796e-06  1.36473e+08
       758.00000  2.87796e-06  1.36473e+08
       758.10000  2.87796e-06  1.36444e+08
       758.20000  2.87796e-06  1.36415e+08
       758.30000  2.87796e-06  1.36387e+08
       758.40000  2.87796e-06  1.36358e+08
       758.50000  4.29877e-06  2.03633e+08
       758.60000  4.29877e-06  2.03590e+08
       758.70000  4.29877e-06  2.03547e+08
       758.80000  4.22270e-06  1.99903e+08
       758.90000  4.22270e-06  1.99860e+08
       759.00000  4.22270e-06  1.99818e+08
       759.10000  4.22270e-06  1.99818e+08
       759.20000  4.22270e-06  1.99776e+08
       759.30000  4.22270e-06  1.99776e+08
       759.40000  4.22270e-06  1.99734e+08
       759.50000  1.37745e-06  6.51533e+07
       759.60000  1.37745e-06  6.51533e+07
       759.70000  1.37745e-06  6.51395e+07
       759.80000  1.37745e-06  6.51395e+07
       759.90000  1.37745e-06  6.51395e+07
       760.00000  1.37745e-06  6.51395e+07
       760.10000  1.37745e-06  6.51395e+07
       760.20000  1.37745e-06  6.51395e+07
       760.30000  1.37745e-06  6.51533e+07
       760.40000  1.37745e-06  6.51533e+07
       760.50000  5.58437e-06  2.64141e+08
       760.60000  5.58437e-06  2.64196e+08
       760.70000  5.58437e-06  2.64196e+08
       760.80000  5.58437e-06  2.64252e+08
       760.90000  5.58437e-06  2.64252e+08
       761.00000  5.58437e-06  2.64308e+08
       761.10000  5.58437e-06  2.64531e+08
       761.20000  5.58437e-06  2.64699e+08
       761.30000  5.46928e-06  2.59408e+08
       761.40000  5.46928e-06  2.59572e+08
       761.50000  8.16857e-06  3.87925e+08
       761.60000  8.16857e-06  3.88089e+08
       761.70000  8.16857e-06  3.88252e+08
       761.80000  8.16857e-06  3.88416e+08
       761.90000  8.16857e-06  3.88579e+08
       762.00000  8.16857e-06  3.88661e+08
       762.10000  8.16857e-06  3.88824e+08
       762.20000  8.16857e-06  3.88906e+08
       762.30000  8.16857e-06  3.88987e+08
       762.40000  8.16857e-06  3.88987e+08
       762.50000  1.33952e-06  6.37878e+07
       762.60000  1.33952e-06  6.38012e+07
       762.70000  1.33952e-06  6.38012e+07
       762.80000  1.33952e-06  6.37878e+07
       762.90000  1.33952e-06  6.37878e+07
       763.00000  1.33952e-06  6.37744e+07
       763.10000  1.33952e-06  6.37610e+07
       763.20000  1.33952e-06  6.37476e+07
       763.30000  1.33952e-06  6.37208e+07
       763.40000  1.33952e-06  6.36940e+07
       763.50000  2.69848e-06  1.28259e+08
       763.60000  2.69848e-06  1.28205e+08
       763.70000  2.69848e-06  1.28151e+08
       763.80000  2.63101e-06  1.24868e+08
       763.90000  2.63101e-06  1.24789e+08
       764.00000  2.63101e-06  1.24710e+08
       764.10000  2.63101e-06  1.24631e+08
       764.20000  2.63101e-06  1.24526e+08
       764.30000  2.63101e-06  1.24421e+08
       764.40000  2.63101e-06  1.24315e+08
       764.50000  6.54936e-06  3.09195e+08
       764.60000  6.54936e-06  3.08933e+08
       764.70000  6.54936e-06  3.08606e+08
       764.80000  6.54936e-06  3.08278e+08
       764.90000  6.54936e-06  3.07951e+08
       765.00000  6.54936e-06  3.07558e+08
       765.10000  6.54936e-06  3.06838e+08
       765.20000  6.54936e-06  3.06117e+08
       765.30000  6.54936e-06  3.05462e+08
       765.40000  6.54936e-06  3.04807e+08
       765.50000  2.61040e-06  1.21253e+08
       765.60000  2.61040e-06  1.21044e+08
       765.70000  2.61040e-06  1.20809e+08
       765.80000  2.61040e-06  1.20627e+08
       765.90000  2.61040e-06  1.20444e+08
       766.00000  2.61040e-06  1.20261e+08
       766.10000  2.61040e-06  1.20104e+08
       766.20000  2.61040e-06  1.19948e+08
       766.30000  2.54596e-06  1.16859e+08
       766.40000  2.54596e-06  1.16758e+08
       766.50000  2.53153e-06  1.15995e+08
       766.60000  2.53153e-06  1.15894e+08
       766.70000  2.53153e-06  1.15843e+08
       766.80000  2.53153e-06  1.15767e+08
       766.90000  2.53153e-06  1.15716e+08
       767.00000  2.53153e-06  1.15691e+08
       767.10000  2.53153e-06  1.15818e+08
       767.20000  2.53153e-06  1.15970e+08
       767.30000  2.53153e-06  1.16096e+08
       767.40000  2.53153e-06  1.16223e+08
       767.50000  3.78204e-06  1.73823e+08
       767.60000  3.78204e-06  1.74012e+08
       767.70000  3.78204e-06  1.74201e+08
       767.80000  3.78204e-06  1.74352e+08
       767.90000  3.78204e-06  1.74541e+08
       768.00000  3.78204e-06  1.74692e+08
       768.10000  3.78204e-06  1.74844e+08
       768.20000  3.78204e-06  1.74995e+08
       768.30000  3.78204e-06  1.75108e+08
       768.40000  3.78204e-06  1.75260e+08
       768.50000  2.50898e-06  1.16341e+08
       768.60000  2.50898e-06  1.16417e+08
       768.70000  2.50898e-06  1.16492e+08
       768.80000  2.45192e-06  1.13916e+08
       768.90000  2.45192e-06  1.13990e+08
       769.00000  2.45192e-06  1.14039e+08
       769.10000  2.45192e-06  1.14112e+08
       769.20000  2.45192e-06  1.14161e+08
       769.30000  2.45192e-06  1.14210e+08
       769.40000  2.45192e-06  1.14260e+08
       769.50000  8.06275e-07  3.75805e+07
       769.60000  8.06275e-07  3.75966e+07
       769.70000  8.06275e-07  3.76047e+07
       769.80000  8.06275e-07  3.76208e+07
       769.90000  8.06275e-07  3.76288e+07
       770.00000  8.06275e-07  3.76288e+07
       770.10000  8.06275e-07  3.76369e+07
       770.20000  8.06275e-07  3.76450e+07
       770.30000  8.06275e-07  3.76450e+07
       770.40000  8.06275e-07  3.76450e+07
       770.50000  2.42846e-06  1.13385e+08
       770.60000  2.42846e-06  1.13385e+08
       770.70000  2.42846e-06  1.13385e+08
       770.80000  2.42846e-06  1.13385e+08
       770.90000  2.42846e-06  1.13360e+08
       771.00000  2.42846e-06  1.13336e+08
       771.10000  2.42846e-06  1.13433e+08
       771.20000  2.42846e-06  1.13506e+08
       771.30000  2.38268e-06  1.11438e+08
       771.40000  2.38268e-06  1.11509e+08
       771.50000  3.55837e-06  1.66638e+08
       771.60000  3.55837e-06  1.66710e+08
       771.70000  3.55837e-06  1.66816e+08
       771.80000  3.55837e-06  1.66888e+08
       771.90000  3.55837e-06  1.66923e+08
       772.00000  3.55837e-06  1.66994e+08
       774.00000  1.15746e-06  5.37986e+07
       774.10000  1.15746e-06  5.37639e+07
       774.20000  1.15746e-06  5.37291e+07
       774.30000  1.15746e-06  5.37060e+07
       774.40000  1.15746e-06  5.36713e+07
       774.50000  5.75961e-06  2.66958e+08
       774.60000  5.75961e-06  2.66901e+08
       774.70000  5.75961e-06  2.66785e+08
       774.80000  5.75961e-06  2.66728e+08
       774.90000  5.75961e-06  2.66670e+08
       775.00000  5.75961e-06  2.66613e+08
       775.10000  5.75961e-06  2.66613e+08
       775.20000  5.75961e-06  2.66613e+08
       775.30000  5.75961e-06  2.66613e+08
       775.40000  5.75961e-06  2.66613e+08
       775.50000  3.43945e-06  1.59247e+08
       775.60000  3.43945e-06  1.59281e+08
       775.70000  3.43945e-06  1.59316e+08
       775.80000  3.43945e-06  1.59350e+08
       775.90000  3.43945e-06  1.59419e+08
       776.00000  3.43945e-06  1.59488e+08
       778.00000  4.47998e-06  2.08588e+08
       778.10000  4.47998e-06  2.08543e+08
       778.20000  4.47998e-06  2.08498e+08
       778.30000  4.47998e-06  2.08454e+08
       778.40000  4.47998e-06  2.08409e+08
       778.50000  2.22899e-06  1.03693e+08
       778.60000  2.22899e-06  1.03670e+08
       778.70000  2.22899e-06  1.03648e+08
       778.80000  2.20386e-06  1.02479e+08
       778.90000  2.20386e-06  1.02479e+08
       779.00000  2.20386e-06  1.02457e+08
       779.10000  2.20386e-06  1.02501e+08
       779.20000  2.20386e-06  1.02523e+08
       779.30000  2.20386e-06  1.02568e+08
       779.40000  2.20386e-06  1.02590e+08
       779.50000  3.28550e-06  1.52973e+08
       779.60000  3.28550e-06  1.53006e+08
       779.70000  3.28550e-06  1.53039e+08
       779.80000  3.28550e-06  1.53072e+08
       779.90000  3.28550e-06  1.53105e+08
       780.00000  3.28550e-06  1.53137e+08
       780.10000  3.28550e-06  1.53137e+08
       780.20000  3.28550e-06  1.53170e+08
       780.30000  3.28550e-06  1.53170e+08
       780.40000  3.28550e-06  1.53170e+08
       780.50000  2.18088e-06  1.01673e+08
       780.60000  2.18088e-06  1.01673e+08
       780.70000  2.18088e-06  1.01673e+08
       780.80000  2.18088e-06  1.01673e+08
       780.90000  2.18088e-06  1.01673e+08
       781.00000  2.18088e-06  1.01651e+08
       781.10000  2.18088e-06  1.01651e+08
       781.20000  2.18088e-06  1.01629e+08
       781.30000  2.16121e-06  1.00691e+08
       781.40000  2.16121e-06  1.00669e+08
       781.50000  3.22749e-06  1.50304e+08
       781.60000  3.22749e-06  1.50272e+08
       781.70000  3.22749e-06  1.50240e+08
       781.80000  3.22749e-06  1.50207e+08
       781.90000  3.22749e-06  1.50143e+08
       782.00000  3.22749e-06  1.50110e+08
       782.10000  3.22749e-06  1.50046e+08
       782.20000  3.22749e-06  1.49981e+08
       782.30000  3.22749e-06  1.49949e+08
       782.40000  3.22749e-06  1.49885e+08
       782.50000  2.14206e-06  9.94345e+07
       782.60000  2.14206e-06  9.93702e+07
       782.70000  2.14206e-06  9.93274e+07
       782.80000  2.14206e-06  9.92846e+07
       782.90000  2.14206e-06  9.92203e+07
       783.00000  2.14206e-06  9.91775e+07
       783.10000  2.14206e-06  9.92203e+07
       783.20000  2.14206e-06  9.92631e+07
       783.30000  2.14206e-06  9.93060e+07
       783.40000  2.14206e-06  9.93274e+07
       783.50000  2.12928e-06  9.87775e+07
       783.60000  2.12928e-06  9.88201e+07
       783.70000  2.12928e-06  9.88414e+07
       783.80000  2.10986e-06  9.79821e+07
       783.90000  2.10986e-06  9.80243e+07
       784.00000  2.10986e-06  9.80454e+07
       784.10000  2.10986e-06  9.80665e+07
       784.20000  2.10986e-06  9.81087e+07
       784.30000  2.10986e-06  9.81298e+07
       784.40000  2.10986e-06  9.81509e+07
       784.50000  2.10150e-06  9.77827e+07
       784.60000  2.10150e-06  9.78037e+07
       784.70000  2.10150e-06  9.78247e+07
       784.80000  2.10150e-06  9.78457e+07
       784.90000  2.10150e-06  9.78667e+07
       785.00000  2.10150e-06  9.78667e+07
       785.10000  2.10150e-06  9.78667e+07
       785.20000  2.10150e-06  9.78667e+07
       785.30000  2.10150e-06  9.78667e+07
       785.40000  2.10150e-06  9.78667e+07
       785.50000  3.13760e-06  1.46118e+08
       785.60000  3.13760e-06  1.46118e+08
       785.70000  3.13760e-06  1.46118e+08
       785.80000  3.13760e-06  1.46118e+08
       785.90000  3.13760e-06  1.46118e+08
       786.00000  3.13760e-06  1.46118e+08
       786.10000  3.13760e-06  1.46118e+08
       786.20000  3.13760e-06  1.46118e+08
       786.30000  3.10065e-06  1.44397e+08
       786.40000  3.10065e-06  1.44397e+08
       786.50000  4.63499e-07  2.15851e+07
       786.60000  4.63499e-07  2.15851e+07
       786.70000  4.63499e-07  2.15851e+07
       786.80000  4.63499e-07  2.15851e+07
       786.90000  4.63499e-07  2.15851e+07
       787.00000  4.63499e-07  2.15851e+07
       787.10000  4.63499e-07  2.15851e+07
       787.20000  4.63499e-07  2.15851e+07
       787.30000  4.63499e-07  2.15851e+07
       787.40000  4.63499e-07  2.15851e+07
       787.50000  2.04975e-06  9.54567e+07
       787.60000  2.04975e-06  9.54567e+07
       787.70000  2.04975e-06  9.54567e+07
       787.80000  2.04975e-06  9.54567e+07
       787.90000  2.04975e-06  9.54567e+07
       788.00000  2.04975e-06  9.54567e+07
       790.00000  2.00175e-06  9.27010e+07
       790.10000  2.00175e-06  9.26409e+07
       790.20000  2.00175e-06  9.26009e+07
       790.30000  2.00175e-06  9.25408e+07
       790.40000  2.00175e-06  9.25008e+07
       790.50000  1.98948e-06  9.18744e+07
       790.60000  1.98948e-06  9.18147e+07
       790.70000  1.98948e-06  9.17749e+07
       790.80000  1.98948e-06  9.17152e+07
       790.90000  1.98948e-06  9.16754e+07
       791.00000  1.98948e-06  9.16158e+07
       791.10000  1.98948e-06  9.15561e+07
       791.20000  1.98948e-06  9.15163e+07
       791.30000  1.95937e-06  9.00723e+07
       791.40000  1.95937e-06  9.00135e+07
       791.50000  1.94895e-06  8.94762e+07
       791.60000  1.94895e-06  8.94177e+07
       791.70000  1.94895e-06  8.93787e+07
       791.80000  1.94895e-06  8.93203e+07
       791.90000  1.94895e-06  8.92813e+07
       792.00000  1.94895e-06  8.92228e+07
       792.10000  1.94895e-06  8.91838e+07
       792.20000  1.94895e-06  8.91449e+07
       792.30000  1.94895e-06  8.90864e+07
       792.40000  1.94895e-06  8.90474e+07
       792.50000  1.93895e-06  8.85519e+07
       792.60000  1.93895e-06  8.85132e+07
       792.70000  1.93895e-06  8.84744e+07
       792.80000  1.93895e-06  8.84356e+07
       792.90000  1.93895e-06  8.83968e+07
       793.00000  1.93895e-06  8.83580e+07
       793.10000  1.93895e-06  8.82999e+07
       793.20000  1.93895e-06  8.82223e+07
       793.30000  1.93895e-06  8.81642e+07
       793.40000  1.93895e-06  8.81060e+07
       793.50000  1.92854e-06  8.75748e+07
       793.60000  1.92854e-06  8.75362e+07
       793.70000  1.92854e-06  8.74784e+07
       793.80000  1.89518e-06  8.59462e+07
       793.90000  1.89518e-06  8.59083e+07
       794.00000  1.89518e-06  8.58894e+07
       794.10000  1.89518e-06  8.58515e+07
       794.20000  1.89518e-06  8.58515e+07
       794.30000  1.89518e-06  8.58325e+07
       794.40000  1.89518e-06  8.58325e+07
       794.50000  2.82763e-06  1.28064e+08
       794.60000  2.82763e-06  1.28064e+08
       794.70000  2.82763e-06  1.28092e+08
       794.80000  2.82763e-06  1.28092e+08
       794.90000  2.82763e-06  1.28120e+08
       795.00000  2.82763e-06  1.28177e+08
       795.10000  2.82763e-06  1.28375e+08
       795.20000  2.82763e-06  1.28573e+08
       795.30000  2.82763e-06  1.28770e+08
       795.40000  2.82763e-06  1.28968e+08
       795.50000  9.37501e-07  4.28157e+07
       795.60000  9.37501e-07  4.28719e+07
       795.70000  9.37501e-07  4.29188e+07
       795.80000  9.37501e-07  4.29657e+07
       795.90000  9.37501e-07  4.30126e+07
       796.00000  9.37501e-07  4.30501e+07
       796.10000  9.37501e-07  4.30876e+07
       796.20000  9.37501e-07  4.31251e+07
       796.30000  9.17882e-07  4.22501e+07
       796.40000  9.17882e-07  4.22777e+07
       796.50000  2.73695e-06  1.26146e+08
       796.60000  2.73695e-06  1.26201e+08
       796.70000  2.73695e-06  1.26256e+08
       796.80000  2.73695e-06  1.26283e+08
       796.90000  2.73695e-06  1.26310e+08
       797.00000  2.73695e-06  1.26338e+08
       797.10000  2.73695e-06  1.26365e+08
       797.20000  2.73695e-06  1.26365e+08
       797.30000  2.73695e-06  1.26365e+08
       797.40000  2.73695e-06  1.26338e+08
       797.50000  3.63361e-06  1.67691e+08
       797.60000  3.63361e-06  1.67655e+08
       797.70000  3.63361e-06  1.67582e+08
       797.80000  3.63361e-06  1.67510e+08
       797.90000  3.63361e-06  1.67437e+08
       798.00000  3.63361e-06  1.67328e+08
       800.00000  1.75457e-06  8.05170e+07
       800.10000  1.75457e-06  8.05521e+07
       800.20000  1.75457e-06  8.05872e+07
       800.30000  1.75457e-06  8.06223e+07
       800.40000  1.75457e-06  8.06399e+07
       800.50000  8.03027e-07  3.69151e+07
       800.60000  8.03027e-07  3.69232e+07
       800.70000  8.03027e-07  3.69232e+07
       800.80000  8.03027e-07  3.69312e+07
       800.90000  8.03027e-07  3.69312e+07
       801.00000  8.03027e-07  3.69312e+07
       801.10000  8.03027e-07  3.69151e+07
       801.20000  8.03027e-07  3.68991e+07
       801.30000  7.84515e-07  3.60328e+07
       801.40000  7.84515e-07  3.60171e+07
       801.50000  3.39555e-06  1.55822e+08
       801.60000  3.39555e-06  1.55754e+08
       801.70000  3.39555e-06  1.55686e+08
       801.80000  3.39555e-06  1.55618e+08
       801.90000  3.39555e-06  1.55550e+08
       802.00000  3.39555e-06  1.55482e+08
       802.10000  3.39555e-06  1.55414e+08
       802.20000  3.39555e-06  1.55346e+08
       802.30000  3.39555e-06  1.55278e+08
       802.40000  3.39555e-06  1.55211e+08
       802.50000  2.53202e-06  1.15688e+08
       802.60000  2.53202e-06  1.15637e+08
       802.70000  2.53202e-06  1.15587e+08
       802.80000  2.53202e-06  1.15511e+08
       802.90000  2.53202e-06  1.15460e+08
       803.00000  2.53202e-06  1.15409e+08
       803.10000  2.53202e-06  1.15359e+08
       803.20000  2.53202e-06  1.15308e+08
       803.30000  2.53202e-06  1.15258e+08
       803.40000  2.53202e-06  1.15182e+08
       803.50000  3.35240e-06  1.52434e+08
       803.60000  3.35240e-06  1.52367e+08
       803.70000  3.35240e-06  1.52300e+08
       803.80000  3.27384e-06  1.48665e+08
       803.90000  3.27384e-06  1.48567e+08
       804.00000  3.27384e-06  1.48501e+08
       804.10000  3.27384e-06  1.48436e+08
       804.20000  3.27384e-06  1.48370e+08
       804.30000  3.27384e-06  1.48272e+08
       804.40000  3.27384e-06  1.48207e+08
       804.50000  2.44770e-06  1.10758e+08
       804.60000  2.44770e-06  1.10685e+08
       804.70000  2.44770e-06  1.10636e+08
       804.80000  2.44770e-06  1.10587e+08
       804.90000  2.44770e-06  1.10514e+08
       805.00000  2.44770e-06  1.10465e+08
       805.10000  2.44770e-06  1.10563e+08
       805.20000  2.44770e-06  1.10685e+08
       805.30000  2.44770e-06  1.10758e+08
       805.40000  2.44770e-06  1.10856e+08
       805.50000  2.42958e-06  1.10108e+08
       805.60000  2.42958e-06  1.10181e+08
       805.70000  2.42958e-06  1.10254e+08
       805.80000  2.42958e-06  1.10303e+08
       805.90000  2.42958e-06  1.10351e+08
       806.00000  2.42958e-06  1.10400e+08
       806.10000  2.42958e-06  1.10424e+08
       806.20000  2.42958e-06  1.10449e+08
       806.30000  2.36876e-06  1.07707e+08
       806.40000  2.36876e-06  1.07731e+08
       806.50000  2.35306e-06  1.07017e+08
       806.60000  2.35306e-06  1.07017e+08
       806.70000  2.35306e-06  1.06994e+08
       806.80000  2.35306e-06  1.06994e+08
       806.90000  2.35306e-06  1.06970e+08
       807.00000  2.35306e-06  1.06923e+08
       807.10000  2.35306e-06  1.06735e+08
       807.20000  2.35306e-06  1.06523e+08
       807.30000  2.35306e-06  1.06335e+08
       807.40000  2.35306e-06  1.06170e+08
       807.50000  2.34099e-06  1.05462e+08
       807.60000  2.34099e-06  1.05298e+08
       807.70000  2.34099e-06  1.05157e+08
       807.80000  2.34099e-06  1.05040e+08
       807.90000  2.34099e-06  1.04923e+08
       808.00000  2.34099e-06  1.04806e+08
       808.10000  2.34099e-06  1.04713e+08
       808.20000  2.34099e-06  1.04619e+08
       808.30000  2.34099e-06  1.04525e+08
       808.40000  2.34099e-06  1.04455e+08
       808.50000  3.10300e-06  1.38394e+08
       808.60000  3.10300e-06  1.38332e+08
       808.70000  3.10300e-06  1.38270e+08
       808.80000  3.02563e-06  1.34792e+08
       808.90000  3.02563e-06  1.34761e+08
       809.00000  3.02563e-06  1.34761e+08
       809.10000  3.02563e-06  1.34761e+08
       809.20000  3.02563e-06  1.34792e+08
       809.30000  3.02563e-06  1.34822e+08
       809.40000  3.02563e-06  1.34852e+08
       809.50000  2.25554e-06  1.00575e+08
       809.60000  2.25554e-06  1.00642e+08
       809.70000  2.25554e-06  1.00710e+08
       809.80000  2.25554e-06  1.00778e+08
       809.90000  2.25554e-06  1.00868e+08
       810.00000  2.25554e-06  1.00958e+08
       810.10000  2.25554e-06  1.01071e+08
       810.20000  2.25554e-06  1.01184e+08
       810.30000  2.25554e-06  1.01296e+08
       810.40000  2.25554e-06  1.01432e+08
       810.50000  2.24422e-06  1.01080e+08
       810.60000  2.24422e-06  1.01214e+08
       810.70000  2.24422e-06  1.01394e+08
       810.80000  2.24422e-06  1.01573e+08
       810.90000  2.24422e-06  1.01753e+08
       811.00000  2.24422e-06  1.01955e+08
       811.10000  2.24422e-06  1.01977e+08
       811.20000  2.24422e-06  1.02022e+08
       811.30000  2.18747e-06  9.94644e+07
       811.40000  2.18747e-06  9.95081e+07
       811.50000  1.45064e-06  6.60040e+07
       811.60000  1.45064e-06  6.60185e+07
       811.70000  1.45064e-06  6.60330e+07
       811.80000  1.45064e-06  6.60475e+07
       811.90000  1.45064e-06  6.60620e+07
       812.00000  1.45064e-06  6.60765e+07
       812.10000  1.45064e-06  6.60765e+07
       812.20000  1.45064e-06  6.60910e+07
       812.30000  1.45064e-06  6.61055e+07
       812.40000  1.45064e-06  6.61055e+07
       812.50000  2.16242e-06  9.85414e+07
       812.60000  2.16242e-06  9.85630e+07
       812.70000  2.16242e-06  9.85630e+07
       812.80000  2.16242e-06  9.85630e+07
       812.90000  2.16242e-06  9.85630e+07
       813.00000  2.16242e-06  9.85630e+07
       813.10000  2.16242e-06  9.85198e+07
       813.20000  2.16242e-06  9.84981e+07
       813.30000  2.16242e-06  9.84549e+07
       813.40000  2.16242e-06  9.84333e+07
       813.50000  1.43265e-06  6.51856e+07
       813.60000  1.43265e-06  6.51713e+07
       813.70000  1.43265e-06  6.51569e+07
       813.80000  1.39780e-06  6.35579e+07
       813.90000  1.39780e-06  6.35439e+07
       814.00000  1.39780e-06  6.35159e+07
       814.10000  1.39780e-06  6.35020e+07
       814.20000  1.39780e-06  6.34880e+07
       814.30000  1.39780e-06  6.34740e+07
       814.40000  1.39780e-06  6.34740e+07
       814.50000  2.77409e-06  1.25943e+08
       814.60000  2.77409e-06  1.25916e+08
       814.70000  2.77409e-06  1.25888e+08
       814.80000  2.77409e-06  1.25860e+08
       814.90000  2.77409e-06  1.25860e+08
       815.00000  2.77409e-06  1.25833e+08
       815.10000  2.77409e-06  1.25943e+08
       815.20000  2.77409e-06  1.26027e+08
       815.30000  2.77409e-06  1.26110e+08
       815.40000  2.77409e-06  1.26165e+08
       815.50000  2.75555e-06  1.25405e+08
       815.60000  2.75555e-06  1.25433e+08
       815.70000  2.75555e-06  1.25488e+08
       815.80000  2.75555e-06  1.25488e+08
       815.90000  2.75555e-06  1.25515e+08
       816.00000  2.75555e-06  1.25515e+08
       816.10000  2.75555e-06  1.25515e+08
       816.20000  2.75555e-06  1.25488e+08
       816.30000  2.68629e-06  1.22307e+08
       816.40000  2.68629e-06  1.22280e+08
       816.50000  2.00655e-06  9.12981e+07
       816.60000  2.00655e-06  9.12580e+07
       816.70000  2.00655e-06  9.11978e+07
       816.80000  2.00655e-06  9.11376e+07
       816.90000  2.00655e-06  9.10774e+07
       817.00000  2.00655e-06  9.09971e+07
       817.10000  2.00655e-06  9.07162e+07
       817.20000  2.00655e-06  9.04554e+07
       817.30000  2.00655e-06  9.02146e+07
       817.40000  2.00655e-06  8.99738e+07
       817.50000  6.64347e-07  2.97162e+07
       817.60000  6.64347e-07  2.96498e+07
       817.70000  6.64347e-07  2.95834e+07
       817.80000  6.64347e-07  2.95169e+07
       817.90000  6.64347e-07  2.94638e+07
       818.00000  6.64347e-07  2.94040e+07
       818.10000  6.64347e-07  2.93575e+07
       818.20000  6.64347e-07  2.93110e+07
       818.30000  6.64347e-07  2.92645e+07
       818.40000  6.64347e-07  2.92313e+07
       818.50000  1.98415e-06  8.71834e+07
       818.60000  1.98415e-06  8.71040e+07
       818.70000  1.98415e-06  8.70247e+07
       818.80000  1.93388e-06  8.47426e+07
       818.90000  1.93388e-06  8.47039e+07
       819.00000  1.93388e-06  8.46459e+07
       819.10000  1.93388e-06  8.46266e+07
       819.20000  1.93388e-06  8.46072e+07
       819.30000  1.93388e-06  8.45879e+07
       819.40000  1.93388e-06  8.45879e+07
       819.50000  1.91772e-06  8.39001e+07
       819.60000  1.91772e-06  8.39193e+07
       819.70000  1.91772e-06  8.39577e+07
       819.80000  1.91772e-06  8.40152e+07
       819.90000  1.91772e-06  8.40727e+07
       820.00000  1.91772e-06  8.41494e+07
       820.10000  1.91772e-06  8.42261e+07
       820.20000  1.91772e-06  8.43220e+07
       820.30000  1.91772e-06  8.44371e+07
       820.40000  1.91772e-06  8.45522e+07
       820.50000  1.26951e-06  5.60616e+07
       820.60000  1.26951e-06  5.61505e+07
       820.70000  1.26951e-06  5.62521e+07
       820.80000  1.26951e-06  5.63536e+07
       820.90000  1.26951e-06  5.64679e+07
       821.00000  1.26951e-06  5.65948e+07
       821.10000  1.26951e-06  5.65695e+07
       821.20000  1.26951e-06  5.65568e+07
       821.30000  1.24023e-06  5.52276e+07
       821.40000  1.24023e-06  5.52152e+07
       821.50000  1.23489e-06  5.49527e+07
       821.60000  1.23489e-06  5.49403e+07
       821.70000  1.23489e-06  5.49280e+07
       821.80000  1.23489e-06  5.49033e+07
       821.90000  1.23489e-06  5.48909e+07
       822.00000  1.23489e-06  5.48786e+07
       822.10000  1.23489e-06  5.48786e+07
       822.20000  1.23489e-06  5.48662e+07
       822.30000  1.23489e-06  5.48539e+07
       822.40000  1.23489e-06  5.48539e+07
       822.50000  1.84008e-06  8.17181e+07
       822.60000  1.84008e-06  8.17181e+07
       822.70000  1.84008e-06  8.16997e+07
       822.80000  1.84008e-06  8.16997e+07
       822.90000  1.84008e-06  8.16997e+07
       823.00000  1.84008e-06  8.16997e+07
       823.10000  1.84008e-06  8.16997e+07
       823.20000  1.84008e-06  8.16997e+07
       823.30000  1.84008e-06  8.16997e+07
       823.40000  1.84008e-06  8.16997e+07
       823.50000  3.04417e-06  1.35192e+08
       823.60000  3.04417e-06  1.35192e+08
       823.70000  3.04417e-06  1.35222e+08
       823.80000  2.97650e-06  1.32216e+08
       823.90000  2.97650e-06  1.32246e+08
       824.00000  2.97650e-06  1.32276e+08
       824.10000  2.97650e-06  1.32305e+08
       824.20000  2.97650e-06  1.32335e+08
       824.30000  2.97650e-06  1.32365e+08
       824.40000  2.97650e-06  1.32424e+08
       824.50000  1.77153e-06  7.88333e+07
       824.60000  1.77153e-06  7.88687e+07
       824.70000  1.77153e-06  7.88864e+07
       824.80000  1.77153e-06  7.89219e+07
       824.90000  1.77153e-06  7.89573e+07
       825.00000  1.77153e-06  7.89927e+07
       825.10000  1.77153e-06  7.90282e+07
       825.20000  1.77153e-06  7.90636e+07
       825.30000  1.77153e-06  7.91168e+07
       825.40000  1.77153e-06  7.91522e+07
       825.50000  3.53388e-06  1.58000e+08
       825.60000  3.53388e-06  1.58070e+08
       825.70000  3.53388e-06  1.58176e+08
       825.80000  3.53388e-06  1.58282e+08
       825.90000  3.53388e-06  1.58388e+08
       826.00000  3.53388e-06  1.58494e+08
       826.10000  3.53388e-06  1.58600e+08
       826.20000  3.53388e-06  1.58671e+08
       826.30000  3.46194e-06  1.55545e+08
       826.40000  3.46194e-06  1.55614e+08
       826.50000  2.28939e-06  1.02931e+08
       826.60000  2.28939e-06  1.02977e+08
       826.70000  2.28939e-06  1.03022e+08
       826.80000  2.28939e-06  1.03045e+08
       826.90000  2.28939e-06  1.03068e+08
       827.00000  2.28939e-06  1.03091e+08
       827.10000  2.28939e-06  1.03091e+08
       827.20000  2.28939e-06  1.03114e+08
       827.30000  2.28939e-06  1.03114e+08
       827.40000  2.28939e-06  1.03114e+08
       827.50000  2.84037e-06  1.27930e+08
       827.60000  2.84037e-06  1.27930e+08
       827.70000  2.84037e-06  1.27902e+08
       827.80000  2.84037e-06  1.27873e+08
       827.90000  2.84037e-06  1.27845e+08
       828.00000  2.84037e-06  1.27817e+08
       828.10000  2.84037e-06  1.27731e+08
       828.20000  2.84037e-06  1.27618e+08
       828.30000  2.84037e-06  1.27504e+08
       828.40000  2.84037e-06  1.27390e+08
       828.50000  2.81846e-06  1.26323e+08
       828.60000  2.81846e-06  1.26211e+08
       828.70000  2.81846e-06  1.26126e+08
       828.80000  2.76312e-06  1.23567e+08
       828.90000  2.76312e-06  1.23456e+08
       829.00000  2.76312e-06  1.23373e+08
       829.10000  2.76312e-06  1.23290e+08
       829.20000  2.76312e-06  1.23207e+08
       829.30000  2.76312e-06  1.23124e+08
       829.40000  2.76312e-06  1.23042e+08
       829.50000  2.75081e-06  1.22411e+08
       829.60000  2.75081e-06  1.22329e+08
       829.70000  2.75081e-06  1.22246e+08
       829.80000  2.75081e-06  1.22163e+08
       829.90000  2.75081e-06  1.22108e+08
       830.00000  2.75081e-06  1.22026e+08
       830.10000  2.75081e-06  1.21971e+08
       830.20000  2.75081e-06  1.21888e+08
       830.30000  2.75081e-06  1.21833e+08
       830.40000  2.75081e-06  1.21751e+08
       830.50000  2.18473e-06  9.66526e+07
       830.60000  2.18473e-06  9.66089e+07
       830.70000  2.18473e-06  9.65434e+07
       830.80000  2.18473e-06  9.64997e+07
       830.90000  2.18473e-06  9.64560e+07
       831.00000  2.18473e-06  9.64123e+07
       831.10000  2.18473e-06  9.63686e+07
       831.20000  2.18473e-06  9.63249e+07
       831.30000  2.14120e-06  9.43840e+07
       831.40000  2.14120e-06  9.43412e+07
       831.50000  2.65296e-06  1.16836e+08
       831.60000  2.65296e-06  1.16810e+08
       831.70000  2.65296e-06  1.16757e+08
       831.80000  2.65296e-06  1.16704e+08
       831.90000  2.65296e-06  1.16677e+08
       832.00000  2.65296e-06  1.16651e+08
       832.10000  2.65296e-06  1.16545e+08
       832.20000  2.65296e-06  1.16439e+08
       832.30000  2.65296e-06  1.16359e+08
       832.40000  2.65296e-06  1.16279e+08
       832.50000  3.16497e-06  1.38626e+08
       832.60000  3.16497e-06  1.38563e+08
       832.70000  3.16497e-06  1.38499e+08
       832.80000  3.16497e-06  1.38404e+08
       832.90000  3.16497e-06  1.38373e+08
       833.00000  3.16497e-06  1.38309e+08
       833.10000  3.16497e-06  1.38246e+08
       833.20000  3.16497e-06  1.38214e+08
       833.30000  3.16497e-06  1.38183e+08
       833.40000  3.16497e-06  1.38151e+08
       833.50000  3.14794e-06  1.37408e+08
       833.60000  3.14794e-06  1.37376e+08
       833.70000  3.14794e-06  1.37376e+08
       833.80000  3.08919e-06  1.34812e+08
       833.90000  3.08919e-06  1.34843e+08
       834.00000  3.08919e-06  1.34843e+08
       834.10000  3.08919e-06  1.34998e+08
       834.20000  3.08919e-06  1.35121e+08
       834.30000  3.08919e-06  1.35276e+08
       834.40000  3.08919e-06  1.35399e+08
       834.50000  3.06066e-06  1.34271e+08
       834.60000  3.06066e-06  1.34394e+08
       834.70000  3.06066e-06  1.34485e+08
       834.80000  3.06066e-06  1.34577e+08
       834.90000  3.06066e-06  1.34700e+08
       835.00000  3.06066e-06  1.34791e+08
       835.10000  3.06066e-06  1.34853e+08
       835.20000  3.06066e-06  1.34944e+08
       835.30000  3.06066e-06  1.35006e+08
       835.40000  3.06066e-06  1.35067e+08
       835.50000  3.54378e-06  1.56458e+08
       835.60000  3.54378e-06  1.56529e+08
       835.70000  3.54378e-06  1.56564e+08
       835.80000  3.54378e-06  1.56635e+08
       835.90000  3.54378e-06  1.56671e+08
       836.00000  3.54378e-06  1.56706e+08
       836.10000  3.54378e-06  1.56635e+08
       836.20000  3.54378e-06  1.56600e+08
       836.30000  3.48650e-06  1.53999e+08
       836.40000  3.48650e-06  1.53964e+08
       836.50000  2.97141e-06  1.31188e+08
       836.60000  2.97141e-06  1.31128e+08
       836.70000  2.97141e-06  1.31098e+08
       836.80000  2.97141e-06  1.31069e+08
       836.90000  2.97141e-06  1.31009e+08
       837.00000  2.97141e-06  1.30980e+08
       837.10000  2.97141e-06  1.30950e+08
       837.20000  2.97141e-06  1.30920e+08
       837.30000  2.97141e-06  1.30890e+08
       837.40000  2.97141e-06  1.30861e+08
       837.50000  3.92949e-06  1.73015e+08
       837.60000  3.92949e-06  1.72976e+08
       837.70000  3.92949e-06  1.72937e+08
       837.80000  3.92949e-06  1.72897e+08
       837.90000  3.92949e-06  1.72897e+08
       838.00000  3.92949e-06  1.72858e+08
       838.10000  3.92949e-06  1.72819e+08
       838.20000  3.92949e-06  1.72819e+08
       838.30000  3.92949e-06  1.72819e+08
       838.40000  3.92949e-06  1.72819e+08
       838.50000  3.90203e-06  1.71572e+08
       838.60000  3.90203e-06  1.71572e+08
       838.70000  3.90203e-06  1.71572e+08
       838.80000  3.84466e-06  1.69011e+08
       838.90000  3.84466e-06  1.69011e+08
       839.00000  3.84466e-06  1.69011e+08
       839.10000  3.84466e-06  1.68973e+08
       839.20000  3.84466e-06  1.68973e+08
       839.30000  3.84466e-06  1.68973e+08
       839.40000  3.84466e-06  1.68934e+08
       839.50000  4.77806e-06  2.09948e+08
       839.60000  4.77806e-06  2.09948e+08
       839.70000  4.77806e-06  2.09900e+08
       839.80000  4.77806e-06  2.09900e+08
       839.90000  4.77806e-06  2.09900e+08
       840.00000  4.77806e-06  2.09853e+08
       840.10000  4.77806e-06  2.09853e+08
       840.20000  4.77806e-06  2.09853e+08
       840.30000  4.77806e-06  2.09805e+08
       840.40000  4.77806e-06  2.09805e+08
       840.50000  5.69161e-06  2.49919e+08
       840.60000  5.69161e-06  2.49862e+08
       840.70000  5.69161e-06  2.49862e+08
       840.80000  5.69161e-06  2.49862e+08
       840.90000  5.69161e-06  2.49805e+08
       841.00000  5.69161e-06  2.49805e+08
       841.10000  5.69161e-06  2.49805e+08
       841.20000  5.69161e-06  2.49805e+08
       841.30000  5.59945e-06  2.45704e+08
       841.40000  5.59945e-06  2.45704e+08
       841.50000  5.55300e-06  2.43666e+08
       841.60000  5.55300e-06  2.43610e+08
       841.70000  5.55300e-06  2.43610e+08
       841.80000  5.55300e-06  2.43610e+08
       841.90000  5.55300e-06  2.43554e+08
       842.00000  5.55300e-06  2.43554e+08
       842.10000  5.55300e-06  2.43332e+08
       842.20000  5.55300e-06  2.43166e+08
       842.30000  5.55300e-06  2.42999e+08
       842.40000  5.55300e-06  2.42777e+08
       842.50000  6.41615e-06  2.80322e+08
       842.60000  6.41615e-06  2.80193e+08
       842.70000  6.41615e-06  2.80001e+08
       842.80000  6.41615e-06  2.79873e+08
       842.90000  6.41615e-06  2.79680e+08
       843.00000  6.41615e-06  2.79552e+08
       843.10000  6.41615e-06  2.79423e+08
       843.20000  6.41615e-06  2.79295e+08
       843.30000  6.41615e-06  2.79231e+08
       843.40000  6.41615e-06  2.79103e+08
       843.50000  7.74999e-06  3.37047e+08
       843.60000  7.74999e-06  3.36970e+08
       843.70000  7.74999e-06  3.36892e+08
       843.80000  7.61482e-06  3.30940e+08
       843.90000  7.61482e-06  3.30940e+08
       844.00000  7.61482e-06  3.30864e+08
       844.10000  7.61482e-06  3.31092e+08
       844.20000  7.61482e-06  3.31245e+08
       844.30000  7.61482e-06  3.31397e+08
       844.40000  7.61482e-06  3.31549e+08
       844.50000  7.99638e-06  3.48322e+08
       844.60000  7.99638e-06  3.48482e+08
       844.70000  7.99638e-06  3.48562e+08
       844.80000  7.99638e-06  3.48722e+08
       844.90000  7.99638e-06  3.48802e+08
       845.00000  7.99638e-06  3.48962e+08
       845.10000  7.99638e-06  3.49042e+08
       845.20000  7.99638e-06  3.49122e+08
       845.30000  7.99638e-06  3.49282e+08
       845.40000  7.99638e-06  3.49362e+08
       845.50000  8.80949e-06  3.84887e+08
       845.60000  8.80949e-06  3.84975e+08
       845.70000  8.80949e-06  3.85063e+08
       845.80000  8.80949e-06  3.85151e+08
       845.90000  8.80949e-06  3.85151e+08
       846.00000  8.80949e-06  3.85239e+08
       846.10000  8.80949e-06  3.85239e+08
       846.20000  8.80949e-06  3.85239e+08
       846.30000  8.64457e-06  3.78027e+08
       846.40000  8.64457e-06  3.78113e+08
       846.50000  8.59915e-06  3.76127e+08
       846.60000  8.59915e-06  3.76041e+08
       846.70000  8.59915e-06  3.76041e+08
       846.80000  8.59915e-06  3.76041e+08
       846.90000  8.59915e-06  3.75955e+08
       847.00000  8.59915e-06  3.75955e+08
       847.10000  8.59915e-06  3.75869e+08
       847.20000  8.59915e-06  3.75869e+08
       847.30000  8.59915e-06  3.75783e+08
       847.40000  8.59915e-06  3.75697e+08
       847.50000  1.15027e-05  5.02436e+08
       847.60000  1.15027e-05  5.02321e+08
       847.70000  1.15027e-05  5.02206e+08
       847.80000  1.15027e-05  5.02091e+08
       847.90000  1.15027e-05  5.01861e+08
       848.00000  1.15027e-05  5.01746e+08
       848.10000  1.15027e-05  4.99330e+08
       848.20000  1.15027e-05  4.97145e+08
       848.30000  1.15027e-05  4.94959e+08
       848.40000  1.15027e-05  4.92889e+08
       848.50000  1.26575e-05  5.40221e+08
       848.60000  1.26575e-05  5.38322e+08
       848.70000  1.26575e-05  5.36424e+08
       848.80000  1.24260e-05  5.24873e+08
       848.90000  1.24260e-05  5.23258e+08
       849.00000  1.24260e-05  5.21767e+08
       849.10000  1.24260e-05  5.20276e+08
       849.20000  1.24260e-05  5.19033e+08
       849.30000  1.24260e-05  5.17915e+08
       849.40000  1.24260e-05  5.16796e+08
       849.50000  4.89394e-05  2.03196e+09
       849.60000  4.89394e-05  2.02854e+09
       849.70000  4.89394e-05  2.02609e+09
       849.80000  4.89394e-05  2.02364e+09
       849.90000  4.89394e-05  2.02169e+09
       850.00000  4.89394e-05  2.02022e+09
       850.10000  4.89394e-05  2.03099e+09
       850.20000  4.89394e-05  2.04126e+09
       850.30000  4.89394e-05  2.05056e+09
       850.40000  4.89394e-05  2.05888e+09
       850.50000  4.77111e-05  2.01484e+09
       850.60000  4.77111e-05  2.02152e+09
       850.70000  4.77111e-05  2.02724e+09
       850.80000  4.77111e-05  2.03249e+09
       850.90000  4.77111e-05  2.03679e+09
       851.00000  4.77111e-05  2.04060e+09
       851.10000  4.77111e-05  2.04346e+09
       851.20000  4.77111e-05  2.04585e+09
       851.30000  4.68889e-05  2.01200e+09
       851.40000  4.68889e-05  2.01247e+09
       851.50000  4.93257e-05  2.11706e+09
       851.60000  4.93257e-05  2.11607e+09
       851.70000  4.93257e-05  2.11459e+09
       851.80000  4.93257e-05  2.11213e+09
       851.90000  4.93257e-05  2.10867e+09
       852.00000  4.93257e-05  2.10473e+09
       852.10000  4.93257e-05  2.09980e+09
       852.20000  4.93257e-05  2.09437e+09
       852.30000  4.93257e-05  2.08796e+09
       852.40000  4.93257e-05  2.08105e+09
       852.50000  5.43783e-05  2.28498e+09
       852.60000  5.43783e-05  2.27573e+09
       852.70000  5.43783e-05  2.26486e+09
       852.80000  5.43783e-05  2.25398e+09
       852.90000  5.43783e-05  2.24147e+09
       853.00000  5.43783e-05  2.22842e+09
       853.10000  5.43783e-05  2.21429e+09
       853.20000  5.43783e-05  2.19960e+09
       853.30000  5.43783e-05  2.18383e+09
       853.40000  5.43783e-05  2.16752e+09
       853.50000  5.74194e-05  2.27036e+09
       853.60000  5.74194e-05  2.25084e+09
       853.70000  5.74194e-05  2.23074e+09
       853.80000  5.64367e-05  2.17169e+09
       853.90000  5.64367e-05  2.15024e+09
       854.00000  5.64367e-05  2.12767e+09
       854.10000  5.64367e-05  2.14347e+09
       854.20000  5.64367e-05  2.15927e+09
       854.30000  5.64367e-05  2.17451e+09
       854.40000  5.64367e-05  2.18918e+09
       854.50000  5.90799e-05  2.30648e+09
       854.60000  5.90799e-05  2.32125e+09
       854.70000  5.90799e-05  2.33543e+09
       854.80000  5.90799e-05  2.34902e+09
       854.90000  5.90799e-05  2.36261e+09
       855.00000  5.90799e-05  2.37560e+09
       855.10000  5.90799e-05  2.38801e+09
       855.20000  5.90799e-05  2.39983e+09
       855.30000  5.90799e-05  2.41164e+09
       855.40000  5.90799e-05  2.42228e+09
       855.50000  7.28440e-05  3.00045e+09
       855.60000  7.28440e-05  3.01283e+09
       855.70000  7.28440e-05  3.02521e+09
       855.80000  7.28440e-05  3.03687e+09
       855.90000  7.28440e-05  3.04779e+09
       856.00000  7.28440e-05  3.05799e+09
       856.10000  7.28440e-05  3.06601e+09
       856.20000  7.28440e-05  3.07329e+09
       856.30000  7.13726e-05  3.01835e+09
       856.40000  7.13726e-05  3.02548e+09
       856.50000  7.08332e-05  3.00900e+09
       856.60000  7.08332e-05  3.01537e+09
       856.70000  7.08332e-05  3.02104e+09
       856.80000  7.08332e-05  3.02670e+09
       856.90000  7.08332e-05  3.03166e+09
       857.00000  7.08332e-05  3.03662e+09
       857.10000  7.08332e-05  3.04158e+09
       857.20000  7.08332e-05  3.04583e+09
       857.30000  7.08332e-05  3.05008e+09
       857.40000  7.08332e-05  3.05362e+09
       857.50000  8.42911e-05  3.63800e+09
       857.60000  8.42911e-05  3.64222e+09
       857.70000  8.42911e-05  3.64559e+09
       857.80000  8.42911e-05  3.64896e+09
       857.90000  8.42911e-05  3.65149e+09
       858.00000  8.42911e-05  3.65486e+09
       858.10000  8.42911e-05  3.65655e+09
       858.20000  8.42911e-05  3.65823e+09
       858.30000  8.42911e-05  3.65992e+09
       858.40000  8.42911e-05  3.66076e+09
       858.50000  9.33418e-05  4.05477e+09
       858.60000  9.33418e-05  4.05570e+09
       858.70000  9.33418e-05  4.05570e+09
       858.80000  9.13454e-05  3.96896e+09
       858.90000  9.13454e-05  3.96805e+09
       859.00000  9.13454e-05  3.96713e+09
       859.10000  9.13454e-05  3.96622e+09
       859.20000  9.13454e-05  3.96439e+09
       859.30000  9.13454e-05  3.96256e+09
       859.40000  9.13454e-05  3.95982e+09
       859.50000  0.000121667  5.27062e+09
       859.60000  0.000121667  5.26697e+09
       859.70000  0.000121667  5.26210e+09
       859.80000  0.000121667  5.25602e+09
       859.90000  0.000121667  5.25115e+09
       860.00000  0.000121667  5.24507e+09
       860.10000  0.000121667  5.24385e+09
       860.20000  0.000121667  5.24264e+09
       860.30000  0.000121667  5.24264e+09
       860.40000  0.000121667  5.24264e+09
       860.50000  0.000132418  5.70457e+09
       860.60000  0.000132418  5.70457e+09
       860.70000  0.000132418  5.70457e+09
       860.80000  0.000132418  5.70457e+09
       860.90000  0.000132418  5.70457e+09
       861.00000  0.000132418  5.70457e+09
       861.10000  0.000132418  5.70457e+09
       861.20000  0.000132418  5.70457e+09
       861.30000  0.000129603  5.58330e+09
       861.40000  0.000129603  5.58459e+09
       861.50000  0.000158869  6.84568e+09
       861.60000  0.000158869  6.84568e+09
       861.70000  0.000158869  6.84727e+09
       861.80000  0.000158869  6.84886e+09
       861.90000  0.000158869  6.84886e+09
       862.00000  0.000158869  6.85045e+09
       862.10000  0.000158869  6.87269e+09
       862.20000  0.000158869  6.89175e+09
       862.30000  0.000158869  6.90923e+09
       862.40000  0.000158869  6.92512e+09
       862.50000  0.000190975  8.33987e+09
       862.60000  0.000190975  8.35324e+09
       862.70000  0.000190975  8.36470e+09
       862.80000  0.000190975  8.37424e+09
       862.90000  0.000190975  8.37997e+09
       863.00000  0.000190975  8.38379e+09
       863.10000  0.000190975  8.38570e+09
       863.20000  0.000190975  8.38570e+09
       863.30000  0.000190975  8.38188e+09
       863.40000  0.000190975  8.37615e+09
       863.50000  0.000233168  1.02174e+10
       863.60000  0.000233168  1.02034e+10
       863.70000  0.000233168  1.01871e+10
       863.80000  0.000228183  9.95106e+09
       863.90000  0.000228183  9.93053e+09
       864.00000  0.000228183  9.90543e+09
       864.10000  0.000228183  9.87804e+09
       864.20000  0.000228183  9.84838e+09
       864.30000  0.000228183  9.81415e+09
       864.40000  0.000228183  9.77993e+09
       864.50000  0.000279247  1.19183e+10
       864.60000  0.000279247  1.18680e+10
       864.70000  0.000279247  1.18122e+10
       864.80000  0.000279247  1.17563e+10
       864.90000  0.000279247  1.16921e+10
       865.00000  0.000279247  1.16279e+10
       865.10000  0.000279247  1.15580e+10
       865.20000  0.000279247  1.14854e+10
       865.30000  0.000279247  1.14100e+10
       865.40000  0.000279247  1.13291e+10
       865.50000  0.000350737  1.41242e+10
       865.60000  0.000350737  1.40154e+10
       865.70000  0.000350737  1.39032e+10
       865.80000  0.000350737  1.37839e+10
       865.90000  0.000350737  1.36612e+10
       866.00000  0.000350737  1.35349e+10
       866.10000  0.000350737  1.35840e+10
       866.20000  0.000350737  1.36296e+10
       866.30000  0.000343276  1.33878e+10
       866.40000  0.000343276  1.34324e+10
       866.50000  0.000432971  1.69984e+10
       866.60000  0.000432971  1.70547e+10
       866.70000  0.000432971  1.71110e+10
       866.80000  0.000432971  1.71673e+10
       866.90000  0.000432971  1.72193e+10
       867.00000  0.000432971  1.72712e+10
       867.10000  0.000432971  1.73232e+10
       867.20000  0.000432971  1.73751e+10
       867.30000  0.000432971  1.74271e+10
       867.40000  0.000432971  1.74747e+10
       867.50000  0.000555993  2.25010e+10
       867.60000  0.000555993  2.25622e+10
       867.70000  0.000555993  2.26233e+10
       867.80000  0.000555993  2.26845e+10
       867.90000  0.000555993  2.27401e+10
       868.00000  0.000555993  2.27957e+10
       868.10000  0.000555993  2.28569e+10
       868.20000  0.000555993  2.29180e+10
       868.30000  0.000555993  2.29736e+10
       868.40000  0.000555993  2.30292e+10
       868.50000  0.000730572  3.03333e+10
       868.60000  0.000730572  3.03991e+10
       868.70000  0.000730572  3.04721e+10
       868.80000  0.000714578  2.98622e+10
       868.90000  0.000714578  2.99265e+10
       869.00000  0.000714578  2.99837e+10
       869.10000  0.000714578  3.00408e+10
       869.20000  0.000714578  3.00980e+10
       869.30000  0.000714578  3.01552e+10
       869.40000  0.000714578  3.02052e+10
       869.50000  0.000923177  3.90873e+10
       869.60000  0.000923177  3.91427e+10
       869.70000  0.000923177  3.91981e+10
       869.80000  0.000923177  3.92535e+10
       869.90000  0.000923177  3.93089e+10
       870.00000  0.000923177  3.93643e+10
       870.10000  0.000923177  3.94104e+10
       870.20000  0.000923177  3.94566e+10
       870.30000  0.000923177  3.94935e+10
       870.40000  0.000923177  3.95305e+10
       870.50000   0.00122784  5.26253e+10
       870.60000   0.00122784  5.26744e+10
       870.70000   0.00122784  5.27113e+10
       870.80000   0.00122784  5.27604e+10
       870.90000   0.00122784  5.27849e+10
       871.00000   0.00122784  5.28218e+10
       871.10000   0.00122784  5.28463e+10
       871.20000   0.00122784  5.28709e+10
       871.30000   0.00120210  5.17865e+10
       871.40000   0.00120210  5.17985e+10
       871.50000   0.00162157  6.98895e+10
       871.60000   0.00162157  6.99057e+10
       871.70000   0.00162157  6.99057e+10
       871.80000   0.00162157  6.99219e+10
       871.90000   0.00162157  6.99057e+10
       872.00000   0.00162157  6.99057e+10
       872.10000   0.00162157  6.98571e+10
       872.20000   0.00162157  6.98247e+10
       872.30000   0.00162157  6.97760e+10
       872.40000   0.00162157  6.97436e+10
       872.50000   0.00217764  9.35949e+10
       872.60000   0.00217764  9.35514e+10
       872.70000   0.00217764  9.35078e+10
       872.80000   0.00217764  9.34643e+10
       872.90000   0.00217764  9.33990e+10
       873.00000   0.00217764  9.33554e+10
       873.10000   0.00217764  9.33118e+10
       873.20000   0.00217764  9.32683e+10
       873.30000   0.00217764  9.32247e+10
       873.40000   0.00217764  9.31812e+10
       873.50000   0.00293989  1.25739e+11
       873.60000   0.00293989  1.25680e+11
       873.70000   0.00293989  1.25622e+11
       873.80000   0.00287317  1.22742e+11
       873.90000   0.00287317  1.22684e+11
       874.00000   0.00287317  1.22627e+11
       874.10000   0.00287317  1.22541e+11
       874.20000   0.00287317  1.22455e+11
       874.30000   0.00287317  1.22397e+11
       874.40000   0.00287317  1.22311e+11
       874.50000   0.00399594  1.70027e+11
       874.60000   0.00399594  1.69947e+11
       874.70000   0.00399594  1.69867e+11
       874.80000   0.00399594  1.69827e+11
       874.90000   0.00399594  1.69747e+11
       875.00000   0.00399594  1.69707e+11
       875.10000   0.00399594  1.69667e+11
       875.20000   0.00399594  1.69627e+11
       875.30000   0.00399594  1.69627e+11
       875.40000   0.00399594  1.69588e+11
       875.50000   0.00537198  2.27987e+11
       875.60000   0.00537198  2.27987e+11
       875.70000   0.00537198  2.27987e+11
       875.80000   0.00537198  2.28041e+11
       875.90000   0.00537198  2.28041e+11
       876.00000   0.00537198  2.28094e+11
       876.10000   0.00537198  2.28148e+11
       876.20000   0.00537198  2.28202e+11
       876.30000   0.00524371  2.22805e+11
       876.40000   0.00524371  2.22910e+11
       876.50000   0.00706665  3.00545e+11
       876.60000   0.00706665  3.00686e+11
       876.70000   0.00706665  3.00827e+11
       876.80000   0.00706665  3.00969e+11
       876.90000   0.00706665  3.01181e+11
       877.00000   0.00706665  3.01393e+11
       877.10000   0.00706665  3.01605e+11
       877.20000   0.00706665  3.01817e+11
       877.30000   0.00706665  3.02029e+11
       877.40000   0.00706665  3.02311e+11
       877.50000   0.00948317  4.06069e+11
       877.60000   0.00948317  4.06448e+11
       877.70000   0.00948317  4.06828e+11
       877.80000   0.00948317  4.07207e+11
       877.90000   0.00948317  4.07681e+11
       878.00000   0.00948317  4.08155e+11
       878.10000   0.00948317  4.07587e+11
       878.20000   0.00948317  4.07112e+11
       878.30000   0.00948317  4.06638e+11
       878.40000   0.00948317  4.06164e+11
       878.50000    0.0121669  5.20501e+11
       878.60000    0.0121669  5.20014e+11
       878.70000    0.0121669  5.19406e+11
       878.80000    0.0118701  5.06259e+11
       878.90000    0.0118701  5.05784e+11
       879.00000    0.0118701  5.05309e+11
       879.10000    0.0118701  5.04834e+11
       879.20000    0.0118701  5.04478e+11
       879.30000    0.0118701  5.04003e+11
       879.40000    0.0118701  5.03647e+11
       879.50000    0.0146224  6.19991e+11
       879.60000    0.0146224  6.19552e+11
       879.70000    0.0146224  6.19113e+11
       879.80000    0.0146224  6.18821e+11
       879.90000    0.0146224  6.18382e+11
       880.00000    0.0146224  6.18090e+11
       880.10000    0.0146224  6.17943e+11
       880.20000    0.0146224  6.17651e+11
       880.30000    0.0146224  6.17505e+11
       880.40000    0.0146224  6.17212e+11
       880.50000    0.0173743  7.33197e+11
       880.60000    0.0173743  7.33023e+11
       880.70000    0.0173743  7.32849e+11
       880.80000    0.0173743  7.32849e+11
       880.90000    0.0173743  7.32676e+11
       881.00000    0.0173743  7.32502e+11
       881.10000    0.0173743  7.32502e+11
       881.20000    0.0173743  7.32502e+11
       881.30000    0.0169598  7.15027e+11
       881.40000    0.0169598  7.14857e+11
       881.50000    0.0191136  8.05829e+11
       881.60000    0.0191136  8.05829e+11
       881.70000    0.0191136  8.05829e+11
       881.80000    0.0191136  8.06020e+11
       881.90000    0.0191136  8.06020e+11
       882.00000    0.0191136  8.06212e+11
       882.10000    0.0191136  8.07167e+11
       882.20000    0.0191136  8.07932e+11
       882.30000    0.0191136  8.08696e+11
       882.40000    0.0191136  8.09461e+11
       882.50000    0.0205217  8.69914e+11
       882.60000    0.0205217  8.70530e+11
       882.70000    0.0205217  8.71146e+11
       882.80000    0.0205217  8.71761e+11
       882.90000    0.0205217  8.72172e+11
       883.00000    0.0205217  8.72582e+11
       883.10000    0.0205217  8.72993e+11
       883.20000    0.0205217  8.73403e+11
       883.30000    0.0205217  8.73608e+11
       883.40000    0.0205217  8.73813e+11
       883.50000    0.0212002  9.02915e+11
       883.60000    0.0212002  9.02915e+11
       883.70000    0.0212002  9.02915e+11
       883.80000    0.0207078  8.81943e+11
       883.90000    0.0207078  8.81736e+11
       884.00000    0.0207078  8.81529e+11
       884.10000    0.0207078  8.80286e+11
       884.20000    0.0207078  8.79044e+11
       884.30000    0.0207078  8.77802e+11
       884.40000    0.0207078  8.76559e+11
       884.50000    0.0207539  8.77266e+11
       884.60000    0.0207539  8.76228e+11
       884.70000    0.0207539  8.75191e+11
       884.80000    0.0207539  8.74360e+11
       884.90000    0.0207539  8.73323e+11
       885.00000    0.0207539  8.72493e+11
       885.10000    0.0207539  8.71870e+11
       885.20000    0.0207539  8.71040e+11
       885.30000    0.0207539  8.70417e+11
       885.40000    0.0207539  8.69795e+11
       885.50000    0.0204004  8.54571e+11
       885.60000    0.0204004  8.53959e+11
       885.70000    0.0204004  8.53551e+11
       885.80000    0.0204004  8.53347e+11
       885.90000    0.0204004  8.52939e+11
       886.00000    0.0204004  8.52735e+11
       886.10000    0.0204004  8.52531e+11
       886.20000    0.0204004  8.52327e+11
       886.30000    0.0199454  8.33319e+11
       886.40000    0.0199454  8.33319e+11
       886.50000    0.0193882  8.10039e+11
       886.60000    0.0193882  8.10233e+11
       886.70000    0.0193882  8.10427e+11
       886.80000    0.0193882  8.10621e+11
       886.90000    0.0193882  8.10815e+11
       887.00000    0.0193882  8.11202e+11
       887.10000    0.0193882  8.11590e+11
       887.20000    0.0193882  8.11978e+11
       887.30000    0.0193882  8.12366e+11
       887.40000    0.0193882  8.12947e+11
       887.50000    0.0188064  7.89118e+11
       887.60000    0.0188064  7.89870e+11
       887.70000    0.0188064  7.90434e+11
       887.80000    0.0188064  7.91186e+11
       887.90000    0.0188064  7.92127e+11
       888.00000    0.0188064  7.92879e+11
       888.10000    0.0188064  7.93819e+11
       888.20000    0.0188064  7.94571e+11
       888.30000    0.0188064  7.95512e+11
       888.40000    0.0188064  7.96264e+11
       888.50000    0.0182790  7.74664e+11
       888.60000    0.0182790  7.75213e+11
       888.70000    0.0182790  7.75761e+11
       888.80000    0.0179145  7.60827e+11
       888.90000    0.0179145  7.61364e+11
       889.00000    0.0179145  7.61902e+11
       889.10000    0.0179145  7.62260e+11
       889.20000    0.0179145  7.62618e+11
       889.30000    0.0179145  7.62977e+11
       889.40000    0.0179145  7.63156e+11
       889.50000    0.0174865  7.45275e+11
       889.60000    0.0174865  7.45450e+11
       889.70000    0.0174865  7.45624e+11
       889.80000    0.0174865  7.45624e+11
       889.90000    0.0174865  7.45624e+11
       890.00000    0.0174865  7.45624e+11
       890.10000    0.0174865  7.45100e+11
       890.20000    0.0174865  7.44575e+11
       890.30000    0.0174865  7.44051e+11
       890.40000    0.0174865  7.43526e+11
       890.50000    0.0171430  7.28406e+11
       890.60000    0.0171430  7.27892e+11
       890.70000    0.0171430  7.27377e+11
       890.80000    0.0171430  7.26863e+11
       890.90000    0.0171430  7.26349e+11
       891.00000    0.0171430  7.26006e+11
       891.10000    0.0171430  7.25492e+11
       891.20000    0.0171430  7.25149e+11
       891.30000    0.0168381  7.11745e+11
       891.40000    0.0168381  7.11408e+11
       891.50000    0.0165831  7.00305e+11
       891.60000    0.0165831  6.99973e+11
       891.70000    0.0165831  6.99641e+11
       891.80000    0.0165831  6.99309e+11
       891.90000    0.0165831  6.98978e+11
       892.00000    0.0165831  6.98646e+11
       892.10000    0.0165831  6.98314e+11
       892.20000    0.0165831  6.98149e+11
       892.30000    0.0165831  6.97817e+11
       892.40000    0.0165831  6.97651e+11
       892.50000    0.0163999  6.89616e+11
       892.60000    0.0163999  6.89452e+11
       892.70000    0.0163999  6.89288e+11
       892.80000    0.0163999  6.89124e+11
       892.90000    0.0163999  6.88960e+11
       893.00000    0.0163999  6.88796e+11
       893.10000    0.0163999  6.88632e+11
       893.20000    0.0163999  6.88468e+11
       893.30000    0.0163999  6.88304e+11
       893.40000    0.0163999  6.88304e+11
       893.50000    0.0162621  6.82359e+11
       893.60000    0.0162621  6.82359e+11
       893.70000    0.0162621  6.82197e+11
       893.80000    0.0159816  6.70427e+11
       893.90000    0.0159816  6.70427e+11
       894.00000    0.0159816  6.70427e+11
       894.10000    0.0159816  6.70907e+11
       894.20000    0.0159816  6.71226e+11
       894.30000    0.0159816  6.71706e+11
       894.40000    0.0159816  6.72025e+11
       894.50000    0.0158873  6.68539e+11
       894.60000    0.0158873  6.68857e+11
       894.70000    0.0158873  6.69174e+11
       894.80000    0.0158873  6.69492e+11
       894.90000    0.0158873  6.69810e+11
       895.00000    0.0158873  6.70128e+11
       895.10000    0.0158873  6.70286e+11
       895.20000    0.0158873  6.70604e+11
       895.30000    0.0158873  6.70763e+11
       895.40000    0.0158873  6.70922e+11
       895.50000    0.0158206  6.68420e+11
       895.60000    0.0158206  6.68578e+11
       895.70000    0.0158206  6.68736e+11
       895.80000    0.0158206  6.68736e+11
       895.90000    0.0158206  6.68895e+11
       896.00000    0.0158206  6.69053e+11
       896.10000    0.0158206  6.69211e+11
       896.20000    0.0158206  6.69211e+11
       896.30000    0.0155879  6.59523e+11
       896.40000    0.0155879  6.59523e+11
       896.50000    0.0155419  6.57576e+11
       896.60000    0.0155419  6.57576e+11
       896.70000    0.0155419  6.57576e+11
       896.80000    0.0155419  6.57576e+11
       896.90000    0.0155419  6.57576e+11
       897.00000    0.0155419  6.57421e+11
       897.10000    0.0155419  6.57421e+11
       897.20000    0.0155419  6.57265e+11
       897.30000    0.0155419  6.57110e+11
       897.40000    0.0155419  6.56954e+11
       897.50000    0.0154757  6.53848e+11
       897.60000    0.0154757  6.53693e+11
       897.70000    0.0154757  6.53383e+11
       897.80000    0.0154757  6.53229e+11
       897.90000    0.0154757  6.52919e+11
       898.00000    0.0154757  6.52610e+11
       898.10000    0.0154757  6.52145e+11
       898.20000    0.0154757  6.51836e+11
       898.30000    0.0154757  6.51526e+11
       898.40000    0.0154757  6.51062e+11
       898.50000    0.0154311  6.48722e+11
       898.60000    0.0154311  6.48259e+11
       898.70000    0.0154311  6.47796e+11
       898.80000    0.0152031  6.37769e+11
       898.90000    0.0152031  6.37161e+11
       899.00000    0.0152031  6.36705e+11
       899.10000    0.0152031  6.36097e+11
       899.20000    0.0152031  6.35489e+11
       899.30000    0.0152031  6.34880e+11
       899.40000    0.0152031  6.34272e+11
       899.50000    0.0151499  6.31446e+11
       899.60000    0.0151499  6.30688e+11
       899.70000    0.0151499  6.30082e+11
       899.80000    0.0151499  6.29325e+11
       899.90000    0.0151499  6.28567e+11
       900.00000    0.0151499  6.27810e+11
       900.10000    0.0151499  6.25992e+11
       900.20000    0.0151499  6.24477e+11
       900.30000    0.0151499  6.22810e+11
       900.40000    0.0151499  6.21447e+11
       900.50000    0.0151243  6.19038e+11
       900.60000    0.0151243  6.17828e+11
       900.70000    0.0151243  6.16618e+11
       900.80000    0.0151243  6.15710e+11
       900.90000    0.0151243  6.14803e+11
       901.00000    0.0151243  6.13896e+11
       901.10000    0.0151243  6.13291e+11
       901.20000    0.0151243  6.12686e+11
       901.30000    0.0149095  6.03387e+11
       901.40000    0.0149095  6.03089e+11
       901.50000    0.0148691  6.01158e+11
       901.60000    0.0148691  6.01010e+11
       901.70000    0.0148691  6.00861e+11
       901.80000    0.0148691  6.00861e+11
       901.90000    0.0148691  6.01010e+11
       902.00000    0.0148691  6.01307e+11
       902.10000    0.0148691  6.03389e+11
       902.20000    0.0148691  6.05322e+11
       902.30000    0.0148691  6.07255e+11
       902.40000    0.0148691  6.09039e+11
       902.50000    0.0148183  6.08735e+11
       902.60000    0.0148183  6.10365e+11
       902.70000    0.0148183  6.11995e+11
       902.80000    0.0148183  6.13477e+11
       902.90000    0.0148183  6.14959e+11
       903.00000    0.0148183  6.16292e+11
       903.10000    0.0148183  6.17626e+11
       903.20000    0.0148183  6.18812e+11
       903.30000    0.0148183  6.19849e+11
       903.40000    0.0148183  6.20886e+11
       903.50000    0.0147534  6.19054e+11
       903.60000    0.0147534  6.19940e+11
       903.70000    0.0147534  6.20825e+11
       903.80000    0.0145478  6.12755e+11
       903.90000    0.0145478  6.13483e+11
       904.00000    0.0145478  6.13919e+11
       904.10000    0.0145478  6.14356e+11
       904.20000    0.0145478  6.14792e+11
       904.30000    0.0145478  6.15083e+11
       904.40000    0.0145478  6.15229e+11
       904.50000    0.0144573  6.11545e+11
       904.60000    0.0144573  6.11689e+11
       904.70000    0.0144573  6.11689e+11
       904.80000    0.0144573  6.11545e+11
       904.90000    0.0144573  6.11400e+11
       905.00000    0.0144573  6.11111e+11
       905.10000    0.0144573  6.10822e+11
       905.20000    0.0144573  6.10388e+11
       905.30000    0.0144573  6.09954e+11
       905.40000    0.0144573  6.09376e+11
       905.50000    0.0143590  6.04515e+11
       905.60000    0.0143590  6.03797e+11
       905.70000    0.0143590  6.03079e+11
       905.80000    0.0143590  6.02218e+11
       905.90000    0.0143590  6.01213e+11
       906.00000    0.0143590  6.00207e+11
       906.10000    0.0143590  5.99633e+11
       906.20000    0.0143590  5.99202e+11
       906.30000    0.0141516  5.90120e+11
       906.40000    0.0141516  5.89554e+11
       906.50000    0.0140452  5.84703e+11
       906.60000    0.0140452  5.84282e+11
       906.70000    0.0140452  5.83860e+11
       906.80000    0.0140452  5.83439e+11
       906.90000    0.0140452  5.83018e+11
       907.00000    0.0140452  5.82596e+11
       907.10000    0.0140452  5.82175e+11
       907.20000    0.0140452  5.81754e+11
       907.30000    0.0140452  5.81332e+11
       907.40000    0.0140452  5.80911e+11
       907.50000    0.0139298  5.75719e+11
       907.60000    0.0139298  5.75441e+11
       907.70000    0.0139298  5.75023e+11
       907.80000    0.0139298  5.74605e+11
       907.90000    0.0139298  5.74326e+11
       908.00000    0.0139298  5.73908e+11
       908.10000    0.0139298  5.73351e+11
       908.20000    0.0139298  5.72933e+11
       908.30000    0.0139298  5.72376e+11
       908.40000    0.0139298  5.71958e+11
       908.50000    0.0138157  5.66860e+11
       908.60000    0.0138157  5.66445e+11
       908.70000    0.0138157  5.66169e+11
       908.80000    0.0136072  5.57216e+11
       908.90000    0.0136072  5.56944e+11
       909.00000    0.0136072  5.56672e+11
       909.10000    0.0136072  5.56400e+11
       909.20000    0.0136072  5.56127e+11
       909.30000    0.0136072  5.55855e+11
       909.40000    0.0136072  5.55719e+11
       909.50000    0.0134841  5.50555e+11
       909.60000    0.0134841  5.50420e+11
       909.70000    0.0134841  5.50285e+11
       909.80000    0.0134841  5.50151e+11
       909.90000    0.0134841  5.50151e+11
       910.00000    0.0134841  5.50016e+11
       910.10000    0.0134841  5.50016e+11
       910.20000    0.0134841  5.50016e+11
       910.30000    0.0134841  5.50151e+11
       910.40000    0.0134841  5.50151e+11
       910.50000    0.0133579  5.45137e+11
       910.60000    0.0133579  5.45137e+11
       910.70000    0.0133579  5.45271e+11
       910.80000    0.0133579  5.45538e+11
       910.90000    0.0133579  5.45672e+11
       911.00000    0.0133579  5.45805e+11
       911.10000    0.0133579  5.46072e+11
       911.20000    0.0133579  5.46340e+11
       911.30000    0.0131450  5.37893e+11
       911.40000    0.0131450  5.38156e+11
       911.50000    0.0130154  5.33242e+11
       911.60000    0.0130154  5.33503e+11
       911.70000    0.0130154  5.33893e+11
       911.80000    0.0130154  5.34283e+11
       911.90000    0.0130154  5.34674e+11
       912.00000    0.0130154  5.35195e+11
       912.10000    0.0130154  5.35845e+11
       912.20000    0.0130154  5.36366e+11
       912.30000    0.0130154  5.36886e+11
       912.40000    0.0130154  5.37407e+11
       912.50000    0.0128976  5.33059e+11
       912.60000    0.0128976  5.33575e+11
       912.70000    0.0128976  5.34091e+11
       912.80000    0.0128976  5.34478e+11
       912.90000    0.0128976  5.34864e+11
       913.00000    0.0128976  5.35251e+11
       913.10000    0.0128976  5.35638e+11
       913.20000    0.0128976  5.35896e+11
       913.30000    0.0128976  5.36283e+11
       913.40000    0.0128976  5.36541e+11
       913.50000    0.0127759  5.31734e+11
       913.60000    0.0127759  5.31989e+11
       913.70000    0.0127759  5.32117e+11
       913.80000    0.0125569  5.23122e+11
       913.90000    0.0125569  5.23374e+11
       914.00000    0.0125569  5.23499e+11
       914.10000    0.0125569  5.23248e+11
       914.20000    0.0125569  5.23122e+11
       914.30000    0.0125569  5.22997e+11
       914.40000    0.0125569  5.22871e+11
       914.50000    0.0124444  5.18060e+11
       914.60000    0.0124444  5.17811e+11
       914.70000    0.0124444  5.17686e+11
       914.80000    0.0124444  5.17562e+11
       914.90000    0.0124444  5.17438e+11
       915.00000    0.0124444  5.17313e+11
       915.10000    0.0124444  5.17189e+11
       915.20000    0.0124444  5.17064e+11
       915.30000    0.0124444  5.16940e+11
       915.40000    0.0124444  5.16815e+11
       915.50000    0.0123176  5.11427e+11
       915.60000    0.0123176  5.11304e+11
       915.70000    0.0123176  5.11181e+11
       915.80000    0.0123176  5.11057e+11
       915.90000    0.0123176  5.10934e+11
       916.00000    0.0123176  5.10811e+11
       916.10000    0.0123176  5.10688e+11
       916.20000    0.0123176  5.10565e+11
       916.30000    0.0120886  5.00953e+11
       916.40000    0.0120886  5.00833e+11
       916.50000    0.0119779  4.96123e+11
       916.60000    0.0119779  4.96123e+11
       916.70000    0.0119779  4.96003e+11
       916.80000    0.0119779  4.95883e+11
       916.90000    0.0119779  4.95764e+11
       917.00000    0.0119779  4.95644e+11
       917.10000    0.0119779  4.95644e+11
       917.20000    0.0119779  4.95524e+11
       917.30000    0.0119779  4.95404e+11
       917.40000    0.0119779  4.95285e+11
       917.50000    0.0118594  4.90385e+11
       917.60000    0.0118594  4.90266e+11
       917.70000    0.0118594  4.90148e+11
       917.80000    0.0118594  4.90148e+11
       917.90000    0.0118594  4.90029e+11
       918.00000    0.0118594  4.89911e+11
       918.10000    0.0118594  4.90148e+11
       918.20000    0.0118594  4.90385e+11
       918.30000    0.0118594  4.90622e+11
       918.40000    0.0118594  4.90741e+11
       918.50000    0.0117466  4.86193e+11
       918.60000    0.0117466  4.86310e+11
       918.70000    0.0117466  4.86310e+11
       918.80000    0.0115269  4.77213e+11
       918.90000    0.0115269  4.77213e+11
       919.00000    0.0115269  4.77213e+11
       919.10000    0.0115269  4.77098e+11
       919.20000    0.0115269  4.76983e+11
       919.30000    0.0115269  4.76868e+11
       919.40000    0.0115269  4.76637e+11
       919.50000    0.0114092  4.71541e+11
       919.60000    0.0114092  4.71313e+11
       919.70000    0.0114092  4.71085e+11
       919.80000    0.0114092  4.70743e+11
       919.90000    0.0114092  4.70515e+11
       920.00000    0.0114092  4.70172e+11
       920.10000    0.0114092  4.69145e+11
       920.20000    0.0114092  4.68233e+11
       920.30000    0.0114092  4.67320e+11
       920.40000    0.0114092  4.66407e+11
       920.50000    0.0112930  4.60755e+11
       920.60000    0.0112930  4.59964e+11
       920.70000    0.0112930  4.59174e+11
       920.80000    0.0112930  4.58496e+11
       920.90000    0.0112930  4.57705e+11
       921.00000    0.0112930  4.57028e+11
       921.10000    0.0112930  4.56350e+11
       921.20000    0.0112930  4.55786e+11
       921.30000    0.0110761  4.46368e+11
       921.40000    0.0110761  4.45814e+11
       921.50000    0.0109623  4.40683e+11
       921.60000    0.0109623  4.40244e+11
       921.70000    0.0109623  4.39806e+11
       921.80000    0.0109623  4.39367e+11
       921.90000    0.0109623  4.38929e+11
       922.00000    0.0109623  4.38600e+11
       922.10000    0.0109623  4.38162e+11
       922.20000    0.0109623  4.37942e+11
       922.30000    0.0109623  4.37613e+11
       922.40000    0.0109623  4.37394e+11
       922.50000    0.0108491  4.32555e+11
       922.60000    0.0108491  4.32446e+11
       922.70000    0.0108491  4.32229e+11
       922.80000    0.0108491  4.32121e+11
       922.90000    0.0108491  4.32012e+11
       923.00000    0.0108491  4.31904e+11
       923.10000    0.0108491  4.31904e+11
       923.20000    0.0108491  4.31795e+11
       923.30000    0.0108491  4.31795e+11
       923.40000    0.0108491  4.31904e+11
       923.50000    0.0107288  4.27112e+11
       923.60000    0.0107288  4.27219e+11
       923.70000    0.0107288  4.27326e+11
       923.80000    0.0105200  4.19222e+11
       923.90000    0.0105200  4.19327e+11
       924.00000    0.0105200  4.19537e+11
       924.10000    0.0105200  4.19537e+11
       924.20000    0.0105200  4.19537e+11
       924.30000    0.0105200  4.19537e+11
       924.40000    0.0105200  4.19537e+11
       924.50000    0.0103967  4.14619e+11
       924.60000    0.0103967  4.14619e+11
       924.70000    0.0103967  4.14723e+11
       924.80000    0.0103967  4.14827e+11
       924.90000    0.0103967  4.14827e+11
       925.00000    0.0103967  4.14931e+11
       925.10000    0.0103967  4.15139e+11
       925.20000    0.0103967  4.15242e+11
       925.30000    0.0103967  4.15346e+11
       925.40000    0.0103967  4.15554e+11
       925.50000    0.0102712  4.10747e+11
       925.60000    0.0102712  4.10952e+11
       925.70000    0.0102712  4.11158e+11
       925.80000    0.0102712  4.11363e+11
       925.90000    0.0102712  4.11569e+11
       926.00000    0.0102712  4.11877e+11
       926.10000    0.0102712  4.12493e+11
       926.20000    0.0102712  4.13212e+11
       926.30000    0.0100711  4.05764e+11
       926.40000    0.0100711  4.06368e+11
       926.50000   0.00995187  4.02155e+11
       926.60000   0.00995187  4.02653e+11
       926.70000   0.00995187  4.03150e+11
       926.80000   0.00995187  4.03648e+11
       926.90000   0.00995187  4.04145e+11
       927.00000   0.00995187  4.04543e+11
       927.10000   0.00995187  4.04942e+11
       927.20000   0.00995187  4.05340e+11
       927.30000   0.00995187  4.05638e+11
       927.40000   0.00995187  4.05937e+11
       927.50000   0.00982648  4.01117e+11
       927.60000   0.00982648  4.01314e+11
       927.70000   0.00982648  4.01608e+11
       927.80000   0.00982648  4.01805e+11
       927.90000   0.00982648  4.01903e+11
       928.00000   0.00982648  4.02001e+11
       928.10000   0.00982648  4.01805e+11
       928.20000   0.00982648  4.01608e+11
       928.30000   0.00982648  4.01314e+11
       928.40000   0.00982648  4.01117e+11
       928.50000   0.00969381  3.95507e+11
       928.60000   0.00969381  3.95313e+11
       928.70000   0.00969381  3.95119e+11
       928.80000   0.00950628  3.87286e+11
       928.90000   0.00950628  3.87096e+11
       929.00000   0.00950628  3.87001e+11
       929.10000   0.00950628  3.86811e+11
       929.20000   0.00950628  3.86620e+11
       929.30000   0.00950628  3.86525e+11
       929.40000   0.00950628  3.86335e+11
       929.50000   0.00938104  3.81152e+11
       929.60000   0.00938104  3.81058e+11
       929.70000   0.00938104  3.80870e+11
       929.80000   0.00938104  3.80776e+11
       929.90000   0.00938104  3.80683e+11
       930.00000   0.00938104  3.80589e+11
       930.10000   0.00938104  3.80589e+11
       930.20000   0.00938104  3.80589e+11
       930.30000   0.00938104  3.80495e+11
       930.40000   0.00938104  3.80495e+11
       930.50000   0.00924785  3.75093e+11
       930.60000   0.00924785  3.75093e+11
       930.70000   0.00924785  3.75000e+11
       930.80000   0.00924785  3.75000e+11
       930.90000   0.00924785  3.75000e+11
       931.00000   0.00924785  3.75000e+11
       931.10000   0.00924785  3.75000e+11
       931.20000   0.00924785  3.74908e+11
       931.30000   0.00907870  3.68051e+11
       931.40000   0.00907870  3.68051e+11
       931.50000   0.00894890  3.62789e+11
       931.60000   0.00894890  3.62789e+11
       931.70000   0.00894890  3.62789e+11
       931.80000   0.00894890  3.62789e+11
       931.90000   0.00894890  3.62789e+11
       932.00000   0.00894890  3.62789e+11
       932.10000   0.00894890  3.62789e+11
       932.20000   0.00894890  3.62789e+11
       932.30000   0.00894890  3.62789e+11
       932.40000   0.00894890  3.62789e+11
       932.50000   0.00881860  3.57506e+11
       932.60000   0.00881860  3.57506e+11
       932.70000   0.00881860  3.57506e+11
       932.80000   0.00881860  3.57594e+11
       932.90000   0.00881860  3.57594e+11
       933.00000   0.00881860  3.57594e+11
       933.10000   0.00881860  3.57594e+11
       933.20000   0.00881860  3.57594e+11
       933.30000   0.00881860  3.57682e+11
       933.40000   0.00881860  3.57682e+11
       933.50000   0.00868574  3.52294e+11
       933.60000   0.00868574  3.52380e+11
       933.70000   0.00868574  3.52380e+11
       933.80000   0.00853847  3.46406e+11
       933.90000   0.00853847  3.46491e+11
       934.00000   0.00853847  3.46491e+11
       934.10000   0.00853847  3.46235e+11
       934.20000   0.00853847  3.45979e+11
       934.30000   0.00853847  3.45723e+11
       934.40000   0.00853847  3.45467e+11
       934.50000   0.00840517  3.39821e+11
       934.60000   0.00840517  3.39653e+11
       934.70000   0.00840517  3.39485e+11
       934.80000   0.00840517  3.39233e+11
       934.90000   0.00840517  3.39065e+11
       935.00000   0.00840517  3.38981e+11
       935.10000   0.00840517  3.38812e+11
       935.20000   0.00840517  3.38644e+11
       935.30000   0.00840517  3.38560e+11
       935.40000   0.00840517  3.38476e+11
       935.50000   0.00827616  3.33198e+11
       935.60000   0.00827616  3.33116e+11
       935.70000   0.00827616  3.33033e+11
       935.80000   0.00827616  3.32950e+11
       935.90000   0.00827616  3.32950e+11
       936.00000   0.00827616  3.32867e+11
       936.10000   0.00827616  3.33116e+11
       936.20000   0.00827616  3.33364e+11
       936.30000   0.00814007  3.28126e+11
       936.40000   0.00814007  3.28370e+11
       936.50000   0.00801495  3.23483e+11
       936.60000   0.00801495  3.23644e+11
       936.70000   0.00801495  3.23804e+11
       936.80000   0.00801495  3.23964e+11
       936.90000   0.00801495  3.24044e+11
       937.00000   0.00801495  3.24205e+11
       937.10000   0.00801495  3.24285e+11
       937.20000   0.00801495  3.24365e+11
       937.30000   0.00801495  3.24365e+11
       937.40000   0.00801495  3.24445e+11
       937.50000   0.00788550  3.19205e+11
       937.60000   0.00788550  3.19205e+11
       937.70000   0.00788550  3.19205e+11
       937.80000   0.00788550  3.19205e+11
       937.90000   0.00788550  3.19126e+11
       938.00000   0.00788550  3.19126e+11
       938.10000   0.00788550  3.19048e+11
       938.20000   0.00788550  3.18890e+11
       938.30000   0.00788550  3.18811e+11
       938.40000   0.00788550  3.18653e+11
       938.50000   0.00776212  3.13590e+11
       938.60000   0.00776212  3.13435e+11
       938.70000   0.00776212  3.13202e+11
       938.80000   0.00764112  3.08166e+11
       938.90000   0.00764112  3.07937e+11
       939.00000   0.00764112  3.07784e+11
       939.10000   0.00764112  3.07555e+11
       939.20000   0.00764112  3.07249e+11
       939.30000   0.00764112  3.07020e+11
       939.40000   0.00764112  3.06715e+11
       939.50000   0.00751529  3.01363e+11
       939.60000   0.00751529  3.01063e+11
       939.70000   0.00751529  3.00762e+11
       939.80000   0.00751529  3.00461e+11
       939.90000   0.00751529  3.00086e+11
       940.00000   0.00751529  2.99710e+11
       940.10000   0.00751529  2.99184e+11
       940.20000   0.00751529  2.98658e+11
       940.30000   0.00751529  2.98207e+11
       940.40000   0.00751529  2.97756e+11
       940.50000   0.00739332  2.92480e+11
       940.60000   0.00739332  2.92110e+11
       940.70000   0.00739332  2.91741e+11
       940.80000   0.00739332  2.91371e+11
       940.90000   0.00739332  2.91001e+11
       941.00000   0.00739332  2.90705e+11
       941.10000   0.00739332  2.90410e+11
       941.20000   0.00739332  2.90188e+11
       941.30000   0.00728314  2.85645e+11
       941.40000   0.00728314  2.85426e+11
       941.50000   0.00716548  2.80600e+11
       941.60000   0.00716548  2.80457e+11
       941.70000   0.00716548  2.80314e+11
       941.80000   0.00716548  2.80170e+11
       941.90000   0.00716548  2.80027e+11
       942.00000   0.00716548  2.79955e+11
       942.10000   0.00716548  2.80170e+11
       942.20000   0.00716548  2.80314e+11
       942.30000   0.00716548  2.80529e+11
       942.40000   0.00716548  2.80672e+11
       942.50000   0.00705365  2.76433e+11
       942.60000   0.00705365  2.76644e+11
       942.70000   0.00705365  2.76785e+11
       942.80000   0.00705365  2.76926e+11
       942.90000   0.00705365  2.77068e+11
       943.00000   0.00705365  2.77209e+11
       943.10000   0.00705365  2.77420e+11
       943.20000   0.00705365  2.77561e+11
       943.30000   0.00705365  2.77702e+11
       943.40000   0.00705365  2.77843e+11
       943.50000   0.00693697  2.73386e+11
       943.60000   0.00693697  2.73525e+11
       943.70000   0.00693697  2.73663e+11
       943.80000   0.00683117  2.69626e+11
       943.90000   0.00683117  2.69763e+11
       944.00000   0.00683117  2.69900e+11
       944.10000   0.00683117  2.70036e+11
       944.20000   0.00683117  2.70173e+11
       944.30000   0.00683117  2.70241e+11
       944.40000   0.00683117  2.70378e+11
       944.50000   0.00672233  2.66204e+11
       944.60000   0.00672233  2.66339e+11
       944.70000   0.00672233  2.66406e+11
       944.80000   0.00672233  2.66540e+11
       944.90000   0.00672233  2.66675e+11
       945.00000   0.00672233  2.66742e+11
       945.10000   0.00672233  2.66876e+11
       945.20000   0.00672233  2.67011e+11
       945.30000   0.00672233  2.67078e+11
       945.40000   0.00672233  2.67213e+11
       945.50000   0.00661369  2.62960e+11
       945.60000   0.00661369  2.63093e+11
       945.70000   0.00661369  2.63159e+11
       945.80000   0.00661369  2.63291e+11
       945.90000   0.00661369  2.63357e+11
       946.00000   0.00661369  2.63423e+11
       946.10000   0.00661369  2.63556e+11
       946.20000   0.00661369  2.63688e+11
       946.30000   0.00651444  2.59861e+11
       946.40000   0.00651444  2.59991e+11
       946.50000   0.00640711  2.55836e+11
       946.60000   0.00640711  2.55900e+11
       946.70000   0.00640711  2.56028e+11
       946.80000   0.00640711  2.56092e+11
       946.90000   0.00640711  2.56156e+11
       947.00000   0.00640711  2.56284e+11
       947.10000   0.00640711  2.56348e+11
       947.20000   0.00640711  2.56413e+11
       947.30000   0.00640711  2.56477e+11
       947.40000   0.00640711  2.56541e+11
       947.50000   0.00630402  2.52413e+11
       947.60000   0.00630402  2.52476e+11
       947.70000   0.00630402  2.52539e+11
       947.80000   0.00630402  2.52539e+11
       947.90000   0.00630402  2.52602e+11
       948.00000   0.00630402  2.52602e+11
       948.10000   0.00630402  2.52602e+11
       948.20000   0.00630402  2.52602e+11
       948.30000   0.00630402  2.52539e+11
       948.40000   0.00630402  2.52539e+11
       948.50000   0.00620013  2.48315e+11
       948.60000   0.00620013  2.48315e+11
       948.70000   0.00620013  2.48315e+11
       948.80000   0.00610057  2.44267e+11
       948.90000   0.00610057  2.44267e+11
       949.00000   0.00610057  2.44206e+11
       949.10000   0.00610057  2.44206e+11
       949.20000   0.00610057  2.44145e+11
       949.30000   0.00610057  2.44145e+11
       949.40000   0.00610057  2.44084e+11
       949.50000   0.00599905  2.40022e+11
       949.60000   0.00599905  2.39962e+11
       949.70000   0.00599905  2.39902e+11
       949.80000   0.00599905  2.39902e+11
       949.90000   0.00599905  2.39842e+11
       950.00000   0.00599905  2.39782e+11
       950.10000   0.00599905  2.39782e+11
       950.20000   0.00599905  2.39722e+11
       950.30000   0.00599905  2.39662e+11
       950.40000   0.00599905  2.39662e+11
       950.50000   0.00592132  2.36497e+11
       950.60000   0.00592132  2.36438e+11
       950.70000   0.00592132  2.36379e+11
       950.80000   0.00592132  2.36379e+11
       950.90000   0.00592132  2.36320e+11
       951.00000   0.00592132  2.36261e+11
       951.10000   0.00592132  2.36201e+11
       951.20000   0.00592132  2.36142e+11
       951.30000   0.00582659  2.32364e+11
       951.40000   0.00582659  2.32306e+11
       951.50000   0.00575652  2.29455e+11
       951.60000   0.00575652  2.29397e+11
       951.70000   0.00575652  2.29340e+11
       951.80000   0.00575652  2.29282e+11
       951.90000   0.00575652  2.29225e+11
       952.00000   0.00575652  2.29167e+11
       952.10000   0.00575652  2.28707e+11
       952.20000   0.00575652  2.28246e+11
       952.30000   0.00575652  2.27843e+11
       952.40000   0.00575652  2.27440e+11
       952.50000   0.00568634  2.24269e+11
       952.60000   0.00568634  2.23871e+11
       952.70000   0.00568634  2.23530e+11
       952.80000   0.00568634  2.23189e+11
       952.90000   0.00568634  2.22848e+11
       953.00000   0.00568634  2.22563e+11
       953.10000   0.00568634  2.22279e+11
       953.20000   0.00568634  2.21995e+11
       953.30000   0.00568634  2.21767e+11
       953.40000   0.00568634  2.21483e+11
       953.50000   0.00561473  2.18469e+11
       953.60000   0.00561473  2.18301e+11
       953.70000   0.00561473  2.18076e+11
       953.80000   0.00552151  2.14290e+11
       953.90000   0.00552151  2.14124e+11
       954.00000   0.00552151  2.14014e+11
       954.10000   0.00552151  2.13958e+11
       954.20000   0.00552151  2.13903e+11
       954.30000   0.00552151  2.13903e+11
       954.40000   0.00552151  2.13903e+11
       954.50000   0.00545061  2.11102e+11
       954.60000   0.00545061  2.11102e+11
       954.70000   0.00545061  2.11102e+11
       954.80000   0.00545061  2.11102e+11
       954.90000   0.00545061  2.11157e+11
       955.00000   0.00545061  2.11157e+11
       955.10000   0.00545061  2.11211e+11
       955.20000   0.00545061  2.11211e+11
       955.30000   0.00545061  2.11266e+11
       955.40000   0.00545061  2.11320e+11
       955.50000   0.00537845  2.08576e+11
       955.60000   0.00537845  2.08630e+11
       955.70000   0.00537845  2.08684e+11
       955.80000   0.00537845  2.08791e+11
       955.90000   0.00537845  2.08845e+11
       956.00000   0.00537845  2.08953e+11
       956.10000   0.00537845  2.09060e+11
       956.20000   0.00537845  2.09114e+11
       956.30000   0.00529065  2.05806e+11
       956.40000   0.00529065  2.05965e+11
       956.50000   0.00521979  2.03311e+11
       956.60000   0.00521979  2.03415e+11
       956.70000   0.00521979  2.03572e+11
       956.80000   0.00521979  2.03676e+11
       956.90000   0.00521979  2.03833e+11
       957.00000   0.00521979  2.03989e+11
       957.10000   0.00521979  2.04146e+11
       957.20000   0.00521979  2.04302e+11
       957.30000   0.00521979  2.04511e+11
       957.40000   0.00521979  2.04668e+11
       957.50000   0.00514784  2.02001e+11
       957.60000   0.00514784  2.02207e+11
       957.70000   0.00514784  2.02413e+11
       957.80000   0.00514784  2.02619e+11
       957.90000   0.00514784  2.02825e+11
       958.00000   0.00514784  2.03031e+11
       958.10000   0.00514784  2.03031e+11
       958.20000   0.00514784  2.02979e+11
       958.30000   0.00514784  2.02979e+11
       958.40000   0.00514784  2.02979e+11
       958.50000   0.00507496  2.00106e+11
       958.60000   0.00507496  2.00055e+11
       958.70000   0.00507496  2.00055e+11
       958.80000   0.00498550  1.96528e+11
       958.90000   0.00498550  1.96479e+11
       959.00000   0.00498550  1.96479e+11
       959.10000   0.00498550  1.96429e+11
       959.20000   0.00498550  1.96429e+11
       959.30000   0.00498550  1.96379e+11
       959.40000   0.00498550  1.96329e+11
       959.50000   0.00491206  1.93437e+11
       959.60000   0.00491206  1.93388e+11
       959.70000   0.00491206  1.93388e+11
       959.80000   0.00491206  1.93339e+11
       959.90000   0.00491206  1.93290e+11
       960.00000   0.00491206  1.93240e+11
       960.10000   0.00491206  1.93191e+11
       960.20000   0.00491206  1.93142e+11
       960.30000   0.00491206  1.93093e+11
       960.40000   0.00491206  1.93044e+11
       960.50000   0.00483880  1.90117e+11
       960.60000   0.00483880  1.90068e+11
       960.70000   0.00483880  1.90020e+11
       960.80000   0.00483880  1.89971e+11
       960.90000   0.00483880  1.89923e+11
       961.00000   0.00483880  1.89875e+11
       961.10000   0.00483880  1.89826e+11
       961.20000   0.00483880  1.89778e+11
       961.30000   0.00475473  1.86433e+11
       961.40000   0.00475473  1.86385e+11
       961.50000   0.00468069  1.83436e+11
       961.60000   0.00468069  1.83343e+11
       961.70000   0.00468069  1.83296e+11
       961.80000   0.00468069  1.83249e+11
       961.90000   0.00468069  1.83202e+11
       962.00000   0.00468069  1.83155e+11
       962.10000   0.00468069  1.83062e+11
       962.20000   0.00468069  1.83015e+11
       962.30000   0.00468069  1.82968e+11
       962.40000   0.00468069  1.82875e+11
       962.50000   0.00460387  1.79827e+11
       962.60000   0.00460387  1.79781e+11
       962.70000   0.00460387  1.79689e+11
       962.80000   0.00460387  1.79643e+11
       962.90000   0.00460387  1.79551e+11
       963.00000   0.00460387  1.79505e+11
       963.10000   0.00460387  1.79459e+11
       963.20000   0.00460387  1.79367e+11
       963.30000   0.00460387  1.79321e+11
       963.40000   0.00460387  1.79228e+11
       963.50000   0.00452867  1.76256e+11
       963.60000   0.00452867  1.76165e+11
       963.70000   0.00452867  1.76120e+11
       963.80000   0.00444643  1.72833e+11
       963.90000   0.00444643  1.72744e+11
       964.00000   0.00444643  1.72699e+11
       964.10000   0.00444643  1.72610e+11
       964.20000   0.00444643  1.72477e+11
       964.30000   0.00444643  1.72388e+11
       964.40000   0.00444643  1.72344e+11
       964.50000   0.00437159  1.69355e+11
       964.60000   0.00437159  1.69268e+11
       964.70000   0.00437159  1.69224e+11
       964.80000   0.00437159  1.69137e+11
       964.90000   0.00437159  1.69093e+11
       965.00000   0.00437159  1.69005e+11
       965.10000   0.00437159  1.68962e+11
       965.20000   0.00437159  1.68918e+11
       965.30000   0.00437159  1.68874e+11
       965.40000   0.00437159  1.68874e+11
       965.50000   0.00429430  1.65846e+11
       965.60000   0.00429430  1.65803e+11
       965.70000   0.00429430  1.65803e+11
       965.80000   0.00429430  1.65760e+11
       965.90000   0.00429430  1.65760e+11
       966.00000   0.00429430  1.65760e+11
       966.10000   0.00429430  1.65803e+11
       966.20000   0.00429430  1.65846e+11
       966.30000   0.00421489  1.62863e+11
       966.40000   0.00421489  1.62905e+11
       966.50000   0.00413849  1.59994e+11
       966.60000   0.00413849  1.60036e+11
       966.70000   0.00413849  1.60077e+11
       966.80000   0.00413849  1.60118e+11
       966.90000   0.00413849  1.60160e+11
       967.00000   0.00413849  1.60201e+11
       967.10000   0.00413849  1.60242e+11
       967.20000   0.00413849  1.60284e+11
       967.30000   0.00413849  1.60325e+11
       967.40000   0.00413849  1.60367e+11
       967.50000   0.00406095  1.57362e+11
       967.60000   0.00406095  1.57403e+11
       967.70000   0.00406095  1.57443e+11
       967.80000   0.00406095  1.57443e+11
       967.90000   0.00406095  1.57484e+11
       968.00000   0.00406095  1.57524e+11
       968.10000   0.00406095  1.57524e+11
       968.20000   0.00406095  1.57565e+11
       968.30000   0.00406095  1.57565e+11
       968.40000   0.00406095  1.57565e+11
       968.50000   0.00398454  1.54640e+11
       968.60000   0.00398454  1.54640e+11
       968.70000   0.00398454  1.54640e+11
       968.80000   0.00391071  1.51814e+11
       968.90000   0.00391071  1.51814e+11
       969.00000   0.00391071  1.51814e+11
       969.10000   0.00391071  1.51814e+11
       969.20000   0.00391071  1.51814e+11
       969.30000   0.00391071  1.51814e+11
       969.40000   0.00391071  1.51814e+11
       969.50000   0.00383284  1.48791e+11
       969.60000   0.00383284  1.48791e+11
       969.70000   0.00383284  1.48791e+11
       969.80000   0.00383284  1.48791e+11
       969.90000   0.00383284  1.48791e+11
       970.00000   0.00383284  1.48791e+11
       970.10000   0.00383284  1.48829e+11
       970.20000   0.00383284  1.48868e+11
       970.30000   0.00383284  1.48868e+11
       970.40000   0.00383284  1.48906e+11
       970.50000   0.00375519  1.45889e+11
       970.60000   0.00375519  1.45926e+11
       970.70000   0.00375519  1.45926e+11
       970.80000   0.00375519  1.45926e+11
       970.90000   0.00375519  1.45926e+11
       971.00000   0.00375519  1.45926e+11
       971.10000   0.00375519  1.45926e+11
       971.20000   0.00375519  1.45889e+11
       971.30000   0.00368576  1.43192e+11
       971.40000   0.00368576  1.43155e+11
       971.50000   0.00360899  1.40173e+11
       971.60000   0.00360899  1.40137e+11
       971.70000   0.00360899  1.40101e+11
       971.80000   0.00360899  1.40065e+11
       971.90000   0.00360899  1.40029e+11
       972.00000   0.00360899  1.39957e+11
       972.10000   0.00360899  1.39812e+11
       972.20000   0.00360899  1.39668e+11
       972.30000   0.00360899  1.39560e+11
       972.40000   0.00360899  1.39415e+11
       972.50000   0.00353198  1.36334e+11
       972.60000   0.00353198  1.36193e+11
       972.70000   0.00353198  1.36087e+11
       972.80000   0.00353198  1.35981e+11
       972.90000   0.00353198  1.35875e+11
       973.00000   0.00353198  1.35805e+11
       973.10000   0.00353198  1.35699e+11
       973.20000   0.00353198  1.35628e+11
       973.30000   0.00353198  1.35557e+11
       973.40000   0.00353198  1.35487e+11
       973.50000   0.00345710  1.32545e+11
       973.60000   0.00345710  1.32476e+11
       973.70000   0.00345710  1.32441e+11
       973.80000   0.00338976  1.29794e+11
       973.90000   0.00338976  1.29760e+11
       974.00000   0.00338976  1.29726e+11
       974.10000   0.00338976  1.29760e+11
       974.20000   0.00338976  1.29828e+11
       974.30000   0.00338976  1.29862e+11
       974.40000   0.00338976  1.29895e+11
       974.50000   0.00331438  1.27040e+11
       974.60000   0.00331438  1.27073e+11
       974.70000   0.00331438  1.27106e+11
       974.80000   0.00331438  1.27140e+11
       974.90000   0.00331438  1.27140e+11
       975.00000   0.00331438  1.27173e+11
       975.10000   0.00331438  1.27206e+11
       975.20000   0.00331438  1.27206e+11
       975.30000   0.00331438  1.27239e+11
       975.40000   0.00331438  1.27239e+11
       975.50000   0.00324031  1.24396e+11
       975.60000   0.00324031  1.24428e+11
       975.70000   0.00324031  1.24428e+11
       975.80000   0.00324031  1.24428e+11
       975.90000   0.00324031  1.24428e+11
       976.00000   0.00324031  1.24428e+11
       976.10000   0.00324031  1.24396e+11
       976.20000   0.00324031  1.24363e+11
       976.30000   0.00317835  1.21953e+11
       976.40000   0.00317835  1.21921e+11
       976.50000   0.00310619  1.19153e+11
       976.60000   0.00310619  1.19122e+11
       976.70000   0.00310619  1.19091e+11
       976.80000   0.00310619  1.19060e+11
       976.90000   0.00310619  1.19060e+11
       977.00000   0.00310619  1.19029e+11
       977.10000   0.00310619  1.18998e+11
       977.20000   0.00310619  1.18967e+11
       977.30000   0.00310619  1.18967e+11
       977.40000   0.00310619  1.18936e+11
       977.50000   0.00303668  1.16244e+11
       977.60000   0.00303668  1.16244e+11
       977.70000   0.00303668  1.16214e+11
       977.80000   0.00303668  1.16183e+11
       977.90000   0.00303668  1.16183e+11
       978.00000   0.00303668  1.16153e+11
       978.10000   0.00303668  1.16153e+11
       978.20000   0.00303668  1.16123e+11
       978.30000   0.00303668  1.16123e+11
       978.40000   0.00303668  1.16092e+11
       978.50000   0.00296556  1.13344e+11
       978.60000   0.00296556  1.13344e+11
       978.70000   0.00296556  1.13344e+11
       978.80000   0.00290784  1.11108e+11
       978.90000   0.00290784  1.11108e+11
       979.00000   0.00290784  1.11079e+11
       979.10000   0.00290784  1.11079e+11
       979.20000   0.00290784  1.11050e+11
       979.30000   0.00290784  1.11050e+11
       979.40000   0.00290784  1.11050e+11
       979.50000   0.00283874  1.08383e+11
       979.60000   0.00283874  1.08383e+11
       979.70000   0.00283874  1.08383e+11
       979.80000   0.00283874  1.08355e+11
       979.90000   0.00283874  1.08355e+11
       980.00000   0.00283874  1.08355e+11
       980.10000   0.00283874  1.08412e+11
       980.20000   0.00283874  1.08440e+11
       980.30000   0.00283874  1.08497e+11
       980.40000   0.00283874  1.08525e+11
       980.50000   0.00277075  1.05981e+11
       980.60000   0.00277075  1.06009e+11
       980.70000   0.00277075  1.06037e+11
       980.80000   0.00277075  1.06064e+11
       980.90000   0.00277075  1.06092e+11
       981.00000   0.00277075  1.06120e+11
       981.10000   0.00277075  1.06147e+11
       981.20000   0.00277075  1.06175e+11
       981.30000   0.00271468  1.04027e+11
       981.40000   0.00271468  1.04054e+11
       981.50000   0.00264865  1.01523e+11
       981.60000   0.00264865  1.01523e+11
       981.70000   0.00264865  1.01549e+11
       981.80000   0.00264865  1.01549e+11
       981.90000   0.00264865  1.01549e+11
       982.00000   0.00264865  1.01523e+11
       982.10000   0.00264865  1.01496e+11
       982.20000   0.00264865  1.01443e+11
       982.30000   0.00264865  1.01417e+11
       982.40000   0.00264865  1.01364e+11
       982.50000   0.00258088  9.87445e+10
       982.60000   0.00258088  9.86929e+10
       982.70000   0.00258088  9.86671e+10
       982.80000   0.00258088  9.86413e+10
       982.90000   0.00258088  9.85896e+10
       983.00000   0.00258088  9.85638e+10
       983.10000   0.00258088  9.85380e+10
       983.20000   0.00258088  9.85122e+10
       983.30000   0.00258088  9.84864e+10
       983.40000   0.00258088  9.84348e+10
       983.50000   0.00251423  9.58677e+10
       983.60000   0.00251423  9.58425e+10
       983.70000   0.00251423  9.58174e+10
       983.80000   0.00246464  9.39029e+10
       983.90000   0.00246464  9.38783e+10
       984.00000   0.00246464  9.38536e+10
       984.10000   0.00246464  9.38536e+10
       984.20000   0.00246464  9.38290e+10
       984.30000   0.00246464  9.38043e+10
       984.40000   0.00246464  9.37797e+10
       984.50000   0.00239977  9.13112e+10
       984.60000   0.00239977  9.12872e+10
       984.70000   0.00239977  9.12632e+10
       984.80000   0.00239977  9.12632e+10
       984.90000   0.00239977  9.12392e+10
       985.00000   0.00239977  9.12152e+10
       985.10000   0.00239977  9.12152e+10
       985.20000   0.00239977  9.11912e+10
       985.30000   0.00239977  9.11912e+10
       985.40000   0.00239977  9.11912e+10
       985.50000   0.00233401  8.86690e+10
       985.60000   0.00233401  8.86690e+10
       985.70000   0.00233401  8.86690e+10
       985.80000   0.00233401  8.86457e+10
       985.90000   0.00233401  8.86457e+10
       986.00000   0.00233401  8.86457e+10
       986.10000   0.00233401  8.86224e+10
       986.20000   0.00233401  8.86224e+10
       986.30000   0.00228801  8.68757e+10
       986.40000   0.00228801  8.68528e+10
       986.50000   0.00222465  8.44255e+10
       986.60000   0.00222465  8.44255e+10
       986.70000   0.00222465  8.44033e+10
       986.80000   0.00222465  8.44033e+10
       986.90000   0.00222465  8.43810e+10
       987.00000   0.00222465  8.43588e+10
       987.10000   0.00222465  8.43365e+10
       987.20000   0.00222465  8.43365e+10
       987.30000   0.00222465  8.43143e+10
       987.40000   0.00222465  8.42921e+10
       987.50000   0.00215998  8.18200e+10
       987.60000   0.00215998  8.17984e+10
       987.70000   0.00215998  8.17768e+10
       987.80000   0.00215998  8.17552e+10
       987.90000   0.00215998  8.17336e+10
       988.00000   0.00215998  8.17120e+10
       988.10000   0.00215998  8.16472e+10
       988.20000   0.00215998  8.16040e+10
       988.30000   0.00215998  8.15392e+10
       988.40000   0.00215998  8.14960e+10
       988.50000   0.00209626  7.90500e+10
       988.60000   0.00209626  7.90081e+10
       988.70000   0.00209626  7.89661e+10
       988.80000   0.00205542  7.73864e+10
       988.90000   0.00205542  7.73453e+10
       989.00000   0.00205542  7.73248e+10
       989.10000   0.00205542  7.73042e+10
       989.20000   0.00205542  7.72631e+10
       989.30000   0.00205542  7.72425e+10
       989.40000   0.00205542  7.72220e+10
       989.50000   0.00199319  7.48644e+10
       989.60000   0.00199319  7.48445e+10
       989.70000   0.00199319  7.48445e+10
       989.80000   0.00199319  7.48245e+10
       989.90000   0.00199319  7.48245e+10
       990.00000   0.00199319  7.48245e+10
       990.10000   0.00199319  7.48046e+10
       990.20000   0.00199319  7.48046e+10
       990.30000   0.00199319  7.48245e+10
       990.40000   0.00199319  7.48245e+10
       990.50000   0.00193109  7.24931e+10
       990.60000   0.00193109  7.25124e+10
       990.70000   0.00193109  7.25124e+10
       990.80000   0.00193109  7.25317e+10
       990.90000   0.00193109  7.25510e+10
       991.00000   0.00193109  7.25703e+10
       991.10000   0.00193109  7.25896e+10
       991.20000   0.00193109  7.26089e+10
       991.30000   0.00189530  7.12824e+10
       991.40000   0.00189530  7.13203e+10
       991.50000   0.00183532  6.90815e+10
       991.60000   0.00183532  6.91182e+10
       991.70000   0.00183532  6.91549e+10
       991.80000   0.00183532  6.91916e+10
       991.90000   0.00183532  6.92283e+10
       992.00000   0.00183532  6.92650e+10
       992.10000   0.00183532  6.92834e+10
       992.20000   0.00183532  6.92834e+10
       992.30000   0.00183532  6.92834e+10
       992.40000   0.00183532  6.92834e+10
       992.50000   0.00177542  6.70398e+10
       992.60000   0.00177542  6.70398e+10
       992.70000   0.00177542  6.70398e+10
       992.80000   0.00177542  6.70398e+10
       992.90000   0.00177542  6.70398e+10
       993.00000   0.00177542  6.70575e+10
       993.10000   0.00177542  6.70575e+10
       993.20000   0.00177542  6.70575e+10
       993.30000   0.00177542  6.70575e+10
       993.40000   0.00177542  6.70575e+10
       993.50000   0.00171653  6.48333e+10
       993.60000   0.00171653  6.48333e+10
       993.70000   0.00171653  6.48333e+10
       993.80000   0.00168691  6.37144e+10
       993.90000   0.00168691  6.36975e+10
       994.00000   0.00168691  6.36975e+10
       994.10000   0.00168691  6.36975e+10
       994.20000   0.00168691  6.36807e+10
       994.30000   0.00168691  6.36807e+10
       994.40000   0.00168691  6.36638e+10
       994.50000   0.00162930  6.14898e+10
       994.60000   0.00162930  6.14735e+10
       994.70000   0.00162930  6.14735e+10
       994.80000   0.00162930  6.14572e+10
       994.90000   0.00162930  6.14572e+10
       995.00000   0.00162930  6.14409e+10
       995.10000   0.00162930  6.14409e+10
       995.20000   0.00162930  6.14409e+10
       995.30000   0.00162930  6.14246e+10
       995.40000   0.00162930  6.14246e+10
       995.50000   0.00157270  5.92907e+10
       995.60000   0.00157270  5.92750e+10
       995.70000   0.00157270  5.92750e+10
       995.80000   0.00157270  5.92750e+10
       995.90000   0.00157270  5.92750e+10
       996.00000   0.00157270  5.92593e+10
       996.10000   0.00157270  5.92750e+10
       996.20000   0.00157270  5.92750e+10
       996.30000   0.00154634  5.82815e+10
       996.40000   0.00154634  5.82815e+10
       996.50000   0.00149087  5.61908e+10
       996.60000   0.00149087  5.61908e+10
       996.70000   0.00149087  5.61908e+10
       996.80000   0.00149087  5.61908e+10
       996.90000   0.00149087  5.61908e+10
       997.00000   0.00149087  5.61908e+10
       997.10000   0.00149087  5.61908e+10
       997.20000   0.00149087  5.61908e+10
       997.30000   0.00149087  5.61908e+10
       997.40000   0.00149087  5.61908e+10
       997.50000   0.00143611  5.41271e+10
       997.60000   0.00143611  5.41271e+10
       997.70000   0.00143611  5.41271e+10
       997.80000   0.00143611  5.41271e+10
       997.90000   0.00143611  5.41271e+10
       998.00000   0.00143611  5.41128e+10
       998.10000   0.00143611  5.41128e+10
       998.20000   0.00143611  5.40984e+10
       998.30000   0.00143611  5.40984e+10
       998.40000   0.00143611  5.40840e+10
       998.50000   0.00138267  5.20577e+10
       998.60000   0.00138267  5.20577e+10
       998.70000   0.00138267  5.20438e+10
       998.80000   0.00136160  5.12506e+10
       998.90000   0.00136160  5.12506e+10
       999.00000   0.00136160  5.12370e+10
       999.10000   0.00136160  5.12370e+10
       999.20000   0.00136160  5.12234e+10
       999.30000   0.00136160  5.12234e+10
       999.40000   0.00136160  5.12234e+10
       999.50000   0.00130916  4.92376e+10
       999.60000   0.00130916  4.92376e+10
       999.70000   0.00130916  4.92376e+10
       999.80000   0.00130916  4.92376e+10
       999.90000   0.00130916  4.92376e+10
       1000.0000   0.00130916  4.92246e+10
       1000.1000   0.00130916  4.92246e+10
       1000.2000   0.00130916  4.92246e+10
       1000.3000   0.00130916  4.92246e+10
       1000.4000   0.00130916  4.92246e+10
       1000.5000   0.00128760  4.84138e+10
       1000.6000   0.00128760  4.84138e+10
       1000.7000   0.00128760  4.84138e+10
       1000.8000   0.00128760  4.84138e+10
       1000.9000   0.00128760  4.84138e+10
       1001.0000   0.00128760  4.84138e+10
       1001.1000   0.00128760  4.84138e+10
       1001.2000   0.00128760  4.84267e+10
       1001.3000   0.00126860  4.77119e+10
       1001.4000   0.00126860  4.77119e+10
       1001.5000   0.00124804  4.69389e+10
       1001.6000   0.00124804  4.69389e+10
       1001.7000   0.00124804  4.69514e+10
       1001.8000   0.00124804  4.69514e+10
       1001.9000   0.00124804  4.69514e+10
       1002.0000   0.00124804  4.69639e+10
       1002.1000   0.00124804  4.68890e+10
       1002.2000   0.00124804  4.68141e+10
       1002.3000   0.00124804  4.67517e+10
       1002.4000   0.00124804  4.66768e+10
       1002.5000   0.00122789  4.58616e+10
       1002.6000   0.00122789  4.57879e+10
       1002.7000   0.00122789  4.57266e+10
       1002.8000   0.00122789  4.56652e+10
       1002.9000   0.00122789  4.56038e+10
       1003.0000   0.00122789  4.55424e+10
       1003.1000   0.00122789  4.54810e+10
       1003.2000   0.00122789  4.54196e+10
       1003.3000   0.00122789  4.53705e+10
       1003.4000   0.00122789  4.53091e+10
       1003.5000   0.00120794  4.45247e+10
       1003.6000   0.00120794  4.44764e+10
       1003.7000   0.00120794  4.44160e+10
       1003.8000   0.00119149  4.37633e+10
       1003.9000   0.00119149  4.37157e+10
       1004.0000   0.00119149  4.36680e+10
       1004.1000   0.00119149  4.35965e+10
       1004.2000   0.00119149  4.35131e+10
       1004.3000   0.00119149  4.34535e+10
       1004.4000   0.00119149  4.33821e+10
       1004.5000   0.00117235  4.26267e+10
       1004.6000   0.00117235  4.25680e+10
       1004.7000   0.00117235  4.25211e+10
       1004.8000   0.00117235  4.24742e+10
       1004.9000   0.00117235  4.24391e+10
       1005.0000   0.00117235  4.24039e+10
       1005.1000   0.00117235  4.23687e+10
       1005.2000   0.00117235  4.23453e+10
       1005.3000   0.00117235  4.23218e+10
       1005.4000   0.00117235  4.23101e+10
       1005.5000   0.00115386  4.16312e+10
       1005.6000   0.00115386  4.16196e+10
       1005.7000   0.00115386  4.16196e+10
       1005.8000   0.00115386  4.16312e+10
       1005.9000   0.00115386  4.16312e+10
       1006.0000   0.00115386  4.16427e+10
       1006.1000   0.00115386  4.16658e+10
       1006.2000   0.00115386  4.16889e+10
       1006.3000   0.00113918  4.11813e+10
       1006.4000   0.00113918  4.12155e+10
       1006.5000   0.00112074  4.05818e+10
       1006.6000   0.00112074  4.06267e+10
       1006.7000   0.00112074  4.06715e+10
       1006.8000   0.00112074  4.07163e+10
       1006.9000   0.00112074  4.07724e+10
       1007.0000   0.00112074  4.08284e+10
       1007.1000   0.00112074  4.08956e+10
       1007.2000   0.00112074  4.09629e+10
       1007.3000   0.00112074  4.10301e+10
       1007.4000   0.00112074  4.11086e+10
       1007.5000   0.00110257  4.05195e+10
       1007.6000   0.00110257  4.06077e+10
       1007.7000   0.00110257  4.06959e+10
       1007.8000   0.00110257  4.07841e+10
       1007.9000   0.00110257  4.08833e+10
       1008.0000   0.00110257  4.09826e+10
       1008.1000   0.00110257  4.09936e+10
       1008.2000   0.00110257  4.09936e+10
       1008.3000   0.00110257  4.09936e+10
       1008.4000   0.00110257  4.09936e+10
       1008.5000   0.00108343  4.02821e+10
       1008.6000   0.00108343  4.02821e+10
       1008.7000   0.00108343  4.02821e+10
       1008.8000   0.00107075  3.98106e+10
       1008.9000   0.00107075  3.98106e+10
       1009.0000   0.00107075  3.97999e+10
       1009.1000   0.00107075  3.97999e+10
       1009.2000   0.00107075  3.97999e+10
       1009.3000   0.00107075  3.97999e+10
       1009.4000   0.00107075  3.97892e+10
       1009.5000   0.00104920  3.89884e+10
       1009.6000   0.00104920  3.89884e+10
       1009.7000   0.00104920  3.89779e+10
       1009.8000   0.00104920  3.89779e+10
       1009.9000   0.00104920  3.89675e+10
       1010.0000   0.00104920  3.89675e+10
       1010.1000   0.00104920  3.89570e+10
       1010.2000   0.00104920  3.89465e+10
       1010.3000   0.00104920  3.89360e+10
       1010.4000   0.00104920  3.89255e+10
       1010.5000   0.00102540  3.80322e+10
       1010.6000   0.00102540  3.80220e+10
       1010.7000   0.00102540  3.80117e+10
       1010.8000   0.00102540  3.80015e+10
       1010.9000   0.00102540  3.79912e+10
       1011.0000   0.00102540  3.79810e+10
       1011.1000   0.00102540  3.79810e+10
       1011.2000   0.00102540  3.79707e+10
       1011.3000   0.00101409  3.75417e+10
       1011.4000   0.00101409  3.75316e+10
       1011.5000  0.000985441  3.64613e+10
       1011.6000  0.000985441  3.64515e+10
       1011.7000  0.000985441  3.64416e+10
       1011.8000  0.000985441  3.64317e+10
       1011.9000  0.000985441  3.64219e+10
       1012.0000  0.000985441  3.64120e+10
       1012.1000  0.000985441  3.64022e+10
       1012.2000  0.000985441  3.63923e+10
       1012.3000  0.000985441  3.63825e+10
       1012.4000  0.000985441  3.63726e+10
       1012.5000  0.000949620  3.50410e+10
       1012.6000  0.000949620  3.50315e+10
       1012.7000  0.000949620  3.50220e+10
       1012.8000  0.000949620  3.50125e+10
       1012.9000  0.000949620  3.50125e+10
       1013.0000  0.000949620  3.50030e+10
       1013.1000  0.000949620  3.49935e+10
       1013.2000  0.000949620  3.49840e+10
       1013.3000  0.000949620  3.49745e+10
       1013.4000  0.000949620  3.49650e+10
       1013.5000  0.000904044  3.32778e+10
       1013.6000  0.000904044  3.32688e+10
       1013.7000  0.000904044  3.32598e+10
       1013.8000  0.000894747  3.29088e+10
       1013.9000  0.000894747  3.28999e+10
       1014.0000  0.000894747  3.28909e+10
       1014.1000  0.000894747  3.28730e+10
       1014.2000  0.000894747  3.28551e+10
       1014.3000  0.000894747  3.28372e+10
       1014.4000  0.000894747  3.28193e+10
       1014.5000  0.000841835  3.08701e+10
       1014.6000  0.000841835  3.08532e+10
       1014.7000  0.000841835  3.08364e+10
       1014.8000  0.000841835  3.08280e+10
       1014.9000  0.000841835  3.08111e+10
       1015.0000  0.000841835  3.08027e+10
       1015.1000  0.000841835  3.07859e+10
       1015.2000  0.000841835  3.07775e+10
       1015.3000  0.000841835  3.07691e+10
       1015.4000  0.000841835  3.07522e+10
       1015.5000  0.000778257  2.84219e+10
       1015.6000  0.000778257  2.84142e+10
       1015.7000  0.000778257  2.84064e+10
       1015.8000  0.000778257  2.83986e+10
       1015.9000  0.000778257  2.83908e+10
       1016.0000  0.000778257  2.83830e+10
       1016.1000  0.000778257  2.83830e+10
       1016.2000  0.000778257  2.83830e+10
       1016.3000  0.000770862  2.81133e+10
       1016.4000  0.000770862  2.81056e+10
       1016.5000  0.000696442  2.53923e+10
       1016.6000  0.000696442  2.53923e+10
       1016.7000  0.000696442  2.53923e+10
       1016.8000  0.000696442  2.53853e+10
       1016.9000  0.000696442  2.53853e+10
       1017.0000  0.000696442  2.53783e+10
       1017.1000  0.000696442  2.53783e+10
       1017.2000  0.000696442  2.53714e+10
       1017.3000  0.000696442  2.53714e+10
       1017.4000  0.000696442  2.53644e+10
       1017.5000  0.000619021  2.25447e+10
       1017.6000  0.000619021  2.25385e+10
       1017.7000  0.000619021  2.25324e+10
       1017.8000  0.000619021  2.25262e+10
       1017.9000  0.000619021  2.25200e+10
       1018.0000  0.000619021  2.25200e+10
       1018.1000  0.000619021  2.25076e+10
       1018.2000  0.000619021  2.24952e+10
       1018.3000  0.000619021  2.24828e+10
       1018.4000  0.000619021  2.24705e+10
       1018.5000  0.000538043  1.95256e+10
       1018.6000  0.000538043  1.95148e+10
       1018.7000  0.000538043  1.95095e+10
       1018.8000  0.000533116  1.93201e+10
       1018.9000  0.000533116  1.93148e+10
       1019.0000  0.000533116  1.93041e+10
       1019.1000  0.000533116  1.92988e+10
       1019.2000  0.000533116  1.92935e+10
       1019.3000  0.000533116  1.92882e+10
       1019.4000  0.000533116  1.92775e+10
       1019.5000  0.000452189  1.63466e+10
       1019.6000  0.000452189  1.63421e+10
       1019.7000  0.000452189  1.63376e+10
       1019.8000  0.000452189  1.63376e+10
       1019.9000  0.000452189  1.63331e+10
       1020.0000  0.000452189  1.63286e+10
       1020.1000  0.000452189  1.63240e+10
       1020.2000  0.000452189  1.63195e+10
       1020.3000  0.000452189  1.63195e+10
       1020.4000  0.000452189  1.63150e+10
       1020.5000  0.000376188  1.35729e+10
       1020.6000  0.000376188  1.35691e+10
       1020.7000  0.000376188  1.35691e+10
       1020.8000  0.000376188  1.35654e+10
       1020.9000  0.000376188  1.35654e+10
       1021.0000  0.000376188  1.35654e+10
       1021.1000  0.000376188  1.35654e+10
       1021.2000  0.000376188  1.35654e+10
       1021.3000  0.000373393  1.34646e+10
       1021.4000  0.000373393  1.34646e+10
       1021.5000  0.000307905  1.11031e+10
       1021.6000  0.000307905  1.11031e+10
       1021.7000  0.000307905  1.11031e+10
       1021.8000  0.000307905  1.11061e+10
       1021.9000  0.000307905  1.11061e+10
       1022.0000  0.000307905  1.11092e+10
       1022.1000  0.000307905  1.11092e+10
       1022.2000  0.000307905  1.11123e+10
       1022.3000  0.000307905  1.11154e+10
       1022.4000  0.000307905  1.11154e+10
       1022.5000  0.000247932  8.95283e+09
       1022.6000  0.000247932  8.95531e+09
       1022.7000  0.000247932  8.95779e+09
       1022.8000  0.000247932  8.96027e+09
       1022.9000  0.000247932  8.96275e+09
       1023.0000  0.000247932  8.96523e+09
       1023.1000  0.000247932  8.97019e+09
       1023.2000  0.000247932  8.97267e+09
       1023.3000  0.000247932  8.97515e+09
       1023.4000  0.000247932  8.98011e+09
       1023.5000  0.000197887  7.16945e+09
       1023.6000  0.000197887  7.17341e+09
       1023.7000  0.000197887  7.17539e+09
       1023.8000  0.000196645  7.13430e+09
       1023.9000  0.000196645  7.13823e+09
       1024.0000  0.000196645  7.14216e+09
       1024.1000  0.000196645  7.14216e+09
       1024.2000  0.000196645  7.14020e+09
       1024.3000  0.000196645  7.14020e+09
       1024.4000  0.000196645  7.14020e+09
       1024.5000  0.000157269  5.71044e+09
       1024.6000  0.000157269  5.70887e+09
       1024.7000  0.000157269  5.70887e+09
       1024.8000  0.000157269  5.70887e+09
       1024.9000  0.000157269  5.70730e+09
       1025.0000  0.000157269  5.70730e+09
       1025.1000  0.000157269  5.70730e+09
       1025.2000  0.000157269  5.70572e+09
       1025.3000  0.000157269  5.70572e+09
       1025.4000  0.000157269  5.70572e+09
       1025.5000  0.000124370  4.51091e+09
       1025.6000  0.000124370  4.51091e+09
       1025.7000  0.000124370  4.50966e+09
       1025.8000  0.000124370  4.50966e+09
       1025.9000  0.000124370  4.50842e+09
       1026.0000  0.000124370  4.50842e+09
       1026.1000  0.000124370  4.50842e+09
       1026.2000  0.000124370  4.50717e+09
       1026.3000  0.000123595  4.47907e+09
       1026.4000  0.000123595  4.47783e+09
       1026.5000  9.68562e-05  3.50910e+09
       1026.6000  9.68562e-05  3.50813e+09
       1026.7000  9.68562e-05  3.50716e+09
       1026.8000  9.68562e-05  3.50716e+09
       1026.9000  9.68562e-05  3.50619e+09
       1027.0000  9.68562e-05  3.50619e+09
       1027.1000  9.68562e-05  3.50523e+09
       1027.2000  9.68562e-05  3.50426e+09
       1027.3000  9.68562e-05  3.50426e+09
       1027.4000  9.68562e-05  3.50329e+09
       1027.5000  7.72117e-05  2.79198e+09
       1027.6000  7.72117e-05  2.79198e+09
       1027.7000  7.72117e-05  2.79120e+09
       1027.8000  7.72117e-05  2.79043e+09
       1027.9000  7.72117e-05  2.78966e+09
       1028.0000  7.72117e-05  2.78889e+09
       1028.1000  7.72117e-05  2.78889e+09
       1028.2000  7.72117e-05  2.78811e+09
       1028.3000  7.72117e-05  2.78734e+09
       1028.4000  7.72117e-05  2.78657e+09
       1028.5000  6.10510e-05  2.20272e+09
       1028.6000  6.10510e-05  2.20211e+09
       1028.7000  6.10510e-05  2.20150e+09
       1028.8000  6.05274e-05  2.18201e+09
       1028.9000  6.05274e-05  2.18141e+09
       1029.0000  6.05274e-05  2.18080e+09
       1029.1000  6.05274e-05  2.18020e+09
       1029.2000  6.05274e-05  2.17959e+09
       1029.3000  6.05274e-05  2.17899e+09
       1029.4000  6.05274e-05  2.17838e+09
       1029.5000  4.76358e-05  1.71393e+09
       1029.6000  4.76358e-05  1.71346e+09
       1029.7000  4.76358e-05  1.71298e+09
       1029.8000  4.76358e-05  1.71251e+09
       1029.9000  4.76358e-05  1.71203e+09
       1030.0000  4.76358e-05  1.71108e+09
       1030.1000  4.76358e-05  1.71155e+09
       1030.2000  4.76358e-05  1.71155e+09
       1030.3000  4.76358e-05  1.71155e+09
       1030.4000  4.76358e-05  1.71155e+09
       1030.5000  3.80370e-05  1.36667e+09
       1030.6000  3.80370e-05  1.36667e+09
       1030.7000  3.80370e-05  1.36629e+09
       1030.8000  3.80370e-05  1.36629e+09
       1030.9000  3.80370e-05  1.36629e+09
       1031.0000  3.80370e-05  1.36591e+09
       1031.1000  3.80370e-05  1.36591e+09
       1031.2000  3.80370e-05  1.36553e+09
       1031.3000  3.75195e-05  1.34695e+09
       1031.4000  3.75195e-05  1.34657e+09
       1031.5000  3.00544e-05  1.07835e+09
       1031.6000  3.00544e-05  1.07805e+09
       1031.7000  3.00544e-05  1.07775e+09
       1031.8000  3.00544e-05  1.07745e+09
       1031.9000  3.00544e-05  1.07715e+09
       1032.0000  3.00544e-05  1.07685e+09
       1032.1000  3.00544e-05  1.07595e+09
       1032.2000  3.00544e-05  1.07475e+09
       1032.3000  3.00544e-05  1.07384e+09
       1032.4000  3.00544e-05  1.07324e+09
       1032.5000  2.36909e-05  8.45293e+08
       1032.6000  2.36909e-05  8.44582e+08
       1032.7000  2.36909e-05  8.44108e+08
       1032.8000  2.36909e-05  8.43397e+08
       1032.9000  2.36909e-05  8.42923e+08
       1033.0000  2.36909e-05  8.42450e+08
       1033.1000  2.36909e-05  8.41976e+08
       1033.2000  2.36909e-05  8.41739e+08
       1033.3000  2.36909e-05  8.41265e+08
       1033.4000  2.36909e-05  8.41028e+08
       1033.5000  1.91570e-05  6.79689e+08
       1033.6000  1.91570e-05  6.79497e+08
       1033.7000  1.91570e-05  6.79306e+08
       1033.8000  1.87923e-05  6.66187e+08
       1033.9000  1.87923e-05  6.66187e+08
       1034.0000  1.87923e-05  6.65999e+08
       1034.1000  1.87923e-05  6.65999e+08
       1034.2000  1.87923e-05  6.65811e+08
       1034.3000  1.87923e-05  6.65811e+08
       1034.4000  1.87923e-05  6.65811e+08
       1034.5000  1.50251e-05  5.32338e+08
       1034.6000  1.50251e-05  5.32489e+08
       1034.7000  1.50251e-05  5.32489e+08
       1034.8000  1.50251e-05  5.32639e+08
       1034.9000  1.50251e-05  5.32639e+08
       1035.0000  1.50251e-05  5.32789e+08
       1035.1000  1.50251e-05  5.32939e+08
       1035.2000  1.50251e-05  5.33090e+08
       1035.3000  1.50251e-05  5.33390e+08
       1035.4000  1.50251e-05  5.33540e+08
       1035.5000  1.21088e-05  4.30225e+08
       1035.6000  1.21088e-05  4.30467e+08
       1035.7000  1.21088e-05  4.30588e+08
       1035.8000  1.21088e-05  4.30830e+08
       1035.9000  1.21088e-05  4.31194e+08
       1036.0000  1.21088e-05  4.31436e+08
       1036.1000  1.21088e-05  4.31194e+08
       1036.2000  1.21088e-05  4.30951e+08
       1036.3000  1.18260e-05  4.20652e+08
       1036.4000  1.18260e-05  4.20415e+08
       1036.5000  9.42613e-06  3.34910e+08
       1036.6000  9.42613e-06  3.34722e+08
       1036.7000  9.42613e-06  3.34628e+08
       1036.8000  9.42613e-06  3.34439e+08
       1036.9000  9.42613e-06  3.34251e+08
       1037.0000  9.42613e-06  3.34156e+08
       1037.1000  9.42613e-06  3.34062e+08
       1037.2000  9.42613e-06  3.33874e+08
       1037.3000  9.42613e-06  3.33779e+08
       1037.4000  9.42613e-06  3.33685e+08
       1037.5000  7.59750e-06  2.68876e+08
       1037.6000  7.59750e-06  2.68800e+08
       1037.7000  7.59750e-06  2.68724e+08
       1037.8000  7.59750e-06  2.68648e+08
       1037.9000  7.59750e-06  2.68572e+08
       1038.0000  7.59750e-06  2.68496e+08
       1038.1000  7.59750e-06  2.68496e+08
       1038.2000  7.59750e-06  2.68496e+08
       1038.3000  7.59750e-06  2.68572e+08
       1038.4000  7.59750e-06  2.68572e+08
       1038.5000  6.20799e-06  2.19452e+08
       1038.6000  6.20799e-06  2.19452e+08
       1038.7000  6.20799e-06  2.19452e+08
       1038.8000  6.04647e-06  2.13743e+08
       1038.9000  6.04647e-06  2.13743e+08
       1039.0000  6.04647e-06  2.13743e+08
       1039.1000  6.04647e-06  2.13743e+08
       1039.2000  6.04647e-06  2.13743e+08
       1039.3000  6.04647e-06  2.13743e+08
       1039.4000  6.04647e-06  2.13743e+08
       1039.5000  4.91881e-06  1.73880e+08
       1039.6000  4.91881e-06  1.73880e+08
       1039.7000  4.91881e-06  1.73880e+08
       1039.8000  4.91881e-06  1.73880e+08
       1039.9000  4.91881e-06  1.73880e+08
       1040.0000  4.91881e-06  1.73880e+08
       1040.1000  4.91881e-06  1.73880e+08
       1040.2000  4.91881e-06  1.73880e+08
       1040.3000  4.91881e-06  1.73880e+08
       1040.4000  4.91881e-06  1.73880e+08
       1040.5000  3.89074e-06  1.37538e+08
       1040.6000  3.89074e-06  1.37538e+08
       1040.7000  3.89074e-06  1.37538e+08
       1040.8000  3.89074e-06  1.37538e+08
       1040.9000  3.89074e-06  1.37538e+08
       1041.0000  3.89074e-06  1.37538e+08
       1041.1000  3.89074e-06  1.37538e+08
       1041.2000  3.89074e-06  1.37538e+08
       1041.3000  3.77930e-06  1.33598e+08
       1041.4000  3.77930e-06  1.33598e+08
       1041.5000  3.12267e-06  1.10386e+08
       1041.6000  3.12267e-06  1.10386e+08
       1041.7000  3.12267e-06  1.10386e+08
       1041.8000  3.12267e-06  1.10355e+08
       1041.9000  3.12267e-06  1.10355e+08
       1042.0000  3.12267e-06  1.10355e+08
       1042.1000  3.12267e-06  1.10386e+08
       1042.2000  3.12267e-06  1.10386e+08
       1042.3000  3.12267e-06  1.10417e+08
       1042.4000  3.12267e-06  1.10417e+08
       1042.5000  2.55242e-06  9.02536e+07
       1042.6000  2.55242e-06  9.02536e+07
       1042.7000  2.55242e-06  9.02536e+07
       1042.8000  2.55242e-06  9.02281e+07
       1042.9000  2.55242e-06  9.02281e+07
       1043.0000  2.55242e-06  9.02281e+07
       1043.1000  2.55242e-06  9.02026e+07
       1043.2000  2.55242e-06  9.01770e+07
       1043.3000  2.55242e-06  9.01770e+07
       1043.4000  2.55242e-06  9.01515e+07
       1043.5000  2.04953e-06  7.23691e+07
       1043.6000  2.04953e-06  7.23486e+07
       1043.7000  2.04953e-06  7.23281e+07
       1043.8000  1.99091e-06  7.02193e+07
       1043.9000  1.99091e-06  7.01994e+07
       1044.0000  1.99091e-06  7.01596e+07
       1044.1000  1.99091e-06  7.00799e+07
       1044.2000  1.99091e-06  6.99804e+07
       1044.3000  1.99091e-06  6.99007e+07
       1044.4000  1.99091e-06  6.98211e+07
       1044.5000  1.57808e-06  5.52800e+07
       1044.6000  1.57808e-06  5.52327e+07
       1044.7000  1.57808e-06  5.51696e+07
       1044.8000  1.57808e-06  5.51222e+07
       1044.9000  1.57808e-06  5.50749e+07
       1045.0000  1.57808e-06  5.50275e+07
       1045.1000  1.57808e-06  5.49960e+07
       1045.2000  1.57808e-06  5.49486e+07
       1045.3000  1.57808e-06  5.49171e+07
       1045.4000  1.57808e-06  5.48855e+07
       1045.5000  1.34097e-06  4.66255e+07
       1045.6000  1.34097e-06  4.65987e+07
       1045.7000  1.34097e-06  4.65853e+07
       1045.8000  1.34097e-06  4.65718e+07
       1045.9000  1.34097e-06  4.65584e+07
       1046.0000  1.34097e-06  4.65450e+07
       1046.1000  1.34097e-06  4.65450e+07
       1046.2000  1.34097e-06  4.65316e+07
       1046.3000  1.30290e-06  4.52107e+07
       1046.4000  1.30290e-06  4.52107e+07
       1046.5000  1.06915e-06  3.71101e+07
       1046.6000  1.06915e-06  3.71101e+07
       1046.7000  1.06915e-06  3.71207e+07
       1046.8000  1.06915e-06  3.71314e+07
       1046.9000  1.06915e-06  3.71421e+07
       1047.0000  1.06915e-06  3.71635e+07
       1047.1000  1.06915e-06  3.71742e+07
       1047.2000  1.06915e-06  3.71956e+07
       1047.3000  1.06915e-06  3.72170e+07
       1047.4000  1.06915e-06  3.72384e+07
       1047.5000  8.43603e-07  2.94080e+07
       1047.6000  8.43603e-07  2.94249e+07
       1047.7000  8.43603e-07  2.94502e+07
       1047.8000  8.43603e-07  2.94755e+07
       1047.9000  8.43603e-07  2.95008e+07
       1048.0000  8.43603e-07  2.95345e+07
       1048.1000  8.43603e-07  2.95345e+07
       1048.2000  8.43603e-07  2.95345e+07
       1048.3000  8.43603e-07  2.95345e+07
       1048.4000  8.43603e-07  2.95261e+07
       1048.5000  6.92513e-07  2.42380e+07
       1048.6000  6.92513e-07  2.42380e+07
       1048.7000  6.92513e-07  2.42380e+07
       1048.8000  6.74402e-07  2.36041e+07
       1048.9000  6.74402e-07  2.36041e+07
       1049.0000  6.74402e-07  2.35973e+07
       1049.1000  6.74402e-07  2.35973e+07
       1049.2000  6.74402e-07  2.35973e+07
       1049.3000  6.74402e-07  2.35906e+07
       1049.4000  6.74402e-07  2.35906e+07
       1049.5000  5.56192e-07  1.94556e+07
       1049.6000  5.56192e-07  1.94500e+07
       1049.7000  5.56192e-07  1.94500e+07
       1049.8000  5.56192e-07  1.94500e+07
       1049.9000  5.56192e-07  1.94445e+07
       1050.0000  5.56192e-07  1.94445e+07
       1050.1000  5.56192e-07  1.94389e+07
       1050.2000  5.56192e-07  1.94389e+07
       1050.3000  5.56192e-07  1.94334e+07
       1050.4000  5.56192e-07  1.94278e+07
       1050.5000  4.57576e-07  1.59831e+07
       1050.6000  4.57576e-07  1.59785e+07
       1050.7000  4.57576e-07  1.59785e+07
       1050.8000  4.57576e-07  1.59740e+07
       1050.9000  4.57576e-07  1.59694e+07
       1051.0000  4.57576e-07  1.59694e+07
       1051.1000  4.57576e-07  1.59648e+07
       1051.2000  4.57576e-07  1.59648e+07
       1051.3000  4.47336e-07  1.56031e+07
       1051.4000  4.47336e-07  1.55986e+07
       1051.5000  3.69598e-07  1.28879e+07
       1051.6000  3.69598e-07  1.28842e+07
       1051.7000  3.69598e-07  1.28805e+07
       1051.8000  3.69598e-07  1.28805e+07
       1051.9000  3.69598e-07  1.28768e+07
       1052.0000  3.69598e-07  1.28768e+07
       1052.1000  3.69598e-07  1.28731e+07
       1052.2000  3.69598e-07  1.28694e+07
       1052.3000  3.69598e-07  1.28694e+07
       1052.4000  3.69598e-07  1.28657e+07
       1052.5000  2.75161e-07  9.57559e+06
       1052.6000  2.75161e-07  9.57559e+06
       1052.7000  2.75161e-07  9.57284e+06
       1052.8000  2.75161e-07  9.57009e+06
       1052.9000  2.75161e-07  9.57009e+06
       1053.0000  2.75161e-07  9.56734e+06
       1053.1000  2.75161e-07  9.56734e+06
       1053.2000  2.75161e-07  9.56459e+06
       1053.3000  2.75161e-07  9.56183e+06
       1053.4000  2.75161e-07  9.56183e+06
       1053.5000  2.13358e-07  7.41207e+06
       1053.6000  2.13358e-07  7.40993e+06
       1053.7000  2.13358e-07  7.40993e+06
       1053.8000  2.09373e-07  7.26943e+06
       1053.9000  2.09373e-07  7.26734e+06
       1054.0000  2.09373e-07  7.26734e+06
       1054.1000  2.09373e-07  7.27153e+06
       1054.2000  2.09373e-07  7.27362e+06
       1054.3000  2.09373e-07  7.27781e+06
       1054.4000  2.09373e-07  7.28199e+06
       1054.5000  1.53959e-07  5.35625e+06
       1054.6000  1.53959e-07  5.35779e+06
       1054.7000  1.53959e-07  5.35932e+06
       1054.8000  1.53959e-07  5.36086e+06
       1054.9000  1.53959e-07  5.36240e+06
       1055.0000  1.53959e-07  5.36394e+06
       1055.1000  1.53959e-07  5.36394e+06
       1055.2000  1.53959e-07  5.36394e+06
       1055.3000  1.53959e-07  5.36548e+06
       1055.4000  1.53959e-07  5.36548e+06
       1055.5000  1.08810e-07  3.79096e+06
       1055.6000  1.08810e-07  3.79096e+06
       1055.7000  1.08810e-07  3.79096e+06
       1055.8000  1.08810e-07  3.78987e+06
       1055.9000  1.08810e-07  3.78878e+06
       1056.0000  1.08810e-07  3.78769e+06
       1056.1000  1.08810e-07  3.78443e+06
       1056.2000  1.08810e-07  3.78116e+06
       1056.3000  1.06826e-07  3.70900e+06
       1056.4000  1.06826e-07  3.70473e+06
       1056.5000  6.05536e-08  2.09818e+06
       1056.6000  6.05536e-08  2.09697e+06
       1056.7000  6.05536e-08  2.09515e+06
       1056.8000  6.05536e-08  2.09334e+06
       1056.9000  6.05536e-08  2.09152e+06
       1057.0000  6.05536e-08  2.09031e+06
